Time:64Hz,Epoch,Channel 1,Event Id,Event Date,Event Duration
0.0000000000,0,0.4720458984,,,
0.0156250000,0,0.1938170940,,,
0.0312500000,0,-0.0650024414,,,
0.0468750000,0,-0.2465820014,,,
0.0625000000,0,-0.2475890964,,,
0.0781250000,0,0.0101623498,,,
0.0937500000,0,0.5036621094,,,
0.1093750000,0,1.0907590389,,,
0.1250000000,0,1.5497440100,,,
0.1406250000,0,1.6996459961,,,
0.1562500000,0,1.4559630156,,,
0.1718750000,0,0.9103394151,,,
0.1875000000,0,0.2565307915,,,
0.2031250000,0,-0.2676697075,,,
0.2187500000,0,-0.5123596191,,,
0.2343750000,0,-0.4633179009,,,
0.2500000000,0,-0.2024230957,,,
0.2656250000,0,0.1308289021,,,
0.2812500000,0,0.4630737007,,,
0.2968750000,0,0.7603455186,,,
0.3125000000,0,1.0415040255,,,
0.3281250000,0,1.2850650549,,,
0.3437500000,0,1.4046939611,,,
0.3593750000,0,1.2904969454,,,
0.3750000000,0,0.8701477051,,,
0.3906250000,0,0.2000122070,,,
0.4062500000,0,-0.5130919814,,,
0.4218750000,0,-1.0206300020,,,
0.4375000000,0,-1.1338499784,,,
0.4531250000,0,-0.8367919922,,,
0.4687500000,0,-0.3171082139,,,
0.4843750000,0,0.1654053032,,,
0.5000000000,0,0.3964233100,,,
0.5156250000,0,0.3322449028,,,
0.5312500000,0,0.0751953125,,,
0.5468750000,0,-0.2103576958,,,
0.5625000000,0,-0.4124755859,,,
0.5781250000,0,-0.5179749131,,,
0.5937500000,0,-0.5789185166,,,
0.6093750000,0,-0.6482543945,,,
0.6250000000,0,-0.7112731934,,,
0.6406250000,0,-0.6884155273,,,
0.6562500000,0,-0.5260009766,,,
0.6718750000,0,-0.2369689941,,,
0.6875000000,0,0.0043640141,,,
0.7031250000,0,0.0105895996,,,
0.7187500000,0,-0.3498534858,,,
0.7343750000,0,-1.0360410213,,,
0.7500000000,0,-1.8491820097,,,
0.7656250000,0,-2.5385739803,,,
0.7812500000,0,-2.8753359318,,,
0.7968750000,0,-2.8133540154,,,
0.8125000000,0,-2.4268190861,,,
0.8281250000,0,-1.8884890079,,,
0.8437500000,0,-1.3502810001,,,
0.8593750000,0,-0.9119873047,,,
0.8750000000,0,-0.6082764268,,,
0.8906250000,0,-0.4448241889,,,
0.9062500000,0,-0.4043883979,,,
0.9218750000,0,-0.4481812119,,,
0.9375000000,0,-0.5421447754,,,
0.9531250000,0,-0.5910645127,,,
0.9687500000,0,-0.5180053711,,,
0.9843750000,0,-0.2713317871,,,
1.0000000000,0,0.1414795071,,,
1.0156250000,0,0.6614990234,,,
1.0312500000,0,1.2088929415,,,
1.0468750000,0,1.7261350155,,,
1.0625000000,0,2.1751399040,,,
1.0781250000,0,2.5308530331,,,
1.0937500000,0,2.7694699764,,,
1.1093750000,0,2.8424069881,,,
1.1250000000,0,2.7111508846,,,
1.1406250000,0,2.3649599552,,,
1.1562500000,0,1.8236999512,,,
1.1718750000,0,1.1654969454,,,
1.1875000000,0,0.4670104980,,,
1.2031250000,0,-0.1770630032,,,
1.2187500000,0,-0.7156981826,,,
1.2343750000,0,-1.0856319666,,,
1.2500000000,0,-1.2492979765,,,
1.2656250000,0,-1.1917109489,,,
1.2812500000,0,-0.9480286241,,,
1.2968750000,0,-0.6028748155,,,
1.3125000000,0,-0.2609862983,,,
1.3281250000,0,-0.0144348098,,,
1.3437500000,0,0.1118469015,,,
1.3593750000,0,0.1348571926,,,
1.3750000000,0,0.1314391941,,,
1.3906250000,0,0.1407165974,,,
1.4062500000,0,0.1630249023,,,
1.4218750000,0,0.1552429050,,,
1.4375000000,0,0.0622863807,,,
1.4531250000,0,-0.1060485989,,,
1.4687500000,0,-0.2776184082,,,
1.4843750000,0,-0.3155212104,,,
1.5000000000,0,-0.0979309082,,,
1.5156250000,0,0.4258728027,,,
1.5312500000,0,1.1750789881,,,
1.5468750000,0,1.9953310490,,,
1.5625000000,0,2.6828610897,,,
1.5781250000,0,3.1159670353,,,
1.5937500000,0,3.2575678825,,,
1.6093750000,0,3.1613159180,,,
1.6250000000,0,2.9102170467,,,
1.6406250000,0,2.5520319939,,,
1.6562500000,0,2.0831298828,,,
1.6718750000,0,1.4657590389,,,
1.6875000000,0,0.6902161241,,,
1.7031250000,0,-0.1820984036,,,
1.7187500000,0,-1.0153809786,,,
1.7343750000,0,-1.6591800451,,,
1.7500000000,0,-2.0010681152,,,
1.7656250000,0,-2.0113220215,,,
1.7812500000,0,-1.7810970545,,,
1.7968750000,0,-1.4421390295,,,
1.8125000000,0,-1.1113890409,,,
1.8281250000,0,-0.8408507705,,,
1.8437500000,0,-0.6140136719,,,
1.8593750000,0,-0.3966063857,,,
1.8750000000,0,-0.1889647990,,,
1.8906250000,0,-0.0334167518,,,
1.9062500000,0,-0.0147094699,,,
1.9218750000,0,-0.1969604045,,,
1.9375000000,0,-0.5552368164,,,
1.9531250000,0,-0.9726563096,,,
1.9687500000,0,-1.2905880213,,,
1.9843750000,0,-1.3747249842,,,
2.0000000000,0,-1.2007139921,,,
2.0156250000,0,-0.8234558105,,,
2.0312500000,0,-0.3479309082,,,
2.0468750000,0,0.1452026069,,,
2.0625000000,0,0.6034240723,,,
2.0781250000,0,1.0220030546,,,
2.0937500000,0,1.3652950525,,,
2.1093750000,0,1.5980219841,,,
2.1250000000,0,1.6921080351,,,
2.1406250000,0,1.6460570097,,,
2.1562500000,0,1.4943540096,,,
2.1718750000,0,1.2815250158,,,
2.1875000000,0,1.0259399414,,,
2.2031250000,0,0.7325438857,,,
2.2187500000,0,0.4122925103,,,
2.2343750000,0,0.1062012017,,,
2.2500000000,0,-0.1244506985,,,
2.2656250000,0,-0.2308959961,,,
2.2812500000,0,-0.2284546047,,,
2.2968750000,0,-0.2004394978,,,
2.3125000000,0,-0.2441101074,,,
2.3281250000,0,-0.3989562988,,,
2.3437500000,0,-0.6379699707,,,
2.3593750000,0,-0.9092102051,,,
2.3750000000,0,-1.1853940487,,,
2.3906250000,0,-1.4930109978,,,
2.4062500000,0,-1.8517760038,,,
2.4218750000,0,-2.2051699162,,,
2.4375000000,0,-2.4364619255,,,
2.4531250000,0,-2.3732910156,,,
2.4687500000,0,-1.9442750216,,,
2.4843750000,0,-1.2096560001,,,
2.5000000000,0,-0.3842773139,,,
2.5156250000,0,0.3057555854,,,
2.5312500000,0,0.6961060166,,,
2.5468750000,0,0.7674254775,,,
2.5625000000,0,0.6126099229,,,
2.5781250000,0,0.3703002930,,,
2.5937500000,0,0.1292418987,,,
2.6093750000,0,-0.0379638709,,,
2.6250000000,0,-0.0896301270,,,
2.6406250000,0,0.0018920900,,,
2.6562500000,0,0.2337035984,,,
2.6718750000,0,0.5278015137,,,
2.6875000000,0,0.7592468262,,,
2.7031250000,0,0.7919005752,,,
2.7187500000,0,0.5762634277,,,
2.7343750000,0,0.1578368992,,,
2.7500000000,0,-0.2978209853,,,
2.7656250000,0,-0.6197814941,,,
2.7812500000,0,-0.6789550781,,,
2.7968750000,0,-0.4551697075,,,
2.8125000000,0,-0.0133361798,,,
2.8281250000,0,0.5450134277,,,
2.8437500000,0,1.1248170137,,,
2.8593750000,0,1.6365050077,,,
2.8750000000,0,2.0036010742,,,
2.8906250000,0,2.1430358887,,,
2.9062500000,0,1.9925839901,,,
2.9218750000,0,1.5614620447,,,
2.9375000000,0,0.9140319824,,,
2.9531250000,0,0.1877747029,,,
2.9687500000,0,-0.4596557915,,,
2.9843750000,0,-0.8864440918,,,
3.0000000000,0,-1.0136109591,,,
3.0156250000,0,-0.8190001845,,,
3.0312500000,0,-0.3762511909,,,
3.0468750000,0,0.1569214016,,,
3.0625000000,0,0.5872498155,,,
3.0781250000,0,0.7609558105,,,
3.0937500000,0,0.6100159287,,,
3.1093750000,0,0.2115173042,,,
3.1250000000,0,-0.2725524902,,,
3.1406250000,0,-0.6758118272,,,
3.1562500000,0,-0.9359741211,,,
3.1718750000,0,-1.1050419807,,,
3.1875000000,0,-1.2951660156,,,
3.2031250000,0,-1.5930789709,,,
3.2187500000,0,-1.9559630156,,,
3.2343750000,0,-2.2442319393,,,
3.2500000000,0,-2.2693181038,,,
3.2656250000,0,-1.9409179688,,,
3.2812500000,0,-1.3089289665,,,
3.2968750000,0,-0.5740966797,,,
3.3125000000,0,0.0364685096,,,
3.3281250000,0,0.3429565132,,,
3.3437500000,0,0.3095703125,,,
3.3593750000,0,0.0272216797,,,
3.3750000000,0,-0.3507384956,,,
3.3906250000,0,-0.6632689834,,,
3.4062500000,0,-0.8415526748,,,
3.4218750000,0,-0.8981018066,,,
3.4375000000,0,-0.8834229112,,,
3.4531250000,0,-0.8336791992,,,
3.4687500000,0,-0.7417907715,,,
3.4843750000,0,-0.5538939834,,,
3.5000000000,0,-0.2359924018,,,
3.5156250000,0,0.1835021973,,,
3.5312500000,0,0.5919495225,,,
3.5468750000,0,0.8493651748,,,
3.5625000000,0,0.8651732802,,,
3.5781250000,0,0.6604918838,,,
3.5937500000,0,0.3769530952,,,
3.6093750000,0,0.1749877930,,,
3.6250000000,0,0.1354674995,,,
3.6406250000,0,0.2399291992,,,
3.6562500000,0,0.3509520888,,,
3.6718750000,0,0.3391417861,,,
3.6875000000,0,0.1546631008,,,
3.7031250000,0,-0.1250000000,,,
3.7187500000,0,-0.3493346870,,,
3.7343750000,0,-0.3995055854,,,
3.7500000000,0,-0.2469788045,,,
3.7656250000,0,0.0300598107,,,
3.7812500000,0,0.3086242974,,,
3.7968750000,0,0.4660950005,,,
3.8125000000,0,0.4881592095,,,
3.8281250000,0,0.4031982124,,,
3.8437500000,0,0.2892150879,,,
3.8593750000,0,0.1881714016,,,
3.8750000000,0,0.0893554688,,,
3.8906250000,0,-0.0148315402,,,
3.9062500000,0,-0.1230468974,,,
3.9218750000,0,-0.1931762993,,,
3.9375000000,0,-0.1691894978,,,
3.9531250000,0,0.0164489709,,,
3.9687500000,0,0.3347778022,,,
3.9843750000,0,0.7170714736,,,
4.0000000000,0,1.0394899845,,,
4.0156250000,0,1.2145999670,,,
4.0312500000,0,1.2135930061,,,
4.0468750000,0,1.0820920467,,,
4.0625000000,0,0.8824157715,,,
4.0781250000,0,0.6354979873,,,
4.0937500000,0,0.2976684868,,,
4.1093750000,0,-0.1861266941,,,
4.1250000000,0,-0.8114624023,,,
4.1406250000,0,-1.4451600313,,,
4.1562500000,0,-1.8505549431,,,
4.1718750000,0,-1.8023070097,,,
4.1875000000,0,-1.2297669649,,,
4.2031250000,0,-0.2819213867,,,
4.2187500000,0,0.7286682129,,,
4.2343750000,0,1.4806820154,,,
4.2500000000,0,1.8262629509,,,
4.2656250000,0,1.8361510038,,,
4.2812500000,0,1.7564389706,,,
4.2968750000,0,1.8049319983,,,
4.3125000000,0,2.0594789982,,,
4.3281250000,0,2.3910219669,,,
4.3437500000,0,2.5636599064,,,
4.3593750000,0,2.3727109432,,,
4.3750000000,0,1.7821960449,,,
4.3906250000,0,0.9381409287,,,
4.4062500000,0,0.0929565430,,,
4.4218750000,0,-0.5083922744,,,
4.4375000000,0,-0.7833861709,,,
4.4531250000,0,-0.7685546875,,,
4.4687500000,0,-0.6294249892,,,
4.4843750000,0,-0.5144957900,,,
4.5000000000,0,-0.5095520020,,,
4.5156250000,0,-0.5903931260,,,
4.5312500000,0,-0.6899108887,,,
4.5468750000,0,-0.7361450195,,,
4.5625000000,0,-0.7167357802,,,
4.5781250000,0,-0.6802062988,,,
4.5937500000,0,-0.7042542100,,,
4.6093750000,0,-0.8391724229,,,
4.6250000000,0,-1.0645749569,,,
4.6406250000,0,-1.3265379667,,,
4.6562500000,0,-1.5810849667,,,
4.6718750000,0,-1.7952270508,,,
4.6875000000,0,-1.9636839628,,,
4.7031250000,0,-2.0225830078,,,
4.7187500000,0,-1.8859859705,,,
4.7343750000,0,-1.4441529512,,,
4.7500000000,0,-0.6307373047,,,
4.7656250000,0,0.4768677056,,,
4.7812500000,0,1.6725460291,,,
4.7968750000,0,2.6593930721,,,
4.8125000000,0,3.1544189453,,,
4.8281250000,0,2.9856259823,,,
4.8437500000,0,2.1902770996,,,
4.8593750000,0,0.9857482910,,,
4.8750000000,0,-0.2303771973,,,
4.8906250000,0,-1.0913089514,,,
4.9062500000,0,-1.3462829590,,,
4.9218750000,0,-0.9749451280,,,
4.9375000000,0,-0.1795959026,,,
4.9531250000,0,0.7132263184,,,
4.9687500000,0,1.4122920036,,,
4.9843750000,0,1.7825930119,,,
5.0000000000,0,1.8624880314,,,
5.0156250000,0,1.8203740120,,,
5.0312500000,0,1.7552490234,,,
5.0468750000,0,1.6608580351,,,
5.0625000000,0,1.4138180017,,,
5.0781250000,0,0.9221801758,,,
5.0937500000,0,0.2140198052,,,
5.1093750000,0,-0.5338745117,,,
5.1250000000,0,-1.0940550566,,,
5.1406250000,0,-1.3288270235,,,
5.1562500000,0,-1.2956540585,,,
5.1718750000,0,-1.1767580509,,,
5.1875000000,0,-1.1557010412,,,
5.2031250000,0,-1.2806090117,,,
5.2187500000,0,-1.4245300293,,,
5.2343750000,0,-1.3864749670,,,
5.2500000000,0,-1.0328979492,,,
5.2656250000,0,-0.4121398926,,,
5.2812500000,0,0.2734985054,,,
5.2968750000,0,0.7803649902,,,
5.3125000000,0,0.9467772841,,,
5.3281250000,0,0.7818604112,,,
5.3437500000,0,0.4002380073,,,
5.3593750000,0,-0.0530700684,,,
5.3750000000,0,-0.4777832031,,,
5.3906250000,0,-0.8609619141,,,
5.4062500000,0,-1.2246400118,,,
5.4218750000,0,-1.5585939884,,,
5.4375000000,0,-1.8018189669,,,
5.4531250000,0,-1.8516240120,,,
5.4687500000,0,-1.6240839958,,,
5.4843750000,0,-1.1090699434,,,
5.5000000000,0,-0.3935852051,,,
5.5156250000,0,0.3829041123,,,
5.5312500000,0,1.0578310490,,,
5.5468750000,0,1.5465699434,,,
5.5625000000,0,1.8021550179,,,
5.5781250000,0,1.8302309513,,,
5.5937500000,0,1.6362919807,,,
5.6093750000,0,1.2424930334,,,
5.6250000000,0,0.6560059190,,,
5.6406250000,0,-0.0653686523,,,
5.6562500000,0,-0.7938231826,,,
5.6718750000,0,-1.3967289925,,,
5.6875000000,0,-1.7223819494,,,
5.7031250000,0,-1.7259830236,,,
5.7187500000,0,-1.4627690315,,,
5.7343750000,0,-1.0707700253,,,
5.7500000000,0,-0.6800842285,,,
5.7656250000,0,-0.3549500108,,,
5.7812500000,0,-0.0695495605,,,
5.7968750000,0,0.2452698052,,,
5.8125000000,0,0.6228638291,,,
5.8281250000,0,1.0329899788,,,
5.8437500000,0,1.3541259766,,,
5.8593750000,0,1.4662170410,,,
5.8750000000,0,1.3305050135,,,
5.8906250000,0,1.0140689611,,,
5.9062500000,0,0.6753845215,,,
5.9218750000,0,0.4791564941,,,
5.9375000000,0,0.5147399902,,,
5.9531250000,0,0.7574768066,,,
5.9687500000,0,1.1103210449,,,
5.9843750000,0,1.4669189453,,,
6.0000000000,0,1.7930910587,,,
6.0156250000,0,2.0830988884,,,
6.0312500000,0,2.3391420841,,,
6.0468750000,0,2.5151669979,,,
6.0625000000,0,2.5065610409,,,
6.0781250000,0,2.2340390682,,,
6.0937500000,0,1.6852719784,,,
6.1093750000,0,0.9616088867,,,
6.1250000000,0,0.1959228963,,,
6.1406250000,0,-0.4990234077,,,
6.1562500000,0,-1.0788270235,,,
6.1718750000,0,-1.5661319494,,,
6.1875000000,0,-1.9545589685,,,
6.2031250000,0,-2.2253110409,,,
6.2187500000,0,-2.2694699764,,,
6.2343750000,0,-2.0184628963,,,
6.2500000000,0,-1.4648740292,,,
6.2656250000,0,-0.7353516221,,,
6.2812500000,0,-0.0091247559,,,
6.2968750000,0,0.5091552734,,,
6.3125000000,0,0.6867675781,,,
6.3281250000,0,0.5121765137,,,
6.3437500000,0,0.0467529297,,,
6.3593750000,0,-0.5775756836,,,
6.3750000000,0,-1.2201540470,,,
6.3906250000,0,-1.7638850212,,,
6.4062500000,0,-2.1413269043,,,
6.4218750000,0,-2.3071589470,,,
6.4375000000,0,-2.2681579590,,,
6.4531250000,0,-2.0439760685,,,
6.4687500000,0,-1.6947020292,,,
6.4843750000,0,-1.3144530058,,,
6.5000000000,0,-0.9941710830,,,
6.5156250000,0,-0.8334351182,,,
6.5312500000,0,-0.8526917100,,,
6.5468750000,0,-0.9919434190,,,
6.5625000000,0,-1.1236269474,,,
6.5781250000,0,-1.1284179688,,,
6.5937500000,0,-0.9806823730,,,
6.6093750000,0,-0.7431945801,,,
6.6250000000,0,-0.5477294922,,,
6.6406250000,0,-0.4770812988,,,
6.6562500000,0,-0.5150145888,,,
6.6718750000,0,-0.5261229873,,,
6.6875000000,0,-0.3469848931,,,
6.7031250000,0,0.0857238770,,,
6.7187500000,0,0.6971129775,,,
6.7343750000,0,1.2883299589,,,
6.7500000000,0,1.6533199549,,,
6.7656250000,0,1.6815799475,,,
6.7812500000,0,1.4438170195,,,
6.7968750000,0,1.1268620491,,,
6.8125000000,0,0.9352722168,,,
6.8281250000,0,0.9572753906,,,
6.8437500000,0,1.1372380257,,,
6.8593750000,0,1.2999269962,,,
6.8750000000,0,1.2681269646,,,
6.8906250000,0,0.9869384766,,,
6.9062500000,0,0.5575867295,,,
6.9218750000,0,0.1906127930,,,
6.9375000000,0,0.0540466309,,,
6.9531250000,0,0.1978148967,,,
6.9687500000,0,0.4783324897,,,
6.9843750000,0,0.6841431260,,,
7.0000000000,0,0.6132813096,,,
7.0156250000,0,0.2113036960,,,
7.0312500000,0,-0.4392395020,,,
7.0468750000,0,-1.1681820154,,,
7.0625000000,0,-1.8023990393,,,
7.0781250000,0,-2.2366940975,,,
7.0937500000,0,-2.4347229004,,,
7.1093750000,0,-2.4271550179,,,
7.1250000000,0,-2.2372128963,,,
7.1406250000,0,-1.8899539709,,,
7.1562500000,0,-1.3898320198,,,
7.1718750000,0,-0.7706604004,,,
7.1875000000,0,-0.1059874967,,,
7.2031250000,0,0.4833678901,,,
7.2187500000,0,0.8808898926,,,
7.2343750000,0,1.0173950195,,,
7.2500000000,0,0.9282531738,,,
7.2656250000,0,0.7145690918,,,
7.2812500000,0,0.5335083008,,,
7.2968750000,0,0.5111083984,,,
7.3125000000,0,0.6877440810,,,
7.3281250000,0,0.9950255752,,,
7.3437500000,0,1.3210140467,,,
7.3593750000,0,1.5533139706,,,
7.3750000000,0,1.6373599768,,,
7.3906250000,0,1.5895390511,,,
7.4062500000,0,1.4804379940,,,
7.4218750000,0,1.3981319666,,,
7.4375000000,0,1.3750000000,,,
7.4531250000,0,1.4223020077,,,
7.4687500000,0,1.4723819494,,,
7.4843750000,0,1.4766850471,,,
7.5000000000,0,1.3892819881,,,
7.5156250000,0,1.2406920195,,,
7.5312500000,0,1.1049499512,,,
7.5468750000,0,1.0883179903,,,
7.5625000000,0,1.2291259766,,,
7.5781250000,0,1.4507139921,,,
7.5937500000,0,1.6072080135,,,
7.6093750000,0,1.5176090002,,,
7.6250000000,0,1.1100460291,,,
7.6406250000,0,0.4451903999,,,
7.6562500000,0,-0.2607116997,,,
7.6718750000,0,-0.7856749892,,,
7.6875000000,0,-0.9541320801,,,
7.7031250000,0,-0.7780457139,,,
7.7187500000,0,-0.3780823052,,,
7.7343750000,0,0.0398559608,,,
7.7500000000,0,0.3260802925,,,
7.7656250000,0,0.3883971870,,,
7.7812500000,0,0.2360839993,,,
7.7968750000,0,-0.0463562012,,,
7.8125000000,0,-0.3711853027,,,
7.8281250000,0,-0.6545714736,,,
7.8437500000,0,-0.8352661133,,,
7.8593750000,0,-0.8921813965,,,
7.8750000000,0,-0.8122863770,,,
7.8906250000,0,-0.6219788194,,,
7.9062500000,0,-0.3862000108,,,
7.9218750000,0,-0.1889647990,,,
7.9375000000,0,-0.1221313030,,,
7.9531250000,0,-0.2193908989,,,
7.9687500000,0,-0.4440613091,,,
7.9843750000,0,-0.6661986709,,,
8.0000000000,1,-0.7520751953,,,
8.0156250000,1,-0.6083374023,,,
8.0312500000,1,-0.2987976074,,,
8.0468750000,1,0.0032958980,,,
8.0625000000,1,0.1024779975,,,
8.0781250000,1,-0.1093750000,,,
8.0937500000,1,-0.5994873047,,,
8.1093750000,1,-1.1950680017,,,
8.1250000000,1,-1.7076719999,,,
8.1406250000,1,-2.0225520134,,,
8.1562500000,1,-2.1152338982,,,
8.1718750000,1,-2.0488588810,,,
8.1875000000,1,-1.8586729765,,,
8.2031250000,1,-1.5519709587,,,
8.2187500000,1,-1.0785830021,,,
8.2343750000,1,-0.4418334961,,,
8.2500000000,1,0.3368834853,,,
8.2656250000,1,1.1495670080,,,
8.2812500000,1,1.8712459803,,,
8.2968750000,1,2.4134829044,,,
8.3125000000,1,2.7105100155,,,
8.3281250000,1,2.7619628906,,,
8.3437500000,1,2.6099550724,,,
8.3593750000,1,2.3183290958,,,
8.3750000000,1,1.9471739531,,,
8.3906250000,1,1.5551149845,,,
8.4062500000,1,1.1389160156,,,
8.4218750000,1,0.6974791884,,,
8.4375000000,1,0.2392577976,,,
8.4531250000,1,-0.1963195950,,,
8.4687500000,1,-0.5456848145,,,
8.4843750000,1,-0.7260437012,,,
8.5000000000,1,-0.7464904785,,,
8.5156250000,1,-0.6423339844,,,
8.5312500000,1,-0.4813232124,,,
8.5468750000,1,-0.3142699897,,,
8.5625000000,1,-0.1771851033,,,
8.5781250000,1,-0.0948181227,,,
8.5937500000,1,-0.1444091946,,,
8.6093750000,1,-0.4250183105,,,
8.6250000000,1,-0.9887084961,,,
8.6406250000,1,-1.7561949492,,,
8.6562500000,1,-2.4987180233,,,
8.6718750000,1,-2.9081120491,,,
8.6875000000,1,-2.7481379509,,,
8.7031250000,1,-2.0148620605,,,
8.7187500000,1,-0.9122009277,,,
8.7343750000,1,0.2110290974,,,
8.7500000000,1,1.0484919548,,,
8.7656250000,1,1.4573359489,,,
8.7812500000,1,1.4725650549,,,
8.7968750000,1,1.2185360193,,,
8.8125000000,1,0.8304442763,,,
8.8281250000,1,0.3451232910,,,
8.8437500000,1,-0.2137756050,,,
8.8593750000,1,-0.8113402724,,,
8.8750000000,1,-1.3366700411,,,
8.8906250000,1,-1.5935059786,,,
8.9062500000,1,-1.4221190214,,,
8.9218750000,1,-0.7744445801,,,
8.9375000000,1,0.1971130073,,,
8.9531250000,1,1.1936340332,,,
8.9687500000,1,1.8679349422,,,
8.9843750000,1,2.0210270882,,,
9.0000000000,1,1.6694029570,,,
9.0156250000,1,1.0742650032,,,
9.0312500000,1,0.5629578233,,,
9.0468750000,1,0.3904266059,,,
9.0625000000,1,0.6001892090,,,
9.0781250000,1,1.0184329748,,,
9.0937500000,1,1.4007259607,,,
9.1093750000,1,1.5240479708,,,
9.1250000000,1,1.3363800049,,,
9.1406250000,1,0.9178771973,,,
9.1562500000,1,0.4000092149,,,
9.1718750000,1,-0.1104888991,,,
9.1875000000,1,-0.5666962266,,,
9.2031250000,1,-0.9585266113,,,
9.2187500000,1,-1.2630159855,,,
9.2343750000,1,-1.4169620275,,,
9.2500000000,1,-1.3562769890,,,
9.2656250000,1,-1.0757900476,,,
9.2812500000,1,-0.6508178711,,,
9.2968750000,1,-0.2340393066,,,
9.3125000000,1,0.0478820801,,,
9.3281250000,1,0.1102142036,,,
9.3437500000,1,0.0167846698,,,
9.3593750000,1,-0.0974121094,,,
9.3750000000,1,-0.0877990723,,,
9.3906250000,1,0.1359710991,,,
9.4062500000,1,0.5625916123,,,
9.4218750000,1,1.1164699793,,,
9.4375000000,1,1.6845400333,,,
9.4531250000,1,2.1719670296,,,
9.4687500000,1,2.5022740364,,,
9.4843750000,1,2.6267549992,,,
9.5000000000,1,2.4984889030,,,
9.5156250000,1,2.1345520020,,,
9.5312500000,1,1.5781860352,,,
9.5468750000,1,0.9475402832,,,
9.5625000000,1,0.3803558052,,,
9.5781250000,1,0.0079956045,,,
9.5937500000,1,-0.1159821004,,,
9.6093750000,1,-0.0484314002,,,
9.6250000000,1,0.0887756273,,,
9.6406250000,1,0.1410522014,,,
9.6562500000,1,0.0164947491,,,
9.6718750000,1,-0.2859955132,,,
9.6875000000,1,-0.6634827256,,,
9.7031250000,1,-0.9872589111,,,
9.7187500000,1,-1.1646879911,,,
9.7343750000,1,-1.1943819523,,,
9.7500000000,1,-1.1646579504,,,
9.7656250000,1,-1.2011870146,,,
9.7812500000,1,-1.3782039881,,,
9.7968750000,1,-1.6662750244,,,
9.8125000000,1,-1.9469599724,,,
9.8281250000,1,-2.0660400391,,,
9.8437500000,1,-1.9213099480,,,
9.8593750000,1,-1.5083620548,,,
9.8750000000,1,-0.9180449843,,,
9.8906250000,1,-0.2702941895,,,
9.9062500000,1,0.3045502007,,,
9.9218750000,1,0.7295532227,,,
9.9375000000,1,0.9596862793,,,
9.9531250000,1,0.9942932129,,,
9.9687500000,1,0.8487091064,,,
9.9843750000,1,0.6012421250,,,
10.0000000000,1,0.3578490913,,,
10.0156250000,1,0.2168883979,,,
10.0312500000,1,0.2332915962,,,
10.0468750000,1,0.4033356011,,,
10.0625000000,1,0.6243895888,,,
10.0781250000,1,0.7780913711,,,
10.0937500000,1,0.7552031875,,,
10.1093750000,1,0.5018311143,,,
10.1250000000,1,0.0438842811,,,
10.1406250000,1,-0.5086212158,,,
10.1562500000,1,-1.0095980167,,,
10.1718750000,1,-1.2899169922,,,
10.1875000000,1,-1.2279659510,,,
10.2031250000,1,-0.8147277832,,,
10.2187500000,1,-0.1431273967,,,
10.2343750000,1,0.6099700928,,,
10.2500000000,1,1.2392879725,,,
10.2656250000,1,1.5669709444,,,
10.2812500000,1,1.4912409782,,,
10.2968750000,1,0.9948272705,,,
10.3125000000,1,0.1811676025,,,
10.3281250000,1,-0.7589417100,,,
10.3437500000,1,-1.6009520292,,,
10.3593750000,1,-2.1514739990,,,
10.3750000000,1,-2.3081970215,,,
10.3906250000,1,-2.1269528866,,,
10.4062500000,1,-1.7723079920,,,
10.4218750000,1,-1.4417719841,,,
10.4375000000,1,-1.2673649788,,,
10.4531250000,1,-1.2445679903,,,
10.4687500000,1,-1.2841490507,,,
10.4843750000,1,-1.2726140022,,,
10.5000000000,1,-1.1432340145,,,
10.5156250000,1,-0.9246520996,,,
10.5312500000,1,-0.7063903809,,,
10.5468750000,1,-0.5396118164,,,
10.5625000000,1,-0.4137878120,,,
10.5781250000,1,-0.2491912991,,,
10.5937500000,1,0.0480346717,,,
10.6093750000,1,0.5091248155,,,
10.6250000000,1,1.0711059570,,,
10.6406250000,1,1.5761109591,,,
10.6562500000,1,1.8223420382,,,
10.6718750000,1,1.6725920439,,,
10.6875000000,1,1.1679379940,,,
10.7031250000,1,0.5224304199,,,
10.7187500000,1,0.0216369592,,,
10.7343750000,1,-0.0702972412,,,
10.7500000000,1,0.3194274902,,,
10.7656250000,1,1.0574040413,,,
10.7812500000,1,1.8767089844,,,
10.7968750000,1,2.4747920036,,,
10.8125000000,1,2.6630709171,,,
10.8281250000,1,2.3970339298,,,
10.8437500000,1,1.7474980354,,,
10.8593750000,1,0.8479766846,,,
10.8750000000,1,-0.1390991062,,,
10.8906250000,1,-1.0487819910,,,
10.9062500000,1,-1.7093960047,,,
10.9218750000,1,-1.9719239473,,,
10.9375000000,1,-1.7858120203,,,
10.9531250000,1,-1.2242740393,,,
10.9687500000,1,-0.4928740859,,,
10.9843750000,1,0.1459808052,,,
11.0000000000,1,0.4876556098,,,
11.0156250000,1,0.4636229873,,,
11.0312500000,1,0.1386260986,,,
11.0468750000,1,-0.3254547119,,,
11.0625000000,1,-0.7608336806,,,
11.0781250000,1,-1.0638279915,,,
11.0937500000,1,-1.2309720516,,,
11.1093750000,1,-1.3163150549,,,
11.1250000000,1,-1.4106899500,,,
11.1406250000,1,-1.5801999569,,,
11.1562500000,1,-1.8148349524,,,
11.1718750000,1,-2.0581209660,,,
11.1875000000,1,-2.1923980713,,,
11.2031250000,1,-2.1128849983,,,
11.2187500000,1,-1.7845150232,,,
11.2343750000,1,-1.2338869572,,,
11.2500000000,1,-0.5391693115,,,
11.2656250000,1,0.1887053996,,,
11.2812500000,1,0.8525238037,,,
11.2968750000,1,1.3919830322,,,
11.3125000000,1,1.8012850285,,,
11.3281250000,1,2.0978240967,,,
11.3437500000,1,2.3115839958,,,
11.3593750000,1,2.4666440487,,,
11.3750000000,1,2.5564119816,,,
11.3906250000,1,2.5495150089,,,
11.4062500000,1,2.3705899715,,,
11.4218750000,1,1.9709010124,,,
11.4375000000,1,1.3728640079,,,
11.4531250000,1,0.7003784180,,,
11.4687500000,1,0.1488495022,,,
11.4843750000,1,-0.1115112007,,,
11.5000000000,1,-0.0666351318,,,
11.5156250000,1,0.1392975003,,,
11.5312500000,1,0.2494658977,,,
11.5468750000,1,0.0435028113,,,
11.5625000000,1,-0.5116425157,,,
11.5781250000,1,-1.2711639404,,,
11.5937500000,1,-1.9800870419,,,
11.6093750000,1,-2.4208829403,,,
11.6250000000,1,-2.5188450813,,,
11.6406250000,1,-2.3656620979,,,
11.6562500000,1,-2.1046450138,,,
11.6718750000,1,-1.8638459444,,,
11.6875000000,1,-1.6549680233,,,
11.7031250000,1,-1.4197850227,,,
11.7187500000,1,-1.1036679745,,,
11.7343750000,1,-0.7092285156,,,
11.7500000000,1,-0.2943114936,,,
11.7656250000,1,0.0701599121,,,
11.7812500000,1,0.3858031929,,,
11.7968750000,1,0.7342376709,,,
11.8125000000,1,1.2133480310,,,
11.8281250000,1,1.8586579561,,,
11.8437500000,1,2.5474550724,,,
11.8593750000,1,3.0378110409,,,
11.8750000000,1,3.0732729435,,,
11.8906250000,1,2.5218050480,,,
11.9062500000,1,1.4734499454,,,
11.9218750000,1,0.1911773980,,,
11.9375000000,1,-0.9749146104,,,
11.9531250000,1,-1.7585140467,,,
11.9687500000,1,-2.0991969109,,,
11.9843750000,1,-2.0591130257,,,
12.0000000000,1,-1.7962800264,,,
12.0156250000,1,-1.3889470100,,,
12.0312500000,1,-0.8536834717,,,
12.0468750000,1,-0.1962127984,,,
12.0625000000,1,0.4929961860,,,
12.0781250000,1,1.0130310059,,,
12.0937500000,1,1.1365809441,,,
12.1093750000,1,0.7743682861,,,
12.1250000000,1,0.0629730225,,,
12.1406250000,1,-0.6878967285,,,
12.1562500000,1,-1.0955959558,,,
12.1718750000,1,-0.9395751953,,,
12.1875000000,1,-0.1995238960,,,
12.2031250000,1,0.9225769043,,,
12.2187500000,1,2.1392359734,,,
12.2343750000,1,3.1834259033,,,
12.2500000000,1,3.8972170353,,,
12.2656250000,1,4.2248539925,,,
12.2812500000,1,4.1967468262,,,
12.2968750000,1,3.8809199333,,,
12.3125000000,1,3.3672029972,,,
12.3281250000,1,2.7508540154,,,
12.3437500000,1,2.1149139404,,,
12.3593750000,1,1.5111999512,,,
12.3750000000,1,0.9578247070,,,
12.3906250000,1,0.4537963867,,,
12.4062500000,1,0.0193633996,,,
12.4218750000,1,-0.3192749023,,,
12.4375000000,1,-0.5242614746,,,
12.4531250000,1,-0.5559998155,,,
12.4687500000,1,-0.4197998047,,,
12.4843750000,1,-0.1106415018,,,
12.5000000000,1,0.3355408013,,,
12.5156250000,1,0.8544921875,,,
12.5312500000,1,1.2964479923,,,
12.5468750000,1,1.5179899931,,,
12.5625000000,1,1.4066309929,,,
12.5781250000,1,0.9979553223,,,
12.5937500000,1,0.4634704888,,,
12.6093750000,1,0.0670166016,,,
12.6250000000,1,0.0302734394,,,
12.6406250000,1,0.3986510932,,,
12.6562500000,1,1.0088200569,,,
12.6718750000,1,1.5387120247,,,
12.6875000000,1,1.6957399845,,,
12.7031250000,1,1.3395689726,,,
12.7187500000,1,0.5870972276,,,
12.7343750000,1,-0.2691192925,,,
12.7500000000,1,-0.8681182861,,,
12.7656250000,1,-0.9636840820,,,
12.7812500000,1,-0.5262755752,,,
12.7968750000,1,0.2581177056,,,
12.8125000000,1,1.0607299805,,,
12.8281250000,1,1.5519709587,,,
12.8437500000,1,1.5437159538,,,
12.8593750000,1,1.0407710075,,,
12.8750000000,1,0.2346954048,,,
12.8906250000,1,-0.5922698975,,,
12.9062500000,1,-1.2202299833,,,
12.9218750000,1,-1.5495450497,,,
12.9375000000,1,-1.6128540039,,,
12.9531250000,1,-1.4968570471,,,
12.9687500000,1,-1.3168179989,,,
12.9843750000,1,-1.1048280001,,,
13.0000000000,1,-0.8872374892,,,
13.0156250000,1,-0.6762847900,,,
13.0312500000,1,-0.5320281982,,,
13.0468750000,1,-0.5141295791,,,
13.0625000000,1,-0.6930541992,,,
13.0781250000,1,-1.0762330294,,,
13.0937500000,1,-1.6280670166,,,
13.1093750000,1,-2.2262730598,,,
13.1250000000,1,-2.7101140022,,,
13.1406250000,1,-2.8987119198,,,
13.1562500000,1,-2.6552278996,,,
13.1718750000,1,-1.9577330351,,,
13.1875000000,1,-0.9572753906,,,
13.2031250000,1,0.0494384803,,,
13.2187500000,1,0.7280120850,,,
13.2343750000,1,0.8498383164,,,
13.2500000000,1,0.4510344863,,,
13.2656250000,1,-0.1839600056,,,
13.2812500000,1,-0.6387177110,,,
13.2968750000,1,-0.5940551758,,,
13.3125000000,1,0.0121917697,,,
13.3281250000,1,0.9176635742,,,
13.3437500000,1,1.6921230555,,,
13.3593750000,1,1.9380949736,,,
13.3750000000,1,1.4997249842,,,
13.3906250000,1,0.5244597793,,,
13.4062500000,1,-0.6423798203,,,
13.4218750000,1,-1.6092989445,,,
13.4375000000,1,-2.1187291145,,,
13.4531250000,1,-2.0921940804,,,
13.4687500000,1,-1.6551359892,,,
13.4843750000,1,-0.9975280762,,,
13.5000000000,1,-0.2848969102,,,
13.5156250000,1,0.4214935005,,,
13.5312500000,1,1.1304470301,,,
13.5468750000,1,1.9179079533,,,
13.5625000000,1,2.7891240120,,,
13.5781250000,1,3.6807250977,,,
13.5937500000,1,4.4316411018,,,
13.6093750000,1,4.8362731934,,,
13.6250000000,1,4.7262568474,,,
13.6406250000,1,4.0040588379,,,
13.6562500000,1,2.6268920898,,,
13.6718750000,1,0.6019440293,,,
13.6875000000,1,-2.0262150764,,,
13.7031250000,1,-5.1403660774,,,
13.7187500000,1,-8.4279479980,,,
13.7343750000,1,-11.3691396713,,,
13.7500000000,1,-13.3058500290,,,
13.7656250000,1,-13.7178201675,,,
13.7812500000,1,-12.5490903854,,,
13.7968750000,1,-10.3763704300,,,
13.8125000000,1,-8.2554321289,,,
13.8281250000,1,-7.2547612190,,,
13.8437500000,1,-7.9009861946,,,
13.8593750000,1,-9.8768920898,,,
13.8750000000,1,-12.1372499466,,,
13.8906250000,1,-13.4174804688,,,
13.9062500000,1,-12.8156299591,,,
13.9218750000,1,-10.1241598129,,,
13.9375000000,1,-5.7331237793,,,
13.9531250000,1,-0.3084259033,,,
13.9687500000,1,5.5503392220,,,
13.9843750000,1,11.3701200485,,,
14.0000000000,1,16.6610393524,,,
14.0156250000,1,20.7601203918,,,
14.0312500000,1,22.8677806854,,,
14.0468750000,1,22.4210090637,,,
14.0625000000,1,19.4581108093,,,
14.0781250000,1,14.8166198730,,,
14.0937500000,1,9.8110198975,,,
14.1093750000,1,5.7573242188,,,
14.1250000000,1,3.3717041016,,,
14.1406250000,1,2.6181640625,,,
14.1562500000,1,2.8614499569,,,
14.1718750000,1,3.3463749886,,,
14.1875000000,1,3.5661160946,,,
14.2031250000,1,3.3597719669,,,
14.2187500000,1,2.7973790169,,,
14.2343750000,1,1.9603879452,,,
14.2500000000,1,0.9131469727,,,
14.2656250000,1,-0.2559813857,,,
14.2812500000,1,-1.3158110380,,,
14.2968750000,1,-1.9071660042,,,
14.3125000000,1,-1.6800229549,,,
14.3281250000,1,-0.5677642822,,,
14.3437500000,1,1.0730739832,,,
14.3593750000,1,2.5694119930,,,
14.3750000000,1,3.1998600960,,,
14.3906250000,1,2.5574650764,,,
14.4062500000,1,0.7091370225,,,
14.4218750000,1,-1.8804780245,,,
14.4375000000,1,-4.5977630615,,,
14.4531250000,1,-6.9398188591,,,
14.4687500000,1,-8.6423492432,,,
14.4843750000,1,-9.6791534424,,,
14.5000000000,1,-10.1490201950,,,
14.5156250000,1,-10.1644601822,,,
14.5312500000,1,-9.8255157471,,,
14.5468750000,1,-9.2420196533,,,
14.5625000000,1,-8.5296020508,,,
14.5781250000,1,-7.7401280403,,,
14.5937500000,1,-6.8516077995,,,
14.6093750000,1,-5.7246861458,,,
14.6250000000,1,-4.1969909668,,,
14.6406250000,1,-2.1850740910,,,
14.6562500000,1,0.1383513957,,,
14.6718750000,1,2.4124300480,,,
14.6875000000,1,4.1704559326,,,
14.7031250000,1,5.0776371956,,,
14.7187500000,1,5.0872797966,,,
14.7343750000,1,4.4282069206,,,
14.7500000000,1,3.4646000862,,,
14.7656250000,1,2.5039670467,,,
14.7812500000,1,1.7073969841,,,
14.7968750000,1,1.0260159969,,,
14.8125000000,1,0.4151000977,,,
14.8281250000,1,-0.1002196968,,,
14.8437500000,1,-0.3696899116,,,
14.8593750000,1,-0.2404633015,,,
14.8750000000,1,0.3412933052,,,
14.8906250000,1,1.1961209774,,,
14.9062500000,1,1.9935300350,,,
14.9218750000,1,2.3990170956,,,
14.9375000000,1,2.2791750431,,,
14.9531250000,1,1.7965849638,,,
14.9687500000,1,1.3093570471,,,
14.9843750000,1,1.1874389648,,,
15.0000000000,1,1.5829160213,,,
15.0156250000,1,2.3581540585,,,
15.0312500000,1,3.1607670784,,,
15.0468750000,1,3.6508479118,,,
15.0625000000,1,3.6801149845,,,
15.0781250000,1,3.3368680477,,,
15.0937500000,1,2.8839569092,,,
15.1093750000,1,2.5724329948,,,
15.1250000000,1,2.5049591064,,,
15.1406250000,1,2.6333470345,,,
15.1562500000,1,2.7690119743,,,
15.1718750000,1,2.7521510124,,,
15.1875000000,1,2.5192871094,,,
15.2031250000,1,2.1306610107,,,
15.2187500000,1,1.7189639807,,,
15.2343750000,1,1.4439239502,,,
15.2500000000,1,1.4246519804,,,
15.2656250000,1,1.6694489717,,,
15.2812500000,1,2.1023409367,,,
15.2968750000,1,2.5216519833,,,
15.3125000000,1,2.6912078857,,,
15.3281250000,1,2.4130098820,,,
15.3437500000,1,1.6376650333,,,
15.3593750000,1,0.4441986084,,,
15.3750000000,1,-0.9268950820,,,
15.3906250000,1,-2.2175450325,,,
15.4062500000,1,-3.2299959660,,,
15.4218750000,1,-3.9093780518,,,
15.4375000000,1,-4.2969207764,,,
15.4531250000,1,-4.4602050781,,,
15.4687500000,1,-4.3909912109,,,
15.4843750000,1,-3.9926760197,,,
15.5000000000,1,-3.1409299374,,,
15.5156250000,1,-1.8003540039,,,
15.5312500000,1,-0.1687012017,,,
15.5468750000,1,1.3352509737,,,
15.5625000000,1,2.1855161190,,,
15.5781250000,1,1.9934539795,,,
15.5937500000,1,0.6616973877,,,
15.6093750000,1,-1.5388029814,,,
15.6250000000,1,-4.0986628532,,,
15.6406250000,1,-6.4538569450,,,
15.6562500000,1,-8.1201324463,,,
15.6718750000,1,-8.7775878906,,,
15.6875000000,1,-8.2805328369,,,
15.7031250000,1,-6.6559300423,,,
15.7187500000,1,-4.1930999756,,,
15.7343750000,1,-1.4290310144,,,
15.7500000000,1,0.9750214219,,,
15.7656250000,1,2.4663701057,,,
15.7812500000,1,2.8817899227,,,
15.7968750000,1,2.4943079948,,,
15.8125000000,1,1.9189150333,,,
15.8281250000,1,1.7406920195,,,
15.8437500000,1,2.1461489201,,,
15.8593750000,1,2.7757871151,,,
15.8750000000,1,2.8734889030,,,
15.8906250000,1,1.6443179846,,,
15.9062500000,1,-1.2878719568,,,
15.9218750000,1,-5.6438140869,,,
15.9375000000,1,-10.5278196335,,,
15.9531250000,1,-14.7955198288,,,
15.9687500000,1,-17.5127296448,,,
15.9843750000,1,-18.3923797607,,,
16.0000000000,2,-17.9796791077,,,
16.0156250000,2,-17.4175090790,,,
16.0312500000,2,-17.9349708557,,,
16.0468750000,2,-20.1728992462,,,
16.0625000000,2,-23.8471508026,,,
16.0781250000,2,-27.7450695038,,,
16.0937500000,2,-30.3315391541,,,
16.1093750000,2,-30.4811401367,,,
16.1250000000,2,-28.1011009216,,,
16.1406250000,2,-24.2154998779,,,
16.1562500000,2,-20.6174907684,,,
16.1718750000,2,-19.2911205292,,,
16.1875000000,2,-21.8283195496,,,
16.2031250000,2,-28.9898204803,,,
16.2187500000,2,-40.3477897644,,,
16.2343750000,2,-53.9662208557,,,
16.2500000000,2,-66.2768630981,,,
16.2656250000,2,-72.5715637207,,,
16.2812500000,2,-68.2762069702,,,
16.2968750000,2,-50.8301200867,,,
16.3125000000,2,-21.2808208466,,,
16.3281250000,2,15.3562898636,,,
16.3437500000,2,51.4738197327,,,
16.3593750000,2,79.5483932495,,,
16.3750000000,2,94.8551483154,,,
16.3906250000,2,96.8291168213,,,
16.4062500000,2,88.4931182861,,,
16.4218750000,2,74.4910736084,,,
16.4375000000,2,58.8665809631,,,
16.4531250000,2,43.8715705872,,,
16.4687500000,2,30.1226501465,,,
16.4843750000,2,17.6728801727,,,
16.5000000000,2,7.0850372314,,,
16.5156250000,2,-0.3367615044,,,
16.5312500000,2,-3.1173250675,,,
16.5468750000,2,-0.5948029160,,,
16.5625000000,2,6.4040679932,,,
16.5781250000,2,15.6381196976,,,
16.5937500000,2,24.2333393097,,,
16.6093750000,2,29.8198699951,,,
16.6250000000,2,31.4032592773,,,
16.6406250000,2,29.7486705780,,,
16.6562500000,2,26.8983802795,,,
16.6718750000,2,25.1982593536,,,
16.6875000000,2,26.0951194763,,,
16.7031250000,2,29.3453693390,,,
16.7187500000,2,32.9491310120,,,
16.7343750000,2,33.9697685242,,,
16.7500000000,2,29.9106597900,,,
16.7656250000,2,19.9440803528,,,
16.7812500000,2,5.5550079346,,,
16.7968750000,2,-9.8971862793,,,
16.8125000000,2,-22.4361591339,,,
16.8281250000,2,-29.0831909180,,,
16.8437500000,2,-29.0320301056,,,
16.8593750000,2,-23.8795795441,,,
16.8750000000,2,-16.7308502197,,,
16.8906250000,2,-10.7475004196,,,
16.9062500000,2,-7.6608119011,,,
16.9218750000,2,-7.1258239746,,,
16.9375000000,2,-7.1723017693,,,
16.9531250000,2,-5.4799652100,,,
16.9687500000,2,-0.8802185059,,,
16.9843750000,2,5.7216639519,,,
17.0000000000,2,11.4901103973,,,
17.0156250000,2,12.6837596893,,,
17.0312500000,2,6.2093510628,,,
17.0468750000,2,-9.1640634537,,,
17.0625000000,2,-32.2798614502,,,
17.0781250000,2,-59.7393302917,,,
17.0937500000,2,-86.6290283203,,,
17.1093750000,2,-107.4832992554,,,
17.1250000000,2,-117.1160964966,,,
17.1406250000,2,-111.6502990723,,,
17.1562500000,2,-89.8529968262,,,
17.1718750000,2,-54.2703895569,,,
17.1875000000,2,-11.6103696823,,,
17.2031250000,2,28.5830402374,,,
17.2187500000,2,56.9221191406,,,
17.2343750000,2,67.7164230347,,,
17.2500000000,2,61.4864311218,,,
17.2656250000,2,44.8233909607,,,
17.2812500000,2,27.4097309113,,,
17.2968750000,2,17.5924396515,,,
17.3125000000,2,18.7367095947,,,
17.3281250000,2,28.2092704773,,,
17.3437500000,2,39.4458808899,,,
17.3593750000,2,45.7295112610,,,
17.3750000000,2,43.5815315247,,,
17.3906250000,2,33.9628791809,,,
17.4062500000,2,21.0241203308,,,
17.4218750000,2,9.3455810547,,,
17.4375000000,2,1.6486209631,,,
17.4531250000,2,-1.9902650118,,,
17.4687500000,2,-3.2378849983,,,
17.4843750000,2,-3.8856959343,,,
17.5000000000,2,-4.5861659050,,,
17.5156250000,2,-4.6386260986,,,
17.5312500000,2,-2.8532791138,,,
17.5468750000,2,1.3665239811,,,
17.5625000000,2,7.1872248650,,,
17.5781250000,2,12.5326795578,,,
17.5937500000,2,15.1118803024,,,
17.6093750000,2,13.6034097672,,,
17.6250000000,2,8.4092855453,,,
17.6406250000,2,1.5774379969,,,
17.6562500000,2,-4.1531910896,,,
17.6718750000,2,-6.5730509758,,,
17.6875000000,2,-4.9827189445,,,
17.7031250000,2,-0.4359512031,,,
17.7187500000,2,4.8841090202,,,
17.7343750000,2,8.6696472168,,,
17.7500000000,2,9.5123748779,,,
17.7656250000,2,7.4255828857,,,
17.7812500000,2,3.6533739567,,,
17.7968750000,2,-0.0273208600,,,
17.8125000000,2,-2.1368410587,,,
17.8281250000,2,-2.1538619995,,,
17.8437500000,2,-0.5630112290,,,
17.8593750000,2,1.5058820248,,,
17.8750000000,2,2.9549710751,,,
17.8906250000,2,3.1818308830,,,
17.9062500000,2,2.2890400887,,,
17.9218750000,2,0.8819351196,,,
17.9375000000,2,-0.3000031114,,,
17.9531250000,2,-0.7715377808,,,
17.9687500000,2,-0.4547348022,,,
17.9843750000,2,0.3821640015,,,
18.0000000000,2,1.3103940487,,,
18.0156250000,2,1.9645919800,,,
18.0312500000,2,2.1255490780,,,
18.0468750000,2,1.7743990421,,,
18.0625000000,2,1.0395129919,,,
18.0781250000,2,0.1461791992,,,
18.0937500000,2,-0.6738585830,,,
18.1093750000,2,-1.2331769466,,,
18.1250000000,2,-1.4695589542,,,
18.1406250000,2,-1.4127659798,,,
18.1562500000,2,-1.1830140352,,,
18.1718750000,2,-0.9338150024,,,
18.1875000000,2,-0.7792510986,,,
18.2031250000,2,-0.7399672866,,,
18.2187500000,2,-0.7297286987,,,
18.2343750000,2,-0.6255568862,,,
18.2500000000,2,-0.3150939941,,,
18.2656250000,2,0.2306441963,,,
18.2812500000,2,0.9114913940,,,
18.2968750000,2,1.5812909603,,,
18.3125000000,2,2.0722050667,,,
18.3281250000,2,2.2621769905,,,
18.3437500000,2,2.1130979061,,,
18.3593750000,2,1.6371079683,,,
18.3750000000,2,0.9302750230,,,
18.3906250000,2,0.1652373970,,,
18.4062500000,2,-0.4475097954,,,
18.4218750000,2,-0.7260360718,,,
18.4375000000,2,-0.5613861084,,,
18.4531250000,2,-0.0058135991,,,
18.4687500000,2,0.7657700181,,,
18.4843750000,2,1.5138700008,,,
18.5000000000,2,2.0425870419,,,
18.5156250000,2,2.2807159424,,,
18.5312500000,2,2.2485349178,,,
18.5468750000,2,2.0179290771,,,
18.5625000000,2,1.6452790499,,,
18.5781250000,2,1.1482700109,,,
18.5937500000,2,0.5555344224,,,
18.6093750000,2,-0.0880127028,,,
18.6250000000,2,-0.7066879272,,,
18.6406250000,2,-1.2171629667,,,
18.6562500000,2,-1.5568699837,,,
18.6718750000,2,-1.6812969446,,,
18.6875000000,2,-1.5790179968,,,
18.7031250000,2,-1.2405320406,,,
18.7187500000,2,-0.6735687256,,,
18.7343750000,2,0.0403137207,,,
18.7500000000,2,0.7673568726,,,
18.7656250000,2,1.3681720495,,,
18.7812500000,2,1.7225489616,,,
18.7968750000,2,1.7834169865,,,
18.8125000000,2,1.5855100155,,,
18.8281250000,2,1.2091139555,,,
18.8437500000,2,0.7193909287,,,
18.8593750000,2,0.1693114936,,,
18.8750000000,2,-0.4020538032,,,
18.8906250000,2,-0.9413527846,,,
18.9062500000,2,-1.3920359612,,,
18.9218750000,2,-1.7645870447,,,
18.9375000000,2,-2.0703508854,,,
18.9531250000,2,-2.3367919922,,,
18.9687500000,2,-2.5254900455,,,
18.9843750000,2,-2.5606770515,,,
19.0000000000,2,-2.3447339535,,,
19.0156250000,2,-1.8541109562,,,
19.0312500000,2,-1.1669540405,,,
19.0468750000,2,-0.4319077134,,,
19.0625000000,2,0.1589355022,,,
19.0781250000,2,0.4837265015,,,
19.0937500000,2,0.5347595215,,,
19.1093750000,2,0.4051742852,,,
19.1250000000,2,0.2448578030,,,
19.1406250000,2,0.1847915947,,,
19.1562500000,2,0.2832184136,,,
19.1718750000,2,0.5102692246,,,
19.1875000000,2,0.7701644897,,,
19.2031250000,2,0.9396820068,,,
19.2187500000,2,0.9380034804,,,
19.2343750000,2,0.7784882188,,,
19.2500000000,2,0.5488051772,,,
19.2656250000,2,0.4087829888,,,
19.2812500000,2,0.5276870728,,,
19.2968750000,2,0.9743422866,,,
19.3125000000,2,1.6719510555,,,
19.3281250000,2,2.4214100838,,,
19.3437500000,2,2.9739460945,,,
19.3593750000,2,3.1213378906,,,
19.3750000000,2,2.8240659237,,,
19.3906250000,2,2.1944730282,,,
19.4062500000,2,1.4899749756,,,
19.4218750000,2,0.9637755752,,,
19.4375000000,2,0.7965468764,,,
19.4531250000,2,0.9862365723,,,
19.4687500000,2,1.3750760555,,,
19.4843750000,2,1.6648249626,,,
19.5000000000,2,1.5970079899,,,
19.5156250000,2,1.0496519804,,,
19.5312500000,2,0.1032103971,,,
19.5468750000,2,-0.9687957764,,,
19.5625000000,2,-1.8407750130,,,
19.5781250000,2,-2.2770919800,,,
19.5937500000,2,-2.2468030453,,,
19.6093750000,2,-1.8843230009,,,
19.6250000000,2,-1.4315639734,,,
19.6406250000,2,-1.1065139771,,,
19.6562500000,2,-1.0191190243,,,
19.6718750000,2,-1.1727750301,,,
19.6875000000,2,-1.4793779850,,,
19.7031250000,2,-1.8310999870,,,
19.7187500000,2,-2.1386489868,,,
19.7343750000,2,-2.3278501034,,,
19.7500000000,2,-2.3606638908,,,
19.7656250000,2,-2.2171330452,,,
19.7812500000,2,-1.8994899988,,,
19.7968750000,2,-1.4415659904,,,
19.8125000000,2,-0.9181290269,,,
19.8281250000,2,-0.4014815986,,,
19.8437500000,2,0.0348968506,,,
19.8593750000,2,0.3343963921,,,
19.8750000000,2,0.4607849121,,,
19.8906250000,2,0.4169692993,,,
19.9062500000,2,0.2572402954,,,
19.9218750000,2,0.0614776611,,,
19.9375000000,2,-0.0381774902,,,
19.9531250000,2,0.0408477783,,,
19.9687500000,2,0.3440322876,,,
19.9843750000,2,0.8010712266,,,
20.0000000000,2,1.2908630371,,,
20.0156250000,2,1.6611709595,,,
20.0312500000,2,1.7943799496,,,
20.0468750000,2,1.6215519905,,,
20.0625000000,2,1.1530840397,,,
20.0781250000,2,0.4842605889,,,
20.0937500000,2,-0.2572326958,,,
20.1093750000,2,-0.8818817139,,,
20.1250000000,2,-1.2513810396,,,
20.1406250000,2,-1.2976529598,,,
20.1562500000,2,-1.0510250330,,,
20.1718750000,2,-0.6488112807,,,
20.1875000000,2,-0.2454223931,,,
20.2031250000,2,0.0189437903,,,
20.2187500000,2,0.1074599996,,,
20.2343750000,2,0.0443267785,,,
20.2500000000,2,-0.1304779053,,,
20.2656250000,2,-0.3911590874,,,
20.2812500000,2,-0.7663344741,,,
20.2968750000,2,-1.2803419828,,,
20.3125000000,2,-1.8957749605,,,
20.3281250000,2,-2.4800190926,,,
20.3437500000,2,-2.8500139713,,,
20.3593750000,2,-2.8422319889,,,
20.3750000000,2,-2.4411160946,,,
20.3906250000,2,-1.7651519775,,,
20.4062500000,2,-1.0327450037,,,
20.4218750000,2,-0.4687958062,,,
20.4375000000,2,-0.1928329021,,,
20.4531250000,2,-0.1829071045,,,
20.4687500000,2,-0.2862778008,,,
20.4843750000,2,-0.3258208930,,,
20.5000000000,2,-0.1258545071,,,
20.5156250000,2,0.3789902031,,,
20.5312500000,2,1.1819989681,,,
20.5468750000,2,2.1707689762,,,
20.5625000000,2,3.1945269108,,,
20.5781250000,2,4.0821609497,,,
20.5937500000,2,4.6748661995,,,
20.6093750000,2,4.8510818481,,,
20.6250000000,2,4.5443949699,,,
20.6406250000,2,3.7702260017,,,
20.6562500000,2,2.6321640015,,,
20.6718750000,2,1.3100739717,,,
20.6875000000,2,0.0086898804,,,
20.7031250000,2,-1.0760960579,,,
20.7187500000,2,-1.8166580200,,,
20.7343750000,2,-2.1805570126,,,
20.7500000000,2,-2.2214429379,,,
20.7656250000,2,-2.0113830566,,,
20.7812500000,2,-1.5967179537,,,
20.7968750000,2,-0.9855422974,,,
20.8125000000,2,-0.2023162991,,,
20.8281250000,2,0.6838684082,,,
20.8437500000,2,1.5290600061,,,
20.8593750000,2,2.1547160149,,,
20.8750000000,2,2.4166181087,,,
20.8906250000,2,2.3054959774,,,
20.9062500000,2,1.9127349854,,,
20.9218750000,2,1.4070279598,,,
20.9375000000,2,0.9322814941,,,
20.9531250000,2,0.5780106187,,,
20.9687500000,2,0.3380050957,,,
20.9843750000,2,0.1531676948,,,
21.0000000000,2,-0.0381927490,,,
21.0156250000,2,-0.2490081936,,,
21.0312500000,2,-0.4231033027,,,
21.0468750000,2,-0.5094451904,,,
21.0625000000,2,-0.4468230903,,,
21.0781250000,2,-0.2649230957,,,
21.0937500000,2,-0.0643158033,,,
21.1093750000,2,-0.0052032471,,,
21.1250000000,2,-0.1853408962,,,
21.1406250000,2,-0.5989304185,,,
21.1562500000,2,-1.1015089750,,,
21.1718750000,2,-1.4826129675,,,
21.1875000000,2,-1.5937420130,,,
21.2031250000,2,-1.4269640446,,,
21.2187500000,2,-1.1120909452,,,
21.2343750000,2,-0.8145598769,,,
21.2500000000,2,-0.6386489868,,,
21.2656250000,2,-0.5191727281,,,
21.2812500000,2,-0.3063659966,,,
21.2968750000,2,0.1376952976,,,
21.3125000000,2,0.8196868896,,,
21.3281250000,2,1.5822679996,,,
21.3437500000,2,2.2038269043,,,
21.3593750000,2,2.5130159855,,,
21.3750000000,2,2.4605479240,,,
21.3906250000,2,2.1410980225,,,
21.4062500000,2,1.7248079777,,,
21.4218750000,2,1.3609540462,,,
21.4375000000,2,1.1064000130,,,
21.4531250000,2,0.9528502822,,,
21.4687500000,2,0.8058701158,,,
21.4843750000,2,0.5903701782,,,
21.5000000000,2,0.2420043945,,,
21.5156250000,2,-0.2295227051,,,
21.5312500000,2,-0.7396697998,,,
21.5468750000,2,-1.1808929443,,,
21.5625000000,2,-1.4600219727,,,
21.5781250000,2,-1.5598529577,,,
21.5937500000,2,-1.5036540031,,,
21.6093750000,2,-1.3726119995,,,
21.6250000000,2,-1.2013779879,,,
21.6406250000,2,-0.9981307983,,,
21.6562500000,2,-0.7492218018,,,
21.6718750000,2,-0.4868546128,,,
21.6875000000,2,-0.2993546128,,,
21.7031250000,2,-0.2968369126,,,
21.7187500000,2,-0.5622252822,,,
21.7343750000,2,-1.0540310144,,,
21.7500000000,2,-1.6314469576,,,
21.7656250000,2,-2.0795140266,,,
21.7812500000,2,-2.2257840633,,,
21.7968750000,2,-1.9849779606,,,
21.8125000000,2,-1.4014660120,,,
21.8281250000,2,-0.5992202759,,,
21.8437500000,2,0.2782593071,,,
21.8593750000,2,1.1150820255,,,
21.8750000000,2,1.8209689856,,,
21.8906250000,2,2.3487091064,,,
21.9062500000,2,2.6710739136,,,
21.9218750000,2,2.7764279842,,,
21.9375000000,2,2.6642990112,,,
21.9531250000,2,2.3506469727,,,
21.9687500000,2,1.8668669462,,,
21.9843750000,2,1.2948149443,,,
22.0000000000,2,0.7404937744,,,
22.0156250000,2,0.3369750977,,,
22.0312500000,2,0.1579055935,,,
22.0468750000,2,0.2034835964,,,
22.0625000000,2,0.3924637139,,,
22.0781250000,2,0.5682601929,,,
22.0937500000,2,0.5973433852,,,
22.1093750000,2,0.4094696045,,,
22.1250000000,2,0.0616073608,,,
22.1406250000,2,-0.3093872070,,,
22.1562500000,2,-0.5546340942,,,
22.1718750000,2,-0.5939254761,,,
22.1875000000,2,-0.4792861938,,,
22.2031250000,2,-0.3557434082,,,
22.2187500000,2,-0.3746033013,,,
22.2343750000,2,-0.6092453003,,,
22.2500000000,2,-1.0234220028,,,
22.2656250000,2,-1.4737399817,,,
22.2812500000,2,-1.8244630098,,,
22.2968750000,2,-1.9752039909,,,
22.3125000000,2,-1.9395749569,,,
22.3281250000,2,-1.7620389462,,,
22.3437500000,2,-1.4929349422,,,
22.3593750000,2,-1.1072460413,,,
22.3750000000,2,-0.5613936782,,,
22.3906250000,2,0.1590117961,,,
22.4062500000,2,0.9681090713,,,
22.4218750000,2,1.6804660559,,,
22.4375000000,2,2.0795750618,,,
22.4531250000,2,2.0563049316,,,
22.4687500000,2,1.6709059477,,,
22.4843750000,2,1.1292190552,,,
22.5000000000,2,0.6420211792,,,
22.5156250000,2,0.3237685859,,,
22.5312500000,2,0.1516799927,,,
22.5468750000,2,-0.0078659058,,,
22.5625000000,2,-0.2638626099,,,
22.5781250000,2,-0.6278380752,,,
22.5937500000,2,-1.0072250366,,,
22.6093750000,2,-1.2728650570,,,
22.6250000000,2,-1.3540040255,,,
22.6406250000,2,-1.2690429688,,,
22.6562500000,2,-1.1053309441,,,
22.6718750000,2,-0.9483566284,,,
22.6875000000,2,-0.8551406860,,,
22.7031250000,2,-0.8312302232,,,
22.7187500000,2,-0.8566207886,,,
22.7343750000,2,-0.9150543213,,,
22.7500000000,2,-0.9812850952,,,
22.7656250000,2,-1.0192029476,,,
22.7812500000,2,-0.9767684937,,,
22.7968750000,2,-0.8086243272,,,
22.8125000000,2,-0.5153350830,,,
22.8281250000,2,-0.1237182990,,,
22.8437500000,2,0.2824248970,,,
22.8593750000,2,0.6661376953,,,
22.8750000000,2,0.9981688857,,,
22.8906250000,2,1.2746510506,,,
22.9062500000,2,1.4952390194,,,
22.9218750000,2,1.6531369686,,,
22.9375000000,2,1.7137529850,,,
22.9531250000,2,1.6667480469,,,
22.9687500000,2,1.5341030359,,,
22.9843750000,2,1.3527369499,,,
23.0000000000,2,1.1580959558,,,
23.0156250000,2,0.9497299194,,,
23.0312500000,2,0.7188416123,,,
23.0468750000,2,0.4415588081,,,
23.0625000000,2,0.1018372029,,,
23.0781250000,2,-0.2972869873,,,
23.0937500000,2,-0.7101516724,,,
23.1093750000,2,-1.0774990320,,,
23.1250000000,2,-1.3199919462,,,
23.1406250000,2,-1.3831939697,,,
23.1562500000,2,-1.2415009737,,,
23.1718750000,2,-0.9289246202,,,
23.1875000000,2,-0.5520095825,,,
23.2031250000,2,-0.2488784939,,,
23.2187500000,2,-0.1278305054,,,
23.2343750000,2,-0.2276535034,,,
23.2500000000,2,-0.4939346015,,,
23.2656250000,2,-0.7992553711,,,
23.2812500000,2,-0.9978485107,,,
23.2968750000,2,-0.9969788194,,,
23.3125000000,2,-0.7938004136,,,
23.3281250000,2,-0.4400711060,,,
23.3437500000,2,-0.0209426899,,,
23.3593750000,2,0.4098433852,,,
23.3750000000,2,0.8152161241,,,
23.3906250000,2,1.1797330379,,,
23.4062500000,2,1.4769519567,,,
23.4218750000,2,1.6733089685,,,
23.4375000000,2,1.7238999605,,,
23.4531250000,2,1.6248250008,,,
23.4687500000,2,1.3995360136,,,
23.4843750000,2,1.1253590584,,,
23.5000000000,2,0.8540725708,,,
23.5156250000,2,0.6157683730,,,
23.5312500000,2,0.3879317939,,,
23.5468750000,2,0.1358795017,,,
23.5625000000,2,-0.1377563030,,,
23.5781250000,2,-0.3662261963,,,
23.5937500000,2,-0.4560013115,,,
23.6093750000,2,-0.3255614936,,,
23.6250000000,2,0.0083847046,,,
23.6406250000,2,0.4025878906,,,
23.6562500000,2,0.6791610718,,,
23.6718750000,2,0.6787033081,,,
23.6875000000,2,0.3734360039,,,
23.7031250000,2,-0.1580428928,,,
23.7187500000,2,-0.7814940810,,,
23.7343750000,2,-1.3603290319,,,
23.7500000000,2,-1.8039779663,,,
23.7656250000,2,-2.0639650822,,,
23.7812500000,2,-2.0980610847,,,
23.7968750000,2,-1.8662190437,,,
23.8125000000,2,-1.3815770149,,,
23.8281250000,2,-0.7166060805,,,
23.8437500000,2,-0.0286407508,,,
23.8593750000,2,0.5194168091,,,
23.8750000000,2,0.7860869765,,,
23.8906250000,2,0.7370833755,,,
23.9062500000,2,0.4572372139,,,
23.9218750000,2,0.0744247437,,,
23.9375000000,2,-0.2451172024,,,
23.9531250000,2,-0.3879700005,,,
23.9687500000,2,-0.3035202026,,,
23.9843750000,2,-0.0043029790,,,
24.0000000000,3,0.4104996026,,,
24.0156250000,3,0.7955017090,,,
24.0312500000,3,1.0047299862,,,
24.0468750000,3,0.9430236816,,,
24.0625000000,3,0.6198195815,,,
24.0781250000,3,0.1766356975,,,
24.0937500000,3,-0.2081757039,,,
24.1093750000,3,-0.3826599121,,,
24.1250000000,3,-0.2847976983,,,
24.1406250000,3,-0.0033187871,,,
24.1562500000,3,0.3269118965,,,
24.1718750000,3,0.5469055176,,,
24.1875000000,3,0.5524216294,,,
24.2031250000,3,0.3101500869,,,
24.2187500000,3,-0.1269759983,,,
24.2343750000,3,-0.6554793715,,,
24.2500000000,3,-1.1269379854,,,
24.2656250000,3,-1.4065699577,,,
24.2812500000,3,-1.4217610359,,,
24.2968750000,3,-1.1518479586,,,
24.3125000000,3,-0.6539077759,,,
24.3281250000,3,-0.0233383197,,,
24.3437500000,3,0.6228867173,,,
24.3593750000,3,1.2052539587,,,
24.3750000000,3,1.6552660465,,,
24.3906250000,3,1.9291919470,,,
24.4062500000,3,2.0210800171,,,
24.4218750000,3,1.9113310575,,,
24.4375000000,3,1.6110459566,,,
24.4531250000,3,1.1556169987,,,
24.4687500000,3,0.6049118042,,,
24.4843750000,3,0.0417480506,,,
24.5000000000,3,-0.4635468125,,,
24.5156250000,3,-0.8824539185,,,
24.5312500000,3,-1.2132420540,,,
24.5468750000,3,-1.4235379696,,,
24.5625000000,3,-1.4785079956,,,
24.5781250000,3,-1.2993619442,,,
24.5937500000,3,-0.8375015259,,,
24.6093750000,3,-0.0847930908,,,
24.6250000000,3,0.8660355210,,,
24.6406250000,3,1.8263239861,,,
24.6562500000,3,2.6021730900,,,
24.6718750000,3,3.0194020271,,,
24.6875000000,3,3.0362930298,,,
24.7031250000,3,2.7114789486,,,
24.7187500000,3,2.2169721127,,,
24.7343750000,3,1.6916120052,,,
24.7500000000,3,1.2052309513,,,
24.7656250000,3,0.7339019775,,,
24.7812500000,3,0.2135543972,,,
24.7968750000,3,-0.3838805854,,,
24.8125000000,3,-1.0183869600,,,
24.8281250000,3,-1.5507889986,,,
24.8437500000,3,-1.8583979607,,,
24.8593750000,3,-1.8507230282,,,
24.8750000000,3,-1.5434800386,,,
24.8906250000,3,-1.0234379768,,,
24.9062500000,3,-0.4173431098,,,
24.9218750000,3,0.1622924954,,,
24.9375000000,3,0.6350631714,,,
24.9531250000,3,0.9277191162,,,
24.9687500000,3,0.9965819716,,,
24.9843750000,3,0.8120574951,,,
25.0000000000,3,0.4375304878,,,
25.0156250000,3,0.0171432495,,,
25.0312500000,3,-0.2728882134,,,
25.0468750000,3,-0.2976151109,,,
25.0625000000,3,-0.0774993896,,,
25.0781250000,3,0.2328795940,,,
25.0937500000,3,0.4158858955,,,
25.1093750000,3,0.3366546929,,,
25.1250000000,3,-0.0067291260,,,
25.1406250000,3,-0.4886322021,,,
25.1562500000,3,-0.9472808838,,,
25.1718750000,3,-1.2885359526,,,
25.1875000000,3,-1.5212479830,,,
25.2031250000,3,-1.7147059441,,,
25.2187500000,3,-1.9054260254,,,
25.2343750000,3,-2.1137919426,,,
25.2500000000,3,-2.2653200626,,,
25.2656250000,3,-2.2927930355,,,
25.2812500000,3,-2.1429979801,,,
25.2968750000,3,-1.8074799776,,,
25.3125000000,3,-1.3540120125,,,
25.3281250000,3,-0.8670349121,,,
25.3437500000,3,-0.4708405137,,,
25.3593750000,3,-0.2276306003,,,
25.3750000000,3,-0.1275635064,,,
25.3906250000,3,-0.0938110426,,,
25.4062500000,3,-0.0173187293,,,
25.4218750000,3,0.1800307930,,,
25.4375000000,3,0.4920119941,,,
25.4531250000,3,0.8565750122,,,
25.4687500000,3,1.1818540096,,,
25.4843750000,3,1.4183880091,,,
25.5000000000,3,1.5740050077,,,
25.5156250000,3,1.6899410486,,,
25.5312500000,3,1.7960360050,,,
25.5468750000,3,1.8824160099,,,
25.5625000000,3,1.9146649837,,,
25.5781250000,3,1.8606189489,,,
25.5937500000,3,1.7539440393,,,
25.6093750000,3,1.6495740414,,,
25.6250000000,3,1.6164319515,,,
25.6406250000,3,1.6686710119,,,
25.6562500000,3,1.7425379753,,,
25.6718750000,3,1.7370070219,,,
25.6875000000,3,1.5086749792,,,
25.7031250000,3,0.9805756211,,,
25.7187500000,3,0.1768874973,,,
25.7343750000,3,-0.7319794297,,,
25.7500000000,3,-1.5205379725,,,
25.7656250000,3,-1.9638060331,,,
25.7812500000,3,-2.0069661140,,,
25.7968750000,3,-1.7604520321,,,
25.8125000000,3,-1.4783480167,,,
25.8281250000,3,-1.3480219841,,,
25.8437500000,3,-1.4124150276,,,
25.8593750000,3,-1.5351719856,,,
25.8750000000,3,-1.4834140539,,,
25.8906250000,3,-1.1209789515,,,
25.9062500000,3,-0.4886398017,,,
25.9218750000,3,0.2054671943,,,
25.9375000000,3,0.7085875869,,,
25.9531250000,3,0.8638762832,,,
25.9687500000,3,0.7025374770,,,
25.9843750000,3,0.4450759888,,,
26.0000000000,3,0.3602600098,,,
26.0156250000,3,0.6671906114,,,
26.0312500000,3,1.4198609591,,,
26.0468750000,3,2.5002899170,,,
26.0625000000,3,3.6704249382,,,
26.0781250000,3,4.6465530396,,,
26.0937500000,3,5.2136378288,,,
26.1093750000,3,5.3133320808,,,
26.1250000000,3,5.0831217766,,,
26.1406250000,3,4.8091740608,,,
26.1562500000,3,4.8323669434,,,
26.1718750000,3,5.4298481941,,,
26.1875000000,3,6.7089772224,,,
26.2031250000,3,8.5815811157,,,
26.2187500000,3,10.7257099152,,,
26.2343750000,3,12.5847997665,,,
26.2500000000,3,13.3781700134,,,
26.2656250000,3,12.3157901764,,,
26.2812500000,3,8.9570083618,,,
26.2968750000,3,3.6522369385,,,
26.3125000000,3,-2.3220140934,,,
26.3281250000,3,-7.0495991707,,,
26.3437500000,3,-8.7981033325,,,
26.3593750000,3,-6.9232788086,,,
26.3750000000,3,-2.3247990608,,,
26.3906250000,3,2.8591771126,,,
26.4062500000,3,6.2593379021,,,
26.4218750000,3,6.4005131721,,,
26.4375000000,3,3.3542480469,,,
26.4531250000,3,-1.5279769897,,,
26.4687500000,3,-6.4224238396,,,
26.4843750000,3,-9.9664154053,,,
26.5000000000,3,-11.6819400787,,,
26.5156250000,3,-11.7954902649,,,
26.5312500000,3,-10.6736297607,,,
26.5468750000,3,-8.5027847290,,,
26.5625000000,3,-5.3946528435,,,
26.5781250000,3,-1.8121869564,,,
26.5937500000,3,1.1784520149,,,
26.6093750000,3,2.1414029598,,,
26.6250000000,3,-0.0647964478,,,
26.6406250000,3,-5.6126937866,,,
26.6562500000,3,-13.4478502274,,,
26.6718750000,3,-21.6586303711,,,
26.6875000000,3,-28.2696495056,,,
26.7031250000,3,-32.0158309937,,,
26.7187500000,3,-32.6911697388,,,
26.7343750000,3,-30.9833507538,,,
26.7500000000,3,-27.9298400879,,,
26.7656250000,3,-24.3781890869,,,
26.7812500000,3,-20.6980590820,,,
26.7968750000,3,-16.8619499207,,,
26.8125000000,3,-12.7522401810,,,
26.8281250000,3,-8.3279800415,,,
26.8437500000,3,-3.7130129337,,,
26.8593750000,3,0.9662628174,,,
26.8750000000,3,5.6860809326,,,
26.8906250000,3,10.5341796875,,,
26.9062500000,3,15.5325498581,,,
26.9218750000,3,20.4693794250,,,
26.9375000000,3,24.8265209198,,,
26.9531250000,3,27.8668308258,,,
26.9687500000,3,28.9553394318,,,
26.9843750000,3,27.8541202545,,,
27.0000000000,3,24.9378604889,,,
27.0156250000,3,21.0589199066,,,
27.0312500000,3,17.2937698364,,,
27.0468750000,3,14.5475397110,,,
27.0625000000,3,13.2693300247,,,
27.0781250000,3,13.3603696823,,,
27.0937500000,3,14.2741298676,,,
27.1093750000,3,15.2399396896,,,
27.1250000000,3,15.5062904358,,,
27.1406250000,3,14.5443601608,,,
27.1562500000,3,12.1816797256,,,
27.1718750000,3,8.6483154297,,,
27.1875000000,3,4.4979481697,,,
27.2031250000,3,0.4560165107,,,
27.2187500000,3,-2.7534871101,,,
27.2343750000,3,-4.6242451668,,,
27.2500000000,3,-4.9950408936,,,
27.2656250000,3,-4.1026310921,,,
27.2812500000,3,-2.4965739250,,,
27.2968750000,3,-0.8389205933,,,
27.3125000000,3,0.2733306885,,,
27.3281250000,3,0.5107039809,,,
27.3437500000,3,-0.1627960056,,,
27.3593750000,3,-1.4708559513,,,
27.3750000000,3,-3.0017778873,,,
27.3906250000,3,-4.3327789307,,,
27.4062500000,3,-5.1800842285,,,
27.4218750000,3,-5.4727168083,,,
27.4375000000,3,-5.2869720459,,,
27.4531250000,3,-4.7762908936,,,
27.4687500000,3,-4.0556788445,,,
27.4843750000,3,-3.1689910889,,,
27.5000000000,3,-2.1202390194,,,
27.5156250000,3,-0.9376525879,,,
27.5312500000,3,0.2526549995,,,
27.5468750000,3,1.2574160099,,,
27.5625000000,3,1.8721469641,,,
27.5781250000,3,1.9826810360,,,
27.5937500000,3,1.6377259493,,,
27.6093750000,3,1.0363769531,,,
27.6250000000,3,0.4437865913,,,
27.6406250000,3,0.1128235012,,,
27.6562500000,3,0.2023925930,,,
27.6718750000,3,0.7183228135,,,
27.6875000000,3,1.5149079561,,,
27.7031250000,3,2.3152470589,,,
27.7187500000,3,2.7780609131,,,
27.7343750000,3,2.6030271053,,,
27.7500000000,3,1.6784060001,,,
27.7656250000,3,0.1946716011,,,
27.7812500000,3,-1.3945469856,,,
27.7968750000,3,-2.4917299747,,,
27.8125000000,3,-2.6350400448,,,
27.8281250000,3,-1.7529599667,,,
27.8437500000,3,-0.2676849067,,,
27.8593750000,3,1.0663299561,,,
27.8750000000,3,1.4936679602,,,
27.8906250000,3,0.6583251953,,,
27.9062500000,3,-1.1444849968,,,
27.9218750000,3,-3.0980069637,,,
27.9375000000,3,-4.2281489372,,,
27.9531250000,3,-3.9797821045,,,
27.9687500000,3,-2.5766749382,,,
27.9843750000,3,-0.9817504883,,,
28.0000000000,3,-0.4130859077,,,
28.0156250000,3,-1.6656039953,,,
28.0312500000,3,-4.6785888672,,,
28.0468750000,3,-8.6430664063,,,
28.0625000000,3,-12.4784498215,,,
28.0781250000,3,-15.4838695526,,,
28.0937500000,3,-17.6152591705,,,
28.1093750000,3,-19.3937397003,,,
28.1250000000,3,-21.4580097198,,,
28.1406250000,3,-24.1493206024,,,
28.1562500000,3,-27.3302803040,,,
28.1718750000,3,-30.5148792267,,,
28.1875000000,3,-33.0393409729,,,
28.2031250000,3,-34.1471290588,,,
28.2187500000,3,-32.9123191833,,,
28.2343750000,3,-28.3698596954,,,
28.2500000000,3,-19.9515705109,,,
28.2656250000,3,-8.1038970947,,,
28.2812500000,3,5.3071141243,,,
28.2968750000,3,17.3911304474,,,
28.3125000000,3,25.3379993439,,,
28.3281250000,3,27.8236408234,,,
28.3437500000,3,25.7742004395,,,
28.3593750000,3,21.9949302673,,,
28.3750000000,3,19.7378807068,,,
28.3906250000,3,20.9129199982,,,
28.4062500000,3,25.2761707306,,,
28.4218750000,3,30.4535408020,,,
28.4375000000,3,33.2370300293,,,
28.4531250000,3,31.0332508087,,,
28.4687500000,3,22.8185901642,,,
28.4843750000,3,9.4841613770,,,
28.5000000000,3,-6.0185618401,,,
28.5156250000,3,-18.8701591492,,,
28.5312500000,3,-23.1784095764,,,
28.5468750000,3,-13.7671403885,,,
28.5625000000,3,11.2429800034,,,
28.5781250000,3,48.2615203857,,,
28.5937500000,3,87.9773330688,,,
28.6093750000,3,117.9533996582,,,
28.6250000000,3,127.4185028076,,,
28.6406250000,3,112.0374984741,,,
28.6562500000,3,76.0392303467,,,
28.6718750000,3,30.4685401917,,,
28.6875000000,3,-11.6471595764,,,
28.7031250000,3,-40.6585693359,,,
28.7187500000,3,-53.3297691345,,,
28.7343750000,3,-52.4589195251,,,
28.7500000000,3,-43.8143882751,,,
28.7656250000,3,-32.6365814209,,,
28.7812500000,3,-21.7404003143,,,
28.7968750000,3,-11.7683296204,,,
28.8125000000,3,-2.8447570801,,,
28.8281250000,3,4.0856480598,,,
28.8437500000,3,7.0881648064,,,
28.8593750000,3,4.3552699089,,,
28.8750000000,3,-4.3342590332,,,
28.8906250000,3,-16.9447498322,,,
28.9062500000,3,-29.5517406464,,,
28.9218750000,3,-38.0430297852,,,
28.9375000000,3,-39.8947410583,,,
28.9531250000,3,-35.1641082764,,,
28.9687500000,3,-26.3028106689,,,
28.9843750000,3,-16.9943695068,,,
29.0000000000,3,-10.4977102280,,,
29.0156250000,3,-8.3593435287,,,
29.0312500000,3,-10.0425100327,,,
29.0468750000,3,-13.4931898117,,,
29.0625000000,3,-16.2502593994,,,
29.0781250000,3,-16.6126098633,,,
29.0937500000,3,-14.2478904724,,,
29.1093750000,3,-10.1603698730,,,
29.1250000000,3,-6.0283050537,,,
29.1406250000,3,-3.3620150089,,,
29.1562500000,3,-2.8532710075,,,
29.1718750000,3,-4.1850280762,,,
29.1875000000,3,-6.3499450684,,,
29.2031250000,3,-8.1738281250,,,
29.2187500000,3,-8.8782653809,,,
29.2343750000,3,-8.3022155762,,,
29.2500000000,3,-6.8327031136,,,
29.2656250000,3,-5.1039428711,,,
29.2812500000,3,-3.6842648983,,,
29.2968750000,3,-2.8492739201,,,
29.3125000000,3,-2.5736689568,,,
29.3281250000,3,-2.6259310246,,,
29.3437500000,3,-2.7331089973,,,
29.3593750000,3,-2.6717219353,,,
29.3750000000,3,-2.3498380184,,,
29.3906250000,3,-1.7833859921,,,
29.4062500000,3,-1.0448609591,,,
29.4218750000,3,-0.2412720025,,,
29.4375000000,3,0.5271605849,,,
29.4531250000,3,1.1791529655,,,
29.4687500000,3,1.6496280432,,,
29.4843750000,3,1.9174350500,,,
29.5000000000,3,1.9640200138,,,
29.5156250000,3,1.8146669865,,,
29.5312500000,3,1.5484310389,,,
29.5468750000,3,1.2560729980,,,
29.5625000000,3,1.0301359892,,,
29.5781250000,3,0.9246367812,,,
29.5937500000,3,0.9536743164,,,
29.6093750000,3,1.0303189754,,,
29.6250000000,3,1.0753329992,,,
29.6406250000,3,0.9783020020,,,
29.6562500000,3,0.7043151855,,,
29.6718750000,3,0.2632904053,,,
29.6875000000,3,-0.2715606987,,,
29.7031250000,3,-0.7954711914,,,
29.7187500000,3,-1.1959689856,,,
29.7343750000,3,-1.3745729923,,,
29.7500000000,3,-1.2942960262,,,
29.7656250000,3,-0.9793242812,,,
29.7812500000,3,-0.5538024902,,,
29.7968750000,3,-0.1554718018,,,
29.8125000000,3,0.0950622633,,,
29.8281250000,3,0.1583251953,,,
29.8437500000,3,0.0835266113,,,
29.8593750000,3,-0.0004425049,,,
29.8750000000,3,0.0310821496,,,
29.8906250000,3,0.2187805027,,,
29.9062500000,3,0.5286102295,,,
29.9218750000,3,0.8384857178,,,
29.9375000000,3,1.0331120491,,,
29.9531250000,3,1.0528409481,,,
29.9687500000,3,0.9203032851,,,
29.9843750000,3,0.7121124268,,,
30.0000000000,3,0.4836120903,,,
30.0156250000,3,0.2543945014,,,
30.0312500000,3,-0.0081329346,,,
30.0468750000,3,-0.3043364882,,,
30.0625000000,3,-0.5751342773,,,
30.0781250000,3,-0.7068480849,,,
30.0937500000,3,-0.5955963135,,,
30.1093750000,3,-0.2369232029,,,
30.1250000000,3,0.2541961968,,,
30.1406250000,3,0.6542053223,,,
30.1562500000,3,0.7681121826,,,
30.1718750000,3,0.5174102783,,,
30.1875000000,3,-0.0123443604,,,
30.2031250000,3,-0.6558380127,,,
30.2187500000,3,-1.2630620003,,,
30.2343750000,3,-1.7930450439,,,
30.2500000000,3,-2.3064880371,,,
30.2656250000,3,-2.8461909294,,,
30.2812500000,3,-3.3772280216,,,
30.2968750000,3,-3.7317349911,,,
30.3125000000,3,-3.6977689266,,,
30.3281250000,3,-3.1411290169,,,
30.3437500000,3,-2.1268460751,,,
30.3593750000,3,-0.9032135010,,,
30.3750000000,3,0.2186889946,,,
30.3906250000,3,0.9878234863,,,
30.4062500000,3,1.3526920080,,,
30.4218750000,3,1.4549260139,,,
30.4375000000,3,1.5327299833,,,
30.4531250000,3,1.7468110323,,,
30.4687500000,3,2.1308751106,,,
30.4843750000,3,2.5353391171,,,
30.5000000000,3,2.7417910099,,,
30.5156250000,3,2.6077880859,,,
30.5312500000,3,2.1600339413,,,
30.5468750000,3,1.6032869816,,,
30.5625000000,3,1.1819610596,,,
30.5781250000,3,1.0613559484,,,
30.5937500000,3,1.2183840275,,,
30.6093750000,3,1.4620059729,,,
30.6250000000,3,1.5860600471,,,
30.6406250000,3,1.4708559513,,,
30.6562500000,3,1.1707149744,,,
30.6718750000,3,0.8545836806,,,
30.6875000000,3,0.6745452881,,,
30.7031250000,3,0.6524810791,,,
30.7187500000,3,0.6708679199,,,
30.7343750000,3,0.5631409287,,,
30.7500000000,3,0.2483368069,,,
30.7656250000,3,-0.2097472996,,,
30.7812500000,3,-0.6142426133,,,
30.7968750000,3,-0.7861176133,,,
30.8125000000,3,-0.6610413194,,,
30.8281250000,3,-0.3175506890,,,
30.8437500000,3,0.0850830078,,,
30.8593750000,3,0.4075469971,,,
30.8750000000,3,0.5976256728,,,
30.8906250000,3,0.6954650879,,,
30.9062500000,3,0.7485656738,,,
30.9218750000,3,0.7895812988,,,
30.9375000000,3,0.7949523926,,,
30.9531250000,3,0.7090607285,,,
30.9687500000,3,0.5142974854,,,
30.9843750000,3,0.2566986084,,,
31.0000000000,3,0.0167388897,,,
31.0156250000,3,-0.1591643989,,,
31.0312500000,3,-0.2635802925,,,
31.0468750000,3,-0.3186950982,,,
31.0625000000,3,-0.3399657905,,,
31.0781250000,3,-0.3127289116,,,
31.0937500000,3,-0.1757050008,,,
31.1093750000,3,0.1113281026,,,
31.1250000000,3,0.5077971816,,,
31.1406250000,3,0.8767395020,,,
31.1562500000,3,1.0406650305,,,
31.1718750000,3,0.8833466172,,,
31.1875000000,3,0.4264678955,,,
31.2031250000,3,-0.1960906982,,,
31.2187500000,3,-0.7975922227,,,
31.2343750000,3,-1.2709050179,,,
31.2500000000,3,-1.6267549992,,,
31.2656250000,3,-1.9555209875,,,
31.2812500000,3,-2.2922360897,,,
31.2968750000,3,-2.5578000546,,,
31.3125000000,3,-2.5898129940,,,
31.3281250000,3,-2.2462160587,,,
31.3437500000,3,-1.5449830294,,,
31.3593750000,3,-0.6949309707,,,
31.3750000000,3,-0.0294189509,,,
31.3906250000,3,0.1826018989,,,
31.4062500000,3,-0.1022491008,,,
31.4218750000,3,-0.6803131104,,,
31.4375000000,3,-1.2111819983,,,
31.4531250000,3,-1.4097750187,,,
31.4687500000,3,-1.2003630400,,,
31.4843750000,3,-0.7498931885,,,
31.5000000000,3,-0.3321228027,,,
31.5156250000,3,-0.1813354045,,,
31.5312500000,3,-0.3700562119,,,
31.5468750000,3,-0.7893981934,,,
31.5625000000,3,-1.2091219425,,,
31.5781250000,3,-1.4025269747,,,
31.5937500000,3,-1.2383270264,,,
31.6093750000,3,-0.7040253282,,,
31.6250000000,3,0.1069640964,,,
31.6406250000,3,1.0132290125,,,
31.6562500000,3,1.8321230412,,,
31.6718750000,3,2.4060819149,,,
31.6875000000,3,2.6623990536,,,
31.7031250000,3,2.5709528923,,,
31.7187500000,3,2.1723790169,,,
31.7343750000,3,1.5510560274,,,
31.7500000000,3,0.8353881836,,,
31.7656250000,3,0.1643065959,,,
31.7812500000,3,-0.2993316948,,,
31.7968750000,3,-0.4191131890,,,
31.8125000000,3,-0.1530151069,,,
31.8281250000,3,0.4215087891,,,
31.8437500000,3,1.1009830236,,,
31.8593750000,3,1.6619420052,,,
31.8750000000,3,1.9094849825,,,
31.8906250000,3,1.8021090031,,,
31.9062500000,3,1.4317779541,,,
31.9218750000,3,0.9695891738,,,
31.9375000000,3,0.5536956787,,,
31.9531250000,3,0.2395476997,,,
31.9687500000,3,-0.0018157960,,,
31.9843750000,3,-0.2077483982,,,
32.0000000000,4,-0.4016265869,,,
32.0156250000,4,-0.5691832900,,,
32.0312500000,4,-0.6732788086,,,
32.0468750000,4,-0.6957396865,,,
32.0625000000,4,-0.6274108887,,,
32.0781250000,4,-0.4673919976,,,
32.0937500000,4,-0.2039642036,,,
32.1093750000,4,0.1446685940,,,
32.1250000000,4,0.5718231201,,,
32.1406250000,4,1.0200350285,,,
32.1562500000,4,1.4089360237,,,
32.1718750000,4,1.6509699821,,,
32.1875000000,4,1.6802519560,,,
32.2031250000,4,1.4811710119,,,
32.2187500000,4,1.1064759493,,,
32.2343750000,4,0.6651917100,,,
32.2500000000,4,0.2694396973,,,
32.2656250000,4,-0.0129394503,,,
32.2812500000,4,-0.1798706055,,,
32.2968750000,4,-0.2817535102,,,
32.3125000000,4,-0.3984222114,,,
32.3281250000,4,-0.5475006104,,,
32.3437500000,4,-0.7232666016,,,
32.3593750000,4,-0.8495178223,,,
32.3750000000,4,-0.9094696045,,,
32.3906250000,4,-0.9372406006,,,
32.4062500000,4,-1.0369110107,,,
32.4218750000,4,-1.2785799503,,,
32.4375000000,4,-1.6706850529,,,
32.4531250000,4,-2.1047060490,,,
32.4687500000,4,-2.4548649788,,,
32.4843750000,4,-2.6264190674,,,
32.5000000000,4,-2.6154940128,,,
32.5156250000,4,-2.4856259823,,,
32.5312500000,4,-2.2845919132,,,
32.5468750000,4,-1.9832149744,,,
32.5625000000,4,-1.5111540556,,,
32.5781250000,4,-0.8377686143,,,
32.5937500000,4,-0.0069274898,,,
32.6093750000,4,0.7986754775,,,
32.6250000000,4,1.3897550106,,,
32.6406250000,4,1.6441650391,,,
32.6562500000,4,1.5850830078,,,
32.6718750000,4,1.3407900333,,,
32.6875000000,4,1.0837709904,,,
32.7031250000,4,0.8919829726,,,
32.7187500000,4,0.7528076172,,,
32.7343750000,4,0.5963593125,,,
32.7500000000,4,0.3386841118,,,
32.7656250000,4,-0.0219879206,,,
32.7812500000,4,-0.3864440918,,,
32.7968750000,4,-0.6197814941,,,
32.8125000000,4,-0.6216431260,,,
32.8281250000,4,-0.3584747016,,,
32.8437500000,4,0.0592193604,,,
32.8593750000,4,0.4739837945,,,
32.8750000000,4,0.7291718125,,,
32.8906250000,4,0.7538756728,,,
32.9062500000,4,0.5710297227,,,
32.9218750000,4,0.2914429009,,,
32.9375000000,4,0.0407714806,,,
32.9531250000,4,-0.1084899977,,,
32.9687500000,4,-0.1430664063,,,
32.9843750000,4,-0.1211090013,,,
33.0000000000,4,-0.0951538086,,,
33.0156250000,4,-0.0980224609,,,
33.0312500000,4,-0.1244658977,,,
33.0468750000,4,-0.1475525051,,,
33.0625000000,4,-0.1369476020,,,
33.0781250000,4,-0.1094513014,,,
33.0937500000,4,-0.0767211914,,,
33.1093750000,4,-0.0444946289,,,
33.1250000000,4,-0.0063934331,,,
33.1406250000,4,0.0779113770,,,
33.1562500000,4,0.2249297947,,,
33.1718750000,4,0.4106140137,,,
33.1875000000,4,0.5715485215,,,
33.2031250000,4,0.6125640869,,,
33.2187500000,4,0.4748077095,,,
33.2343750000,4,0.1765289009,,,
33.2500000000,4,-0.1838531047,,,
33.2656250000,4,-0.4908294976,,,
33.2812500000,4,-0.6551514268,,,
33.2968750000,4,-0.6570891738,,,
33.3125000000,4,-0.5411530137,,,
33.3281250000,4,-0.3383026123,,,
33.3437500000,4,-0.0933990479,,,
33.3593750000,4,0.2008666992,,,
33.3750000000,4,0.4978789985,,,
33.3906250000,4,0.7355803847,,,
33.4062500000,4,0.8113402724,,,
33.4218750000,4,0.6804351807,,,
33.4375000000,4,0.3894805908,,,
33.4531250000,4,0.0797271729,,,
33.4687500000,4,-0.0891113281,,,
33.4843750000,4,-0.0314941406,,,
33.5000000000,4,0.2100066990,,,
33.5156250000,4,0.4926910102,,,
33.5312500000,4,0.6408234239,,,
33.5468750000,4,0.5442352295,,,
33.5625000000,4,0.2134093940,,,
33.5781250000,4,-0.2566528022,,,
33.5937500000,4,-0.7090454102,,,
33.6093750000,4,-0.9980468750,,,
33.6250000000,4,-1.0413670540,,,
33.6406250000,4,-0.8352509141,,,
33.6562500000,4,-0.4490509033,,,
33.6718750000,4,-0.0008697510,,,
33.6875000000,4,0.3884429932,,,
33.7031250000,4,0.6287993789,,,
33.7187500000,4,0.6912841797,,,
33.7343750000,4,0.5759124756,,,
33.7500000000,4,0.3180083930,,,
33.7656250000,4,-0.0261230506,,,
33.7812500000,4,-0.4075622857,,,
33.7968750000,4,-0.7679595947,,,
33.8125000000,4,-1.0630040169,,,
33.8281250000,4,-1.2401579618,,,
33.8437500000,4,-1.2893069983,,,
33.8593750000,4,-1.1902470589,,,
33.8750000000,4,-0.9425200820,,,
33.8906250000,4,-0.5307921767,,,
33.9062500000,4,0.0186920203,,,
33.9218750000,4,0.6530303955,,,
33.9375000000,4,1.2388759851,,,
33.9531250000,4,1.6092989445,,,
33.9687500000,4,1.6315610409,,,
33.9843750000,4,1.2843630314,,,
34.0000000000,4,0.6837006211,,,
34.0156250000,4,0.0384063683,,,
34.0312500000,4,-0.4391478896,,,
34.0468750000,4,-0.6133881211,,,
34.0625000000,4,-0.4758759141,,,
34.0781250000,4,-0.1340178996,,,
34.0937500000,4,0.2734985054,,,
34.1093750000,4,0.6389771104,,,
34.1250000000,4,0.9389191270,,,
34.1406250000,4,1.1830140352,,,
34.1562500000,4,1.3994749784,,,
34.1718750000,4,1.5734410286,,,
34.1875000000,4,1.6501770020,,,
34.2031250000,4,1.5599670410,,,
34.2187500000,4,1.2756960392,,,
34.2343750000,4,0.8258513808,,,
34.2500000000,4,0.2906951904,,,
34.2656250000,4,-0.2122955024,,,
34.2812500000,4,-0.5905913711,,,
34.2968750000,4,-0.8275452256,,,
34.3125000000,4,-0.9563903809,,,
34.3281250000,4,-1.0206760168,,,
34.3437500000,4,-1.0560150146,,,
34.3593750000,4,-1.0246579647,,,
34.3750000000,4,-0.8698425293,,,
34.3906250000,4,-0.5639954209,,,
34.4062500000,4,-0.1454315037,,,
34.4218750000,4,0.2626343071,,,
34.4375000000,4,0.5213317871,,,
34.4531250000,4,0.5245056152,,,
34.4687500000,4,0.2659606934,,,
34.4843750000,4,-0.1696777046,,,
34.5000000000,4,-0.6564636230,,,
34.5156250000,4,-1.0674740076,,,
34.5312500000,4,-1.3373409510,,,
34.5468750000,4,-1.4474790096,,,
34.5625000000,4,-1.4119570255,,,
34.5781250000,4,-1.2190400362,,,
34.5937500000,4,-0.8438873291,,,
34.6093750000,4,-0.2864531875,,,
34.6250000000,4,0.4246520996,,,
34.6406250000,4,1.2033540010,,,
34.6562500000,4,1.9559780359,,,
34.6718750000,4,2.5700678825,,,
34.6875000000,4,2.9556269646,,,
34.7031250000,4,3.0180659294,,,
34.7187500000,4,2.6562349796,,,
34.7343750000,4,1.8527829647,,,
34.7500000000,4,0.6983795166,,,
34.7656250000,4,-0.5630341172,,,
34.7812500000,4,-1.5764310360,,,
34.7968750000,4,-2.0636138916,,,
34.8125000000,4,-1.9416500330,,,
34.8281250000,4,-1.3488010168,,,
34.8437500000,4,-0.5859984756,,,
34.8593750000,4,0.0834503174,,,
34.8750000000,4,0.5664672852,,,
34.8906250000,4,0.9355773926,,,
34.9062500000,4,1.3424839973,,,
34.9218750000,4,1.8539429903,,,
34.9375000000,4,2.3969419003,,,
34.9531250000,4,2.7893369198,,,
34.9687500000,4,2.8635709286,,,
34.9843750000,4,2.5534520149,,,
35.0000000000,4,1.8966059685,,,
35.0156250000,4,1.0130310059,,,
35.0312500000,4,-0.0045013428,,,
35.0468750000,4,-1.0656889677,,,
35.0625000000,4,-2.0669400692,,,
35.0781250000,4,-2.8667759895,,,
35.0937500000,4,-3.3107600212,,,
35.1093750000,4,-3.2900700569,,,
35.1250000000,4,-2.7886810303,,,
35.1406250000,4,-1.9102170467,,,
35.1562500000,4,-0.8302155137,,,
35.1718750000,4,0.2407379001,,,
35.1875000000,4,1.1153409481,,,
35.2031250000,4,1.6460109949,,,
35.2187500000,4,1.7154079676,,,
35.2343750000,4,1.2974699736,,,
35.2500000000,4,0.4818420112,,,
35.2656250000,4,-0.5310822129,,,
35.2812500000,4,-1.4647519588,,,
35.2968750000,4,-2.0511169434,,,
35.3125000000,4,-2.1593019962,,,
35.3281250000,4,-1.8112790585,,,
35.3437500000,4,-1.1871490479,,,
35.3593750000,4,-0.5085753798,,,
35.3750000000,4,0.0345153809,,,
35.3906250000,4,0.3535766900,,,
35.4062500000,4,0.4575195014,,,
35.4218750000,4,0.4344024956,,,
35.4375000000,4,0.3789825141,,,
35.4531250000,4,0.3594054878,,,
35.4687500000,4,0.4086760879,,,
35.4843750000,4,0.5056915283,,,
35.5000000000,4,0.5858001709,,,
35.5156250000,4,0.6087036133,,,
35.5312500000,4,0.5512238145,,,
35.5468750000,4,0.4223327935,,,
35.5625000000,4,0.2362823039,,,
35.5781250000,4,0.0115814200,,,
35.5937500000,4,-0.2492064983,,,
35.6093750000,4,-0.5241240859,,,
35.6250000000,4,-0.7441710830,,,
35.6406250000,4,-0.8095703125,,,
35.6562500000,4,-0.6157990098,,,
35.6718750000,4,-0.1882781982,,,
35.6875000000,4,0.3664093018,,,
35.7031250000,4,0.8550872803,,,
35.7187500000,4,1.0925899744,,,
35.7343750000,4,1.0316619873,,,
35.7500000000,4,0.7623291016,,,
35.7656250000,4,0.4784241021,,,
35.7812500000,4,0.3146057129,,,
35.7968750000,4,0.3116759956,,,
35.8125000000,4,0.3814086914,,,
35.8281250000,4,0.4039916992,,,
35.8437500000,4,0.3020781875,,,
35.8593750000,4,0.1015778035,,,
35.8750000000,4,-0.1082763970,,,
35.8906250000,4,-0.2421875000,,,
35.9062500000,4,-0.2692871094,,,
35.9218750000,4,-0.1991425008,,,
35.9375000000,4,-0.0430908203,,,
35.9531250000,4,0.1885529011,,,
35.9687500000,4,0.4795073867,,,
35.9843750000,4,0.7926787734,,,
36.0000000000,4,1.0310670137,,,
36.0156250000,4,1.0970309973,,,
36.0312500000,4,0.9092559814,,,
36.0468750000,4,0.4922637939,,,
36.0625000000,4,-0.0608825684,,,
36.0781250000,4,-0.6054993272,,,
36.0937500000,4,-1.0129849911,,,
36.1093750000,4,-1.2133029699,,,
36.1250000000,4,-1.1955410242,,,
36.1406250000,4,-1.0117650032,,,
36.1562500000,4,-0.6793823242,,,
36.1718750000,4,-0.2274933010,,,
36.1875000000,4,0.3494567871,,,
36.2031250000,4,1.0242309570,,,
36.2187500000,4,1.6847840548,,,
36.2343750000,4,2.1838679314,,,
36.2500000000,4,2.3442080021,,,
36.2656250000,4,2.0991520882,,,
36.2812500000,4,1.4882349968,,,
36.2968750000,4,0.7081450820,,,
36.3125000000,4,-0.0146331796,,,
36.3281250000,4,-0.4994964898,,,
36.3437500000,4,-0.6645966172,,,
36.3593750000,4,-0.5548400879,,,
36.3750000000,4,-0.2702178955,,,
36.3906250000,4,0.0629882813,,,
36.4062500000,4,0.3138884902,,,
36.4218750000,4,0.3668670952,,,
36.4375000000,4,0.1513061970,,,
36.4531250000,4,-0.3408051133,,,
36.4687500000,4,-1.0150909424,,,
36.4843750000,4,-1.7103420496,,,
36.5000000000,4,-2.2647550106,,,
36.5156250000,4,-2.5791780949,,,
36.5312500000,4,-2.6685490608,,,
36.5468750000,4,-2.5869750977,,,
36.5625000000,4,-2.3698880672,,,
36.5781250000,4,-1.9837039709,,,
36.5937500000,4,-1.3842159510,,,
36.6093750000,4,-0.6055603027,,,
36.6250000000,4,0.2308350056,,,
36.6406250000,4,0.9114074707,,,
36.6562500000,4,1.2760469913,,,
36.6718750000,4,1.3174129725,,,
36.6875000000,4,1.1873320341,,,
36.7031250000,4,1.0725710392,,,
36.7187500000,4,1.0893709660,,,
36.7343750000,4,1.2019499540,,,
36.7500000000,4,1.2884370089,,,
36.7656250000,4,1.2420500517,,,
36.7812500000,4,1.0453799963,,,
36.7968750000,4,0.7953948975,,,
36.8125000000,4,0.6124114990,,,
36.8281250000,4,0.5347136855,,,
36.8437500000,4,0.5274506211,,,
36.8593750000,4,0.4915161133,,,
36.8750000000,4,0.3410645127,,,
36.8906250000,4,0.0897369385,,,
36.9062500000,4,-0.1617736965,,,
36.9218750000,4,-0.2739258111,,,
36.9375000000,4,-0.1420135051,,,
36.9531250000,4,0.2314758003,,,
36.9687500000,4,0.7203521729,,,
36.9843750000,4,1.1069029570,,,
37.0000000000,4,1.2013549805,,,
37.0156250000,4,0.9252318740,,,
37.0312500000,4,0.3569031060,,,
37.0468750000,4,-0.2660216987,,,
37.0625000000,4,-0.6920775771,,,
37.0781250000,4,-0.7528533936,,,
37.0937500000,4,-0.4517821968,,,
37.1093750000,4,0.0196838398,,,
37.1250000000,4,0.4281769097,,,
37.1406250000,4,0.6022644043,,,
37.1562500000,4,0.5155181885,,,
37.1718750000,4,0.2494353950,,,
37.1875000000,4,-0.0573425293,,,
37.2031250000,4,-0.3378601074,,,
37.2187500000,4,-0.5908660889,,,
37.2343750000,4,-0.8659210205,,,
37.2500000000,4,-1.2083129883,,,
37.2656250000,4,-1.5845179558,,,
37.2812500000,4,-1.9220579863,,,
37.2968750000,4,-2.1209869385,,,
37.3125000000,4,-2.1036679745,,,
37.3281250000,4,-1.8682709932,,,
37.3437500000,4,-1.4840550423,,,
37.3593750000,4,-1.0569310188,,,
37.3750000000,4,-0.6931304932,,,
37.3906250000,4,-0.4514923096,,,
37.4062500000,4,-0.3017426133,,,
37.4218750000,4,-0.1477508992,,,
37.4375000000,4,0.0999298096,,,
37.4531250000,4,0.4648590088,,,
37.4687500000,4,0.8700562119,,,
37.4843750000,4,1.1646579504,,,
37.5000000000,4,1.2291409969,,,
37.5156250000,4,1.0536040068,,,
37.5312500000,4,0.7204741836,,,
37.5468750000,4,0.3925170898,,,
37.5625000000,4,0.1778412014,,,
37.5781250000,4,0.0766296387,,,
37.5937500000,4,0.0230407696,,,
37.6093750000,4,-0.0472564697,,,
37.6250000000,4,-0.1094971001,,,
37.6406250000,4,-0.0659942627,,,
37.6562500000,4,0.1898498982,,,
37.6718750000,4,0.6519774795,,,
37.6875000000,4,1.1877750158,,,
37.7031250000,4,1.5687259436,,,
37.7187500000,4,1.5883940458,,,
37.7343750000,4,1.2166600227,,,
37.7500000000,4,0.5911102295,,,
37.7656250000,4,-0.0416412391,,,
37.7812500000,4,-0.4732666016,,,
37.7968750000,4,-0.6189270020,,,
37.8125000000,4,-0.5619965196,,,
37.8281250000,4,-0.4643250108,,,
37.8437500000,4,-0.4774475098,,,
37.8593750000,4,-0.6274414063,,,
37.8750000000,4,-0.8057556152,,,
37.8906250000,4,-0.8463134766,,,
37.9062500000,4,-0.6303864121,,,
37.9218750000,4,-0.1559143066,,,
37.9375000000,4,0.4151153862,,,
37.9531250000,4,0.8443604112,,,
37.9687500000,4,0.9249877930,,,
37.9843750000,4,0.5908966064,,,
38.0000000000,4,-0.0276031494,,,
38.0156250000,4,-0.6390380859,,,
38.0312500000,4,-0.9768676758,,,
38.0468750000,4,-0.8961334229,,,
38.0625000000,4,-0.4686583877,,,
38.0781250000,4,0.0599670410,,,
38.0937500000,4,0.4146423042,,,
38.1093750000,4,0.4391784966,,,
38.1250000000,4,0.2137756050,,,
38.1406250000,4,-0.0249939002,,,
38.1562500000,4,0.0004730225,,,
38.1718750000,4,0.3822478950,,,
38.1875000000,4,0.9967194200,,,
38.2031250000,4,1.5310970545,,,
38.2187500000,4,1.6771850586,,,
38.2343750000,4,1.3240970373,,,
38.2500000000,4,0.6421204209,,,
38.2656250000,4,-0.0213470496,,,
38.2812500000,4,-0.3491820991,,,
38.2968750000,4,-0.2404785007,,,
38.3125000000,4,0.1492920071,,,
38.3281250000,4,0.5282592773,,,
38.3437500000,4,0.6557465196,,,
38.3593750000,4,0.4910582900,,,
38.3750000000,4,0.2043152004,,,
38.3906250000,4,0.0238037091,,,
38.4062500000,4,0.0726470873,,,
38.4218750000,4,0.3196411133,,,
38.4375000000,4,0.5972136855,,,
38.4531250000,4,0.7407683730,,,
38.4687500000,4,0.7035828233,,,
38.4843750000,4,0.5587769151,,,
38.5000000000,4,0.4335174859,,,
38.5156250000,4,0.4323120117,,,
38.5312500000,4,0.5506743789,,,
38.5468750000,4,0.6953125000,,,
38.5625000000,4,0.7338562012,,,
38.5781250000,4,0.5639038086,,,
38.5937500000,4,0.1702881008,,,
38.6093750000,4,-0.3788452148,,,
38.6250000000,4,-0.9383544922,,,
38.6406250000,4,-1.3519740105,,,
38.6562500000,4,-1.5267790556,,,
38.6718750000,4,-1.4700620174,,,
38.6875000000,4,-1.2701569796,,,
38.7031250000,4,-1.0699919462,,,
38.7187500000,4,-0.9798126221,,,
38.7343750000,4,-1.0266879797,,,
38.7500000000,4,-1.1588439941,,,
38.7656250000,4,-1.2845610380,,,
38.7812500000,4,-1.3332209587,,,
38.7968750000,4,-1.2973790169,,,
38.8125000000,4,-1.2194520235,,,
38.8281250000,4,-1.1811679602,,,
38.8437500000,4,-1.2215880156,,,
38.8593750000,4,-1.3327790499,,,
38.8750000000,4,-1.4098819494,,,
38.8906250000,4,-1.2866970301,,,
38.9062500000,4,-0.8446655273,,,
38.9218750000,4,-0.0431366004,,,
38.9375000000,4,0.9785767198,,,
38.9531250000,4,1.9728389978,,,
38.9687500000,4,2.6564331055,,,
38.9843750000,4,2.8458859921,,,
39.0000000000,4,2.5396881104,,,
39.0156250000,4,1.9067540169,,,
39.0312500000,4,1.1913150549,,,
39.0468750000,4,0.5950164795,,,
39.0625000000,4,0.1800231934,,,
39.0781250000,4,-0.1059112996,,,
39.0937500000,4,-0.3587341011,,,
39.1093750000,4,-0.6307830811,,,
39.1250000000,4,-0.8925781250,,,
39.1406250000,4,-1.0650019646,,,
39.1562500000,4,-1.0529329777,,,
39.1718750000,4,-0.8365020752,,,
39.1875000000,4,-0.4305573106,,,
39.2031250000,4,0.0976257324,,,
39.2187500000,4,0.6830139160,,,
39.2343750000,4,1.2742919922,,,
39.2500000000,4,1.8300780058,,,
39.2656250000,4,2.3185880184,,,
39.2812500000,4,2.6669011116,,,
39.2968750000,4,2.7959139347,,,
39.3125000000,4,2.6283719540,,,
39.3281250000,4,2.1155850887,,,
39.3437500000,4,1.3316960335,,,
39.3593750000,4,0.4061583877,,,
39.3750000000,4,-0.4641875923,,,
39.3906250000,4,-1.0844420195,,,
39.4062500000,4,-1.3336329460,,,
39.4218750000,4,-1.1694179773,,,
39.4375000000,4,-0.6794738770,,,
39.4531250000,4,-0.0220184308,,,
39.4687500000,4,0.5691832900,,,
39.4843750000,4,0.9149016738,,,
39.5000000000,4,0.9116669297,,,
39.5156250000,4,0.5881195068,,,
39.5312500000,4,0.0541534387,,,
39.5468750000,4,-0.5424957275,,,
39.5625000000,4,-1.0796509981,,,
39.5781250000,4,-1.5082089901,,,
39.5937500000,4,-1.8322910070,,,
39.6093750000,4,-2.0827939510,,,
39.6250000000,4,-2.2569730282,,,
39.6406250000,4,-2.3596498966,,,
39.6562500000,4,-2.3396298885,,,
39.6718750000,4,-2.1875309944,,,
39.6875000000,4,-1.8905489445,,,
39.7031250000,4,-1.4837800264,,,
39.7187500000,4,-0.9985656738,,,
39.7343750000,4,-0.4741668999,,,
39.7500000000,4,0.0406189002,,,
39.7656250000,4,0.4976348877,,,
39.7812500000,4,0.8444824219,,,
39.7968750000,4,1.0666810274,,,
39.8125000000,4,1.1647490263,,,
39.8281250000,4,1.1419980526,,,
39.8437500000,4,0.9946594238,,,
39.8593750000,4,0.7009583116,,,
39.8750000000,4,0.2498321980,,,
39.8906250000,4,-0.3094176948,,,
39.9062500000,4,-0.8489531875,,,
39.9218750000,4,-1.1966550350,,,
39.9375000000,4,-1.2154079676,,,
39.9531250000,4,-0.8551331162,,,
39.9687500000,4,-0.2013397068,,,
39.9843750000,4,0.5697783828,,,
40.0000000000,5,1.2512509823,,,
40.0156250000,5,1.6868740320,,,
40.0312500000,5,1.8003079891,,,
40.0468750000,5,1.6204220057,,,
40.0625000000,5,1.2389980555,,,
40.0781250000,5,0.7833861709,,,
40.0937500000,5,0.3487243950,,,
40.1093750000,5,-0.0164947491,,,
40.1250000000,5,-0.3158721924,,,
40.1406250000,5,-0.6010742188,,,
40.1562500000,5,-0.9059296250,,,
40.1718750000,5,-1.2395169735,,,
40.1875000000,5,-1.5319670439,,,
40.2031250000,5,-1.7018589973,,,
40.2187500000,5,-1.6646120548,,,
40.2343750000,5,-1.4257349968,,,
40.2500000000,5,-1.0582430363,,,
40.2656250000,5,-0.6931915283,,,
40.2812500000,5,-0.4515686035,,,
40.2968750000,5,-0.3601227105,,,
40.3125000000,5,-0.3621979058,,,
40.3281250000,5,-0.3605042100,,,
40.3437500000,5,-0.2684937119,,,
40.3593750000,5,-0.0600128211,,,
40.3750000000,5,0.2205352932,,,
40.3906250000,5,0.5002747178,,,
40.4062500000,5,0.7354583740,,,
40.4218750000,5,0.9101256728,,,
40.4375000000,5,1.0643310547,,,
40.4531250000,5,1.2633509636,,,
40.4687500000,5,1.5360569954,,,
40.4843750000,5,1.8892669678,,,
40.5000000000,5,2.2647550106,,,
40.5156250000,5,2.5509030819,,,
40.5312500000,5,2.6270749569,,,
40.5468750000,5,2.4015350342,,,
40.5625000000,5,1.8435519934,,,
40.5781250000,5,1.0351870060,,,
40.5937500000,5,0.1320953071,,,
40.6093750000,5,-0.6665955186,,,
40.6250000000,5,-1.2206729650,,,
40.6406250000,5,-1.4893189669,,,
40.6562500000,5,-1.5267030001,,,
40.6718750000,5,-1.4157710075,,,
40.6875000000,5,-1.2075040340,,,
40.7031250000,5,-0.9038239121,,,
40.7187500000,5,-0.4694060981,,,
40.7343750000,5,0.0610046387,,,
40.7500000000,5,0.5594635010,,,
40.7656250000,5,0.8541259766,,,
40.7812500000,5,0.8135222793,,,
40.7968750000,5,0.4454346001,,,
40.8125000000,5,-0.0977020264,,,
40.8281250000,5,-0.6142426133,,,
40.8437500000,5,-0.9410706162,,,
40.8593750000,5,-1.0426180363,,,
40.8750000000,5,-0.9905701280,,,
40.8906250000,5,-0.8786621094,,,
40.9062500000,5,-0.7341765761,,,
40.9218750000,5,-0.5277863145,,,
40.9375000000,5,-0.2109985054,,,
40.9531250000,5,0.2013397068,,,
40.9687500000,5,0.6005249023,,,
40.9843750000,5,0.8567199707,,,
41.0000000000,5,0.8899077773,,,
41.0156250000,5,0.7300415039,,,
41.0312500000,5,0.4952544868,,,
41.0468750000,5,0.3238219917,,,
41.0625000000,5,0.2849884033,,,
41.0781250000,5,0.3662720025,,,
41.0937500000,5,0.4898375869,,,
41.1093750000,5,0.5478516221,,,
41.1250000000,5,0.4847106934,,,
41.1406250000,5,0.2893218994,,,
41.1562500000,5,0.0262451209,,,
41.1718750000,5,-0.2188721001,,,
41.1875000000,5,-0.3363341987,,,
41.2031250000,5,-0.2734833062,,,
41.2187500000,5,-0.0122528104,,,
41.2343750000,5,0.3895874023,,,
41.2500000000,5,0.8147277832,,,
41.2656250000,5,1.1239930391,,,
41.2812500000,5,1.2183840275,,,
41.2968750000,5,1.0396729708,,,
41.3125000000,5,0.6084899902,,,
41.3281250000,5,0.0052337651,,,
41.3437500000,5,-0.6322937012,,,
41.3593750000,5,-1.1479489803,,,
41.3750000000,5,-1.3936920166,,,
41.3906250000,5,-1.3085479736,,,
41.4062500000,5,-0.3792572021,,,
41.4218750000,5,0.1505890042,,,
41.4375000000,5,0.5082092285,,,
41.4531250000,5,0.6316375732,,,
41.4687500000,5,0.5692902207,,,
41.4843750000,5,0.4001922905,,,
41.5000000000,5,0.2164763957,,,
41.5156250000,5,0.0524902306,,,
41.5312500000,5,-0.0973510668,,,
41.5468750000,5,-0.2798461914,,,
41.5625000000,5,-0.5122681260,,,
41.5781250000,5,-0.7939147949,,,
41.5937500000,5,-1.1067960262,,,
41.6093750000,5,-1.4424899817,,,
41.6250000000,5,-1.7930599451,,,
41.6406250000,5,-2.1462550163,,,
41.6562500000,5,-2.4696350098,,,
41.6718750000,5,-2.6799929142,,,
41.6875000000,5,-2.6998291016,,,
41.7031250000,5,-2.4777979851,,,
41.7187500000,5,-2.0397191048,,,
41.7343750000,5,-1.4449770451,,,
41.7500000000,5,-0.7837371826,,,
41.7656250000,5,-0.1108397990,,,
41.7812500000,5,0.5575562119,,,
41.7968750000,5,1.2127230167,,,
41.8125000000,5,1.8149570227,,,
41.8281250000,5,2.2741849422,,,
41.8437500000,5,2.4874880314,,,
41.8593750000,5,2.4172821045,,,
41.8750000000,5,2.1236569881,,,
41.8906250000,5,1.7618260384,,,
41.9062500000,5,1.5360260010,,,
41.9218750000,5,1.5601650476,,,
41.9375000000,5,1.8397370577,,,
41.9531250000,5,2.2230529785,,,
41.9687500000,5,2.4996490479,,,
41.9843750000,5,2.4859011173,,,
42.0000000000,5,2.1109769344,,,
42.0156250000,5,1.4224849939,,,
42.0312500000,5,0.5849761963,,,
42.0468750000,5,-0.2140807956,,,
42.0625000000,5,-0.7988739014,,,
42.0781250000,5,-1.0764919519,,,
42.0937500000,5,-1.0650629997,,,
42.1093750000,5,-0.8742675781,,,
42.1250000000,5,-0.6598815918,,,
42.1406250000,5,-0.5524445176,,,
42.1562500000,5,-0.6086425781,,,
42.1718750000,5,-0.7729340196,,,
42.1875000000,5,-0.9275817871,,,
42.2031250000,5,-0.9356232285,,,
42.2187500000,5,-0.7347106934,,,
42.2343750000,5,-0.3330535889,,,
42.2500000000,5,0.1660308987,,,
42.2656250000,5,0.6318511963,,,
42.2812500000,5,0.9684906006,,,
42.2968750000,5,1.1112669706,,,
42.3125000000,5,1.0605159998,,,
42.3281250000,5,0.8655853271,,,
42.3437500000,5,0.5776519775,,,
42.3593750000,5,0.2841643989,,,
42.3750000000,5,0.0632934570,,,
42.3906250000,5,-0.0213165302,,,
42.4062500000,5,0.0564117394,,,
42.4218750000,5,0.2327881008,,,
42.4375000000,5,0.4069823921,,,
42.4531250000,5,0.4643859863,,,
42.4687500000,5,0.3419494927,,,
42.4843750000,5,0.0455322303,,,
42.5000000000,5,-0.3016510010,,,
42.5156250000,5,-0.5575255752,,,
42.5312500000,5,-0.5923767090,,,
42.5468750000,5,-0.3544768989,,,
42.5625000000,5,0.0919036865,,,
42.5781250000,5,0.5907288194,,,
42.5937500000,5,0.9477385879,,,
42.6093750000,5,1.0181430578,,,
42.6250000000,5,0.7717437744,,,
42.6406250000,5,0.3117218018,,,
42.6562500000,5,-0.1924591064,,,
42.6718750000,5,-0.5537261963,,,
42.6875000000,5,-0.6863250732,,,
42.7031250000,5,-0.6015471816,,,
42.7187500000,5,-0.4039916992,,,
42.7343750000,5,-0.1826324016,,,
42.7500000000,5,0.0080718994,,,
42.7656250000,5,0.1607971042,,,
42.7812500000,5,0.3001250923,,,
42.7968750000,5,0.4045409858,,,
42.8125000000,5,0.4377289116,,,
42.8281250000,5,0.3451232910,,,
42.8437500000,5,0.1187592000,,,
42.8593750000,5,-0.1968231052,,,
42.8750000000,5,-0.4998322129,,,
42.8906250000,5,-0.6863707900,,,
42.9062500000,5,-0.6748046875,,,
42.9218750000,5,-0.4460448921,,,
42.9375000000,5,-0.0628051832,,,
42.9531250000,5,0.3609619141,,,
42.9687500000,5,0.7204437256,,,
42.9843750000,5,0.9147644043,,,
43.0000000000,5,0.9240875244,,,
43.0156250000,5,0.7917479873,,,
43.0312500000,5,0.5941315293,,,
43.0468750000,5,0.4078522027,,,
43.0625000000,5,0.2580414116,,,
43.0781250000,5,0.1275330037,,,
43.0937500000,5,-0.0433196984,,,
43.1093750000,5,-0.2994537055,,,
43.1250000000,5,-0.6360321045,,,
43.1406250000,5,-1.0323790312,,,
43.1562500000,5,-1.4518430233,,,
43.1718750000,5,-1.8585970402,,,
43.1875000000,5,-2.2189788818,,,
43.2031250000,5,-2.4449620247,,,
43.2187500000,5,-2.4436650276,,,
43.2343750000,5,-2.1212770939,,,
43.2500000000,5,-1.4545749426,,,
43.2656250000,5,-0.5123900771,,,
43.2812500000,5,0.5494080186,,,
43.2968750000,5,1.5279539824,,,
43.3125000000,5,2.2673189640,,,
43.3281250000,5,2.6700129509,,,
43.3437500000,5,2.7310330868,,,
43.3593750000,5,2.4969480038,,,
43.3750000000,5,2.0498499870,,,
43.3906250000,5,1.4751739502,,,
43.4062500000,5,0.8644866943,,,
43.4218750000,5,0.2947083116,,,
43.4375000000,5,-0.1609801948,,,
43.4531250000,5,-0.4637908936,,,
43.4687500000,5,-0.6181945801,,,
43.4843750000,5,-0.6675568223,,,
43.5000000000,5,-0.6950836182,,,
43.5156250000,5,-0.7844849229,,,
43.5312500000,5,-0.9899445176,,,
43.5468750000,5,-1.3143010139,,,
43.5625000000,5,-1.7043910027,,,
43.5781250000,5,-2.0526430607,,,
43.5937500000,5,-2.2803189754,,,
43.6093750000,5,-2.3681490421,,,
43.6250000000,5,-2.3411409855,,,
43.6406250000,5,-2.2967989445,,,
43.6562500000,5,-2.3215479851,,,
43.6718750000,5,-2.4911499023,,,
43.6875000000,5,-2.8540799618,,,
43.7031250000,5,-3.4182589054,,,
43.7187500000,5,-4.1405940056,,,
43.7343750000,5,-4.8900299072,,,
43.7500000000,5,-5.4945068359,,,
43.7656250000,5,-5.7385859489,,,
43.7812500000,5,-5.4822688103,,,
43.7968750000,5,-4.6880798340,,,
43.8125000000,5,-3.4496309757,,,
43.8281250000,5,-1.9391020536,,,
43.8437500000,5,-0.3670043945,,,
43.8593750000,5,1.0601040125,,,
43.8750000000,5,2.1419529915,,,
43.8906250000,5,2.7068479061,,,
43.9062500000,5,2.6513819695,,,
43.9218750000,5,1.9827729464,,,
43.9375000000,5,0.8708037734,,,
43.9531250000,5,-0.3931122124,,,
43.9687500000,5,-1.4536900520,,,
43.9843750000,5,-2.0270230770,,,
44.0000000000,5,-1.9474639893,,,
44.0156250000,5,-1.2138370275,,,
44.0312500000,5,0.0492858887,,,
44.0468750000,5,1.5995479822,,,
44.0625000000,5,3.1465299129,,,
44.0781250000,5,4.3725590706,,,
44.0937500000,5,5.0536961555,,,
44.1093750000,5,5.0854802132,,,
44.1250000000,5,4.5737609863,,,
44.1406250000,5,3.7608950138,,,
44.1562500000,5,2.9368290901,,,
44.1718750000,5,2.2826080322,,,
44.1875000000,5,1.8071750402,,,
44.2031250000,5,1.3797609806,,,
44.2187500000,5,0.8425446153,,,
44.2343750000,5,0.1344604045,,,
44.2500000000,5,-0.6893767715,,,
44.2656250000,5,-1.4738769531,,,
44.2812500000,5,-2.0608520508,,,
44.2968750000,5,-2.3348081112,,,
44.3125000000,5,-2.2418980598,,,
44.3281250000,5,-1.8206479549,,,
44.3437500000,5,-1.1687469482,,,
44.3593750000,5,-0.4716948867,,,
44.3750000000,5,0.0574798584,,,
44.3906250000,5,0.2242279053,,,
44.4062500000,5,-0.0649871826,,,
44.4218750000,5,-0.7247161865,,,
44.4375000000,5,-1.5535429716,,,
44.4531250000,5,-2.3089139462,,,
44.4687500000,5,-2.8025970459,,,
44.4843750000,5,-3.0045011044,,,
44.5000000000,5,-2.9896550179,,,
44.5156250000,5,-2.8778378963,,,
44.5312500000,5,-2.7011411190,,,
44.5468750000,5,-2.4031369686,,,
44.5625000000,5,-1.8666989803,,,
44.5781250000,5,-1.0475920439,,,
44.5937500000,5,-0.0021820071,,,
44.6093750000,5,1.1146240234,,,
44.6250000000,5,2.1172180176,,,
44.6406250000,5,2.8813478947,,,
44.6562500000,5,3.3814389706,,,
44.6718750000,5,3.6179199219,,,
44.6875000000,5,3.6228940487,,,
44.7031250000,5,3.4008939266,,,
44.7187500000,5,2.9765629768,,,
44.7343750000,5,2.4414670467,,,
44.7500000000,5,1.9320069551,,,
44.7656250000,5,1.6042180061,,,
44.7812500000,5,1.5447390079,,,
44.7968750000,5,1.7104799747,,,
44.8125000000,5,1.9612270594,,,
44.8281250000,5,2.1447451115,,,
44.8437500000,5,2.1940770149,,,
44.8593750000,5,2.1765589714,,,
44.8750000000,5,2.1970369816,,,
44.8906250000,5,2.3097229004,,,
44.9062500000,5,2.4047238827,,,
44.9218750000,5,2.2890470028,,,
44.9375000000,5,1.7865140438,,,
44.9531250000,5,0.8863372803,,,
44.9687500000,5,-0.2100829929,,,
44.9843750000,5,-1.1832729578,,,
45.0000000000,5,-1.6993260384,,,
45.0156250000,5,-1.5835720301,,,
45.0312500000,5,-0.8343964219,,,
45.0468750000,5,0.3825378120,,,
45.0625000000,5,1.8445889950,,,
45.0781250000,5,3.2665410042,,,
45.0937500000,5,4.3795318604,,,
45.1093750000,5,4.9462127686,,,
45.1250000000,5,4.7928919792,,,
45.1406250000,5,3.8814849854,,,
45.1562500000,5,2.3440248966,,,
45.1718750000,5,0.4528808892,,,
45.1875000000,5,-1.4442440271,,,
45.2031250000,5,-3.0298459530,,,
45.2187500000,5,-4.1030268669,,,
45.2343750000,5,-4.5590667725,,,
45.2500000000,5,-4.4352722168,,,
45.2656250000,5,-3.8182530403,,,
45.2812500000,5,-2.8327479362,,,
45.2968750000,5,-1.5949100256,,,
45.3125000000,5,-0.1956329048,,,
45.3281250000,5,1.2985990047,,,
45.3437500000,5,2.8217010498,,,
45.3593750000,5,4.2673487663,,,
45.3750000000,5,5.4580378532,,,
45.3906250000,5,6.1794891357,,,
45.4062500000,5,6.2535710335,,,
45.4218750000,5,5.5797882080,,,
45.4375000000,5,4.1606287956,,,
45.4531250000,5,2.1224670410,,,
45.4687500000,5,-0.3264771104,,,
45.4843750000,5,-2.8767700195,,,
45.5000000000,5,-5.0839838982,,,
45.5156250000,5,-6.4159698486,,,
45.5312500000,5,-6.3926849365,,,
45.5468750000,5,-4.7902221680,,,
45.5625000000,5,-1.8462519646,,,
45.5781250000,5,1.7064670324,,,
45.5937500000,5,4.8366551399,,,
45.6093750000,5,6.5912017822,,,
45.6250000000,5,6.4744720459,,,
45.6406250000,5,4.6510767937,,,
45.6562500000,5,1.8540799618,,,
45.6718750000,5,-0.9512177110,,,
45.6875000000,5,-2.9324951172,,,
45.7031250000,5,-3.6788640022,,,
45.7187500000,5,-3.2267000675,,,
45.7343750000,5,-1.8981629610,,,
45.7500000000,5,-0.1469268948,,,
45.7656250000,5,1.6320339441,,,
45.7812500000,5,3.0919950008,,,
45.7968750000,5,3.9673609734,,,
45.8125000000,5,4.0185241699,,,
45.8281250000,5,3.1210329533,,,
45.8437500000,5,1.3247220516,,,
45.8593750000,5,-1.0744630098,,,
45.8750000000,5,-3.6070098877,,,
45.8906250000,5,-5.7286381721,,,
45.9062500000,5,-7.0018768311,,,
45.9218750000,5,-7.2039031982,,,
45.9375000000,5,-6.3833007813,,,
45.9531250000,5,-4.8254852295,,,
45.9687500000,5,-2.9379730225,,,
45.9843750000,5,-1.1405030489,,,
46.0000000000,5,0.2540893853,,,
46.0156250000,5,1.0783840418,,,
46.0312500000,5,1.3361510038,,,
46.0468750000,5,1.1471409798,,,
46.0625000000,5,0.6701660156,,,
46.0781250000,5,0.0719146729,,,
46.0937500000,5,-0.5082244873,,,
46.1093750000,5,-0.9552307129,,,
46.1250000000,5,-1.1922149658,,,
46.1406250000,5,-1.1588900089,,,
46.1562500000,5,-0.8696442246,,,
46.1718750000,5,-0.4348601997,,,
46.1875000000,5,-0.0279693604,,,
46.2031250000,5,0.1502837986,,,
46.2187500000,5,0.0028686521,,,
46.2343750000,5,-0.4485779107,,,
46.2500000000,5,-1.0349119902,,,
46.2656250000,5,-1.5323029757,,,
46.2812500000,5,-1.7755889893,,,
46.2968750000,5,-1.7070009708,,,
46.3125000000,5,-1.4008029699,,,
46.3281250000,5,-0.9602661133,,,
46.3437500000,5,-0.5084686279,,,
46.3593750000,5,-0.0845489502,,,
46.3750000000,5,0.2910918891,,,
46.3906250000,5,0.6017150879,,,
46.4062500000,5,0.8065947890,,,
46.4218750000,5,0.8791655898,,,
46.4375000000,5,0.8514404297,,,
46.4531250000,5,0.8556975722,,,
46.4687500000,5,1.0833129883,,,
46.4843750000,5,1.6680300236,,,
46.5000000000,5,2.5793149471,,,
46.5156250000,5,3.5484769344,,,
46.5312500000,5,4.1997070313,,,
46.5468750000,5,4.2098689079,,,
46.5625000000,5,3.5023500919,,,
46.5781250000,5,2.3185420036,,,
46.5937500000,5,1.0826259851,,,
46.6093750000,5,0.2099914998,,,
46.6250000000,5,-0.1309814006,,,
46.6406250000,5,-0.0372161902,,,
46.6562500000,5,0.2017212063,,,
46.6718750000,5,0.3197020888,,,
46.6875000000,5,0.1891174018,,,
46.7031250000,5,-0.1203155965,,,
46.7187500000,5,-0.4371033013,,,
46.7343750000,5,-0.6616821289,,,
46.7500000000,5,-0.7924957275,,,
46.7656250000,5,-0.9193726182,,,
46.7812500000,5,-1.1090090275,,,
46.7968750000,5,-1.3294529915,,,
46.8125000000,5,-1.4777530432,,,
46.8281250000,5,-1.4228819609,,,
46.8437500000,5,-1.1370849609,,,
46.8593750000,5,-0.6752471924,,,
46.8750000000,5,-0.1706542969,,,
46.8906250000,5,0.2638550103,,,
46.9062500000,5,0.5583649278,,,
46.9218750000,5,0.7016143799,,,
46.9375000000,5,0.6889191270,,,
46.9531250000,5,0.5154418945,,,
46.9687500000,5,0.1706696004,,,
46.9843750000,5,-0.3291321099,,,
47.0000000000,5,-0.8757781982,,,
47.0156250000,5,-1.3331910372,,,
47.0312500000,5,-1.5497130156,,,
47.0468750000,5,-1.4591979980,,,
47.0625000000,5,-1.0960849524,,,
47.0781250000,5,-0.6032866836,,,
47.0937500000,5,-0.1438293010,,,
47.1093750000,5,0.1679076999,,,
47.1250000000,5,0.3075866997,,,
47.1406250000,5,0.3358153999,,,
47.1562500000,5,0.3397980034,,,
47.1718750000,5,0.3971557915,,,
47.1875000000,5,0.5110930800,,,
47.2031250000,5,0.6194458008,,,
47.2187500000,5,0.6271209717,,,
47.2343750000,5,0.4510192871,,,
47.2500000000,5,0.0714874268,,,
47.2656250000,5,-0.4458923042,,,
47.2812500000,5,-0.9652709961,,,
47.2968750000,5,-1.3176120520,,,
47.3125000000,5,-1.3957669735,,,
47.3281250000,5,-1.1807860136,,,
47.3437500000,5,-0.7687072754,,,
47.3593750000,5,-0.3100891113,,,
47.3750000000,5,0.0401916504,,,
47.3906250000,5,0.1956024021,,,
47.4062500000,5,0.1357727051,,,
47.4218750000,5,-0.0911102295,,,
47.4375000000,5,-0.4319762886,,,
47.4531250000,5,-0.8237609863,,,
47.4687500000,5,-1.2216949463,,,
47.4843750000,5,-1.5670169592,,,
47.5000000000,5,-1.7938079834,,,
47.5156250000,5,-1.8408360481,,,
47.5312500000,5,-1.6859589815,,,
47.5468750000,5,-1.3862760067,,,
47.5625000000,5,-1.0427249670,,,
47.5781250000,5,-0.7773743272,,,
47.5937500000,5,-0.6334304810,,,
47.6093750000,5,-0.5879439712,,,
47.6250000000,5,-0.5619506836,,,
47.6406250000,5,-0.4932555854,,,
47.6562500000,5,-0.3771362007,,,
47.6718750000,5,-0.2530899048,,,
47.6875000000,5,-0.1632079929,,,
47.7031250000,5,-0.1113433987,,,
47.7187500000,5,-0.0477142297,,,
47.7343750000,5,0.0921096802,,,
47.7500000000,5,0.3113861084,,,
47.7656250000,5,0.5538176894,,,
47.7812500000,5,0.6922913194,,,
47.7968750000,5,0.6395874023,,,
47.8125000000,5,0.4057388008,,,
47.8281250000,5,0.1238173991,,,
47.8437500000,5,-0.0337982215,,,
47.8593750000,5,0.0630721971,,,
47.8750000000,5,0.4004898071,,,
47.8906250000,5,0.8267517090,,,
47.9062500000,5,1.1440730095,,,
47.9218750000,5,1.2366410494,,,
47.9375000000,5,1.1185760498,,,
47.9531250000,5,0.9365081787,,,
47.9687500000,5,0.8535385132,,,
47.9843750000,5,0.9366149902,,,
48.0000000000,6,1.1015239954,,,
48.0156250000,6,1.1750559807,,,
48.0312500000,6,1.0198359489,,,
48.0468750000,6,0.6255264282,,,
48.0625000000,6,0.1667937934,,,
48.0781250000,6,-0.0894622803,,,
48.0937500000,6,0.0842971802,,,
48.1093750000,6,0.7453156114,,,
48.1250000000,6,1.7398829460,,,
48.1406250000,6,2.7637629509,,,
48.1562500000,6,3.4941940308,,,
48.1718750000,6,3.7160420418,,,
48.1875000000,6,3.3916170597,,,
48.2031250000,6,2.6454539299,,,
48.2187500000,6,1.6936340332,,,
48.2343750000,6,0.7615128160,,,
48.2500000000,6,-0.0096206674,,,
48.2656250000,6,-0.5659255981,,,
48.2812500000,6,-0.9331740737,,,
48.2968750000,6,-1.1502610445,,,
48.3125000000,6,-1.2514189482,,,
48.3281250000,6,-1.2284770012,,,
48.3437500000,6,-1.0767290592,,,
48.3593750000,6,-0.8043441772,,,
48.3750000000,6,-0.4819641113,,,
48.3906250000,6,-0.2069091946,,,
48.4062500000,6,-0.0942611694,,,
48.4218750000,6,-0.1913681030,,,
48.4375000000,6,-0.4791182876,,,
48.4531250000,6,-0.8827208877,,,
48.4687500000,6,-1.2929919958,,,
48.4843750000,6,-1.6305079460,,,
48.5000000000,6,-1.8760910034,,,
48.5156250000,6,-2.0530469418,,,
48.5312500000,6,-2.1803588867,,,
48.5468750000,6,-2.2477719784,,,
48.5625000000,6,-2.2046129704,,,
48.5781250000,6,-2.0007169247,,,
48.5937500000,6,-1.6228259802,,,
48.6093750000,6,-1.1445310116,,,
48.6250000000,6,-0.6600266099,,,
48.6406250000,6,-0.2723082900,,,
48.6562500000,6,0.0029678340,,,
48.6718750000,6,0.2311325073,,,
48.6875000000,6,0.4864577949,,,
48.7031250000,6,0.7997512817,,,
48.7187500000,6,1.0910110474,,,
48.7343750000,6,1.2242660522,,,
48.7500000000,6,1.0966800451,,,
48.7656250000,6,0.7158966064,,,
48.7812500000,6,0.2226638943,,,
48.7968750000,6,-0.1810760051,,,
48.8125000000,6,-0.3402863145,,,
48.8281250000,6,-0.2336959988,,,
48.8437500000,6,0.0498657189,,,
48.8593750000,6,0.3769150078,,,
48.8750000000,6,0.6316375732,,,
48.8906250000,6,0.7975540161,,,
48.9062500000,6,0.9142456055,,,
48.9218750000,6,1.0271379948,,,
48.9375000000,6,1.1229100227,,,
48.9531250000,6,1.1350250244,,,
48.9687500000,6,0.9801331162,,,
48.9843750000,6,0.6466292739,,,
49.0000000000,6,0.1966170967,,,
49.0156250000,6,-0.2291183025,,,
49.0312500000,6,-0.4974670112,,,
49.0468750000,6,-0.5150985718,,,
49.0625000000,6,-0.3269653022,,,
49.0781250000,6,-0.0324173011,,,
49.0937500000,6,0.2645263970,,,
49.1093750000,6,0.4551467896,,,
49.1250000000,6,0.5518798828,,,
49.1406250000,6,0.5907210708,,,
49.1562500000,6,0.6367722154,,,
49.1718750000,6,0.7183303833,,,
49.1875000000,6,0.8230895996,,,
49.2031250000,6,0.9169692993,,,
49.2187500000,6,0.9760360718,,,
49.2343750000,6,1.0135960579,,,
49.2500000000,6,1.0413210392,,,
49.2656250000,6,1.0517499447,,,
49.2812500000,6,0.9915543199,,,
49.2968750000,6,0.7926024795,,,
49.3125000000,6,0.4129944146,,,
49.3281250000,6,-0.0758361816,,,
49.3437500000,6,-0.5294342041,,,
49.3593750000,6,-0.7705230713,,,
49.3750000000,6,-0.7032393813,,,
49.3906250000,6,-0.3769989014,,,
49.4062500000,6,0.0325317383,,,
49.4218750000,6,0.3175278008,,,
49.4375000000,6,0.3687820137,,,
49.4531250000,6,0.2418975979,,,
49.4687500000,6,0.1220932007,,,
49.4843750000,6,0.1987227947,,,
49.5000000000,6,0.5518112183,,,
49.5156250000,6,1.0874329805,,,
49.5312500000,6,1.5709300041,,,
49.5468750000,6,1.8001630306,,,
49.5625000000,6,1.6683880091,,,
49.5781250000,6,1.2385640144,,,
49.5937500000,6,0.6868895888,,,
49.6093750000,6,0.1976699978,,,
49.6250000000,6,-0.1179810017,,,
49.6406250000,6,-0.2562179863,,,
49.6562500000,6,-0.2595367134,,,
49.6718750000,6,-0.1922760010,,,
49.6875000000,6,-0.0566329993,,,
49.7031250000,6,0.1523589939,,,
49.7187500000,6,0.4281845093,,,
49.7343750000,6,0.6911849976,,,
49.7500000000,6,0.8187255859,,,
49.7656250000,6,0.6846160889,,,
49.7812500000,6,0.2559508979,,,
49.7968750000,6,-0.3625411987,,,
49.8125000000,6,-1.0184329748,,,
49.8281250000,6,-1.5465699434,,,
49.8437500000,6,-1.8693920374,,,
49.8593750000,6,-1.9792629480,,,
49.8750000000,6,-1.9219820499,,,
49.8906250000,6,-1.7255940437,,,
49.9062500000,6,-1.4276119471,,,
49.9218750000,6,-1.0509799719,,,
49.9375000000,6,-0.7014846802,,,
49.9531250000,6,-0.5175399780,,,
49.9687500000,6,-0.6257858276,,,
49.9843750000,6,-1.0566790104,,,
50.0000000000,6,-1.6873400211,,,
50.0156250000,6,-2.2760620117,,,
50.0312500000,6,-2.5891110897,,,
50.0468750000,6,-2.5305941105,,,
50.0625000000,6,-2.1746749878,,,
50.0781250000,6,-1.7080609798,,,
50.0937500000,6,-1.2911380529,,,
50.1093750000,6,-0.9594498277,,,
50.1250000000,6,-0.6099547744,,,
50.1406250000,6,-0.1004638970,,,
50.1562500000,6,0.6507033706,,,
50.1718750000,6,1.5698549747,,,
50.1875000000,6,2.4619450569,,,
50.2031250000,6,3.1100690365,,,
50.2187500000,6,3.3762209415,,,
50.2343750000,6,3.2381589413,,,
50.2500000000,6,2.7922589779,,,
50.2656250000,6,2.1709139347,,,
50.2812500000,6,1.4629210234,,,
50.2968750000,6,0.7068328857,,,
50.3125000000,6,-0.0623245202,,,
50.3281250000,6,-0.7789459229,,,
50.3437500000,6,-1.3319089413,,,
50.3593750000,6,-1.5734709501,,,
50.3750000000,6,-1.4339900017,,,
50.3906250000,6,-0.9384688735,,,
50.4062500000,6,-0.2308959961,,,
50.4218750000,6,0.5062332153,,,
50.4375000000,6,1.1040500402,,,
50.4531250000,6,1.4945139885,,,
50.4687500000,6,1.6982959509,,,
50.4843750000,6,1.7438199520,,,
50.5000000000,6,1.5958559513,,,
50.5156250000,6,1.1508409977,,,
50.5312500000,6,0.3305282891,,,
50.5468750000,6,-0.8201447129,,,
50.5625000000,6,-2.0891420841,,,
50.5781250000,6,-3.1557540894,,,
50.5937500000,6,-3.7440569401,,,
50.6093750000,6,-3.7718729973,,,
50.6250000000,6,-3.3603520393,,,
50.6406250000,6,-2.7794110775,,,
50.6562500000,6,-2.2337419987,,,
50.6718750000,6,-1.7935940027,,,
50.6875000000,6,-1.3821259737,,,
50.7031250000,6,-0.9063491821,,,
50.7187500000,6,-0.3511047065,,,
50.7343750000,6,0.1458359063,,,
50.7500000000,6,0.3973312080,,,
50.7656250000,6,0.2908554077,,,
50.7812500000,6,-0.1230164021,,,
50.7968750000,6,-0.6432495117,,,
50.8125000000,6,-1.0274280310,,,
50.8281250000,6,-1.1402050257,,,
50.8437500000,6,-0.9704437256,,,
50.8593750000,6,-0.6113585830,,,
50.8750000000,6,-0.2027435005,,,
50.8906250000,6,0.1745377034,,,
50.9062500000,6,0.5027313232,,,
50.9218750000,6,0.7974625230,,,
50.9375000000,6,1.0385589600,,,
50.9531250000,6,1.1586610079,,,
50.9687500000,6,1.0967559814,,,
50.9843750000,6,0.8517990112,,,
51.0000000000,6,0.5104752183,,,
51.0156250000,6,0.2036591023,,,
51.0312500000,6,0.0270233192,,,
51.0468750000,6,-0.0135040302,,,
51.0625000000,6,-0.0165634193,,,
51.0781250000,6,-0.0956344604,,,
51.0937500000,6,-0.2829132080,,,
51.1093750000,6,-0.5032042861,,,
51.1250000000,6,-0.5780487061,,,
51.1406250000,6,-0.3924331963,,,
51.1562500000,6,0.0849609375,,,
51.1718750000,6,0.7103424072,,,
51.1875000000,6,1.3075029850,,,
51.2031250000,6,1.7047499418,,,
51.2187500000,6,1.8773119450,,,
51.2343750000,6,1.8906250000,,,
51.2500000000,6,1.8649749756,,,
51.2656250000,6,1.8526990414,,,
51.2812500000,6,1.8098750114,,,
51.2968750000,6,1.6603929996,,,
51.3125000000,6,1.3551939726,,,
51.3281250000,6,0.9372481704,,,
51.3437500000,6,0.5354766846,,,
51.3593750000,6,0.2990494072,,,
51.3750000000,6,0.2917098999,,,
51.3906250000,6,0.4643478096,,,
51.4062500000,6,0.6709899902,,,
51.4218750000,6,0.7666397095,,,
51.4375000000,6,0.6809539795,,,
51.4531250000,6,0.4321899116,,,
51.4687500000,6,0.1288681030,,,
51.4843750000,6,-0.1243515015,,,
51.5000000000,6,-0.2428818047,,,
51.5156250000,6,-0.1922606975,,,
51.5312500000,6,0.0295257606,,,
51.5468750000,6,0.3846817017,,,
51.5625000000,6,0.7754210830,,,
51.5781250000,6,1.0943299532,,,
51.5937500000,6,1.2126690149,,,
51.6093750000,6,1.0840150118,,,
51.6250000000,6,0.7817230225,,,
51.6406250000,6,0.4706726074,,,
51.6562500000,6,0.3369903862,,,
51.6718750000,6,0.4332962036,,,
51.6875000000,6,0.6667556763,,,
51.7031250000,6,0.8134155273,,,
51.7187500000,6,0.7159805298,,,
51.7343750000,6,0.3237685859,,,
51.7500000000,6,-0.2115859985,,,
51.7656250000,6,-0.6782608032,,,
51.7812500000,6,-0.9540557861,,,
51.7968750000,6,-1.0790710449,,,
51.8125000000,6,-1.2176669836,,,
51.8281250000,6,-1.5278320313,,,
51.8437500000,6,-2.0232999325,,,
51.8593750000,6,-2.5266339779,,,
51.8750000000,6,-2.7581861019,,,
51.8906250000,6,-2.4973599911,,,
51.9062500000,6,-1.7160110474,,,
51.9218750000,6,-0.6195830703,,,
51.9375000000,6,0.4347076118,,,
51.9531250000,6,1.1180649996,,,
51.9687500000,6,1.2600779533,,,
51.9843750000,6,0.8929367065,,,
52.0000000000,6,0.2461165935,,,
52.0156250000,6,-0.4148254097,,,
52.0312500000,6,-0.8576049805,,,
52.0468750000,6,-0.9951552749,,,
52.0625000000,6,-0.8952713013,,,
52.0781250000,6,-0.7233046889,,,
52.0937500000,6,-0.6576995850,,,
52.1093750000,6,-0.7939376831,,,
52.1250000000,6,-1.0760270357,,,
52.1406250000,6,-1.3460309505,,,
52.1562500000,6,-1.4126889706,,,
52.1718750000,6,-1.1713099480,,,
52.1875000000,6,-0.6630020142,,,
52.2031250000,6,-0.0709838867,,,
52.2187500000,6,0.4010238945,,,
52.2343750000,6,0.6074677110,,,
52.2500000000,6,0.5084304810,,,
52.2656250000,6,0.1625594944,,,
52.2812500000,6,-0.3293839097,,,
52.2968750000,6,-0.8756409287,,,
52.3125000000,6,-1.3801189661,,,
52.3281250000,6,-1.7222440243,,,
52.3437500000,6,-1.7625269890,,,
52.3593750000,6,-1.3597029448,,,
52.3750000000,6,-0.4760132134,,,
52.3906250000,6,0.7757567763,,,
52.4062500000,6,2.1487050056,,,
52.4218750000,6,3.3556749821,,,
52.4375000000,6,4.1632308960,,,
52.4531250000,6,4.4995570183,,,
52.4687500000,6,4.4385151863,,,
52.4843750000,6,4.1164321899,,,
52.5000000000,6,3.6366500854,,,
52.5156250000,6,3.0270540714,,,
52.5312500000,6,2.2665710449,,,
52.5468750000,6,1.3617630005,,,
52.5625000000,6,0.3915176094,,,
52.5781250000,6,-0.4939346015,,,
52.5937500000,6,-1.1142040491,,,
52.6093750000,6,-1.3839570284,,,
52.6250000000,6,-1.3204729557,,,
52.6406250000,6,-1.0554349422,,,
52.6562500000,6,-0.7426146865,,,
52.6718750000,6,-0.4992142022,,,
52.6875000000,6,-0.3546294868,,,
52.7031250000,6,-0.2841948867,,,
52.7187500000,6,-0.2519454956,,,
52.7343750000,6,-0.2338638008,,,
52.7500000000,6,-0.2230834961,,,
52.7656250000,6,-0.2299499959,,,
52.7812500000,6,-0.2350540012,,,
52.7968750000,6,-0.2260742038,,,
52.8125000000,6,-0.1878509969,,,
52.8281250000,6,-0.1064606011,,,
52.8437500000,6,0.0204696693,,,
52.8593750000,6,0.2252350003,,,
52.8750000000,6,0.5265502930,,,
52.8906250000,6,0.9231566787,,,
52.9062500000,6,1.3587269783,,,
52.9218750000,6,1.7353290319,,,
52.9375000000,6,1.9241490364,,,
52.9531250000,6,1.8291929960,,,
52.9687500000,6,1.4063639641,,,
52.9843750000,6,0.7185363770,,,
53.0000000000,6,-0.1090926975,,,
53.0156250000,6,-0.9319915771,,,
53.0312500000,6,-1.6324839592,,,
53.0468750000,6,-2.1440351009,,,
53.0625000000,6,-2.4820630550,,,
53.0781250000,6,-2.6958849430,,,
53.0937500000,6,-2.8235321045,,,
53.1093750000,6,-2.8639369011,,,
53.1250000000,6,-2.7758030891,,,
53.1406250000,6,-2.5351560116,,,
53.1562500000,6,-2.1624069214,,,
53.1718750000,6,-1.7533949614,,,
53.1875000000,6,-1.4241709709,,,
53.2031250000,6,-1.2679599524,,,
53.2187500000,6,-1.2801820040,,,
53.2343750000,6,-1.3673249483,,,
53.2500000000,6,-1.3868709803,,,
53.2656250000,6,-1.2370680571,,,
53.2812500000,6,-0.9071198106,,,
53.2968750000,6,-0.4638290107,,,
53.3125000000,6,-0.0063095088,,,
53.3281250000,6,0.4092636108,,,
53.3437500000,6,0.7656173706,,,
53.3593750000,6,1.0918810368,,,
53.3750000000,6,1.4094239473,,,
53.3906250000,6,1.7236330509,,,
53.4062500000,6,1.9921419621,,,
53.4218750000,6,2.1795649529,,,
53.4375000000,6,2.2504351139,,,
53.4531250000,6,2.2133409977,,,
53.4687500000,6,2.0870289803,,,
53.4843750000,6,1.9125750065,,,
53.5000000000,6,1.7150419950,,,
53.5156250000,6,1.5023959875,,,
53.5312500000,6,1.2720489502,,,
53.5468750000,6,1.0406650305,,,
53.5625000000,6,0.8312988281,,,
53.5781250000,6,0.6963195801,,,
53.5937500000,6,0.6502532959,,,
53.6093750000,6,0.6508789063,,,
53.6250000000,6,0.6359786987,,,
53.6406250000,6,0.5178070068,,,
53.6562500000,6,0.2471770942,,,
53.6718750000,6,-0.1725310981,,,
53.6875000000,6,-0.6626433730,,,
53.7031250000,6,-1.1016620398,,,
53.7187500000,6,-1.3559110165,,,
53.7343750000,6,-1.3414460421,,,
53.7500000000,6,-1.0904920101,,,
53.7656250000,6,-0.7414168715,,,
53.7812500000,6,-0.5028380752,,,
53.7968750000,6,-0.5602797866,,,
53.8125000000,6,-0.9714279175,,,
53.8281250000,6,-1.6449970007,,,
53.8437500000,6,-2.3399510384,,,
53.8593750000,6,-2.7955019474,,,
53.8750000000,6,-2.8214340210,,,
53.8906250000,6,-2.3811419010,,,
53.9062500000,6,-1.5945659876,,,
53.9218750000,6,-0.6717987061,,,
53.9375000000,6,0.1631622016,,,
53.9531250000,6,0.7653198242,,,
53.9687500000,6,1.0979770422,,,
53.9843750000,6,1.1908799410,,,
54.0000000000,6,1.0987240076,,,
54.0156250000,6,0.8686522841,,,
54.0312500000,6,0.5083770752,33025,54.0312500000,0.0000000000
54.0468750000,6,0.0509796105,,,
54.0625000000,6,-0.4722976983,,,
54.0781250000,6,-0.9664993286,,,
54.0937500000,6,-1.2853850126,,,
54.1093750000,6,-1.3009109497,,,
54.1250000000,6,-0.9401320815,33024,54.1250000000,0.0000000000
54.1406250000,6,-0.2692719102,,,
54.1562500000,6,0.5229874253,,,
54.1718750000,6,1.1967159510,,,
54.1875000000,6,1.5758670568,,,
54.2031250000,6,1.5854029655,,,
54.2187500000,6,1.2784880400,,,
54.2343750000,6,0.7852706909,,,
54.2500000000,6,0.2494353950,,,
54.2656250000,6,-0.2256775051,,,
54.2812500000,6,-0.5902481079,,,
54.2968750000,6,-0.8333740234,,,
54.3125000000,6,-0.9443358779,,,
54.3281250000,6,-0.9189528823,,,
54.3437500000,6,-0.7470244765,,,
54.3593750000,6,-0.4175109863,,,
54.3750000000,6,0.0261917096,,,
54.3906250000,6,0.5263214111,,,
54.4062500000,6,0.9874191284,,,
54.4218750000,6,1.3302229643,,,
54.4375000000,6,1.5031199455,,,
54.4531250000,6,1.5144040585,,,
54.4687500000,6,1.4080280066,,,
54.4843750000,6,1.2608029842,,,
54.5000000000,6,1.1554950476,,,
54.5156250000,6,1.1300129890,,,
54.5312500000,6,1.1961979866,,,
54.5468750000,6,1.3097000122,,,
54.5625000000,6,1.3874889612,,,
54.5781250000,6,1.3505710363,,,
54.5937500000,6,1.1437449455,,,
54.6093750000,6,0.7399749756,,,
54.6250000000,6,0.1890258938,,,
54.6406250000,6,-0.4260559082,,,
54.6562500000,6,-1.0036770105,,,
54.6718750000,6,-1.4796680212,,,
54.6875000000,6,-1.7860640287,,,
54.7031250000,6,-1.8930130005,,,
54.7187500000,6,-1.7692339420,,,
54.7343750000,6,-1.4153519869,,,
54.7500000000,6,-0.8749846816,,,
54.7656250000,6,-0.2474517971,,,
54.7812500000,6,0.3005295098,,,
54.7968750000,6,0.6288452148,,,
54.8125000000,6,0.6491776109,,,
54.8281250000,6,0.3919678032,,,
54.8437500000,6,-0.0057601929,,,
54.8593750000,6,-0.3254165947,,,
54.8750000000,6,-0.4088745117,,,
54.8906250000,6,-0.2196197957,,,
54.9062500000,6,0.1149367988,,,
54.9218750000,6,0.3873595893,,,
54.9375000000,6,0.3831177056,,,
54.9531250000,6,0.0532074012,,,
54.9687500000,6,-0.4797821045,,,
54.9843750000,6,-0.9651566148,,,
55.0000000000,6,-1.1412279606,,,
55.0156250000,6,-0.9468688965,,,
55.0312500000,6,-0.4886398017,,,
55.0468750000,6,-0.0270004291,,,
55.0625000000,6,0.1788329929,,,
55.0781250000,6,0.0523986816,,,
55.0937500000,6,-0.2901993096,,,
55.1093750000,6,-0.6145554185,,,
55.1250000000,6,-0.6860733032,,,
55.1406250000,6,-0.4371719062,,,
55.1562500000,6,0.0369415283,,,
55.1718750000,6,0.5331345201,,,
55.1875000000,6,0.8786469102,,,
55.2031250000,6,1.0027159452,,,
55.2187500000,6,0.9407501221,,,
55.2343750000,6,0.7932739258,,,
55.2500000000,6,0.6391983032,,,
55.2656250000,6,0.4858703911,,,
55.2812500000,6,0.2654877007,,,
55.2968750000,6,-0.0767669678,,,
55.3125000000,6,-0.5439301133,,,
55.3281250000,6,-1.0274809599,,,
55.3437500000,6,-1.3542939425,,,
55.3593750000,6,-1.3436280489,,,
55.3750000000,6,-0.9101638794,,,
55.3906250000,6,-0.1182250977,,,
55.4062500000,6,0.8414688110,,,
55.4218750000,6,1.7420730591,,,
55.4375000000,6,2.4031069279,,,
55.4531250000,6,2.7739410400,,,
55.4687500000,6,2.9195559025,,,
55.4843750000,6,2.9317629337,,,
55.5000000000,6,2.8652269840,,,
55.5156250000,6,2.6721119881,,,
55.5312500000,6,2.2507019043,,,
55.5468750000,6,1.5482709408,,,
55.5625000000,6,0.6147919297,,,
55.5781250000,6,-0.3635177910,,,
55.5937500000,6,-1.1287989616,,,
55.6093750000,6,-1.4854810238,,,
55.6250000000,6,-1.3875579834,,,
55.6406250000,6,-0.9819716811,,,
55.6562500000,6,-0.5145874023,,,
55.6718750000,6,-0.2352142036,,,
55.6875000000,6,-0.2562102973,,,
55.7031250000,6,-0.5412445068,,,
55.7187500000,6,-0.9452437758,,,
55.7343750000,6,-1.3038940430,,,
55.7500000000,6,-1.5492169857,,,
55.7656250000,6,-1.7077330351,,,
55.7812500000,6,-1.8855739832,,,
55.7968750000,6,-2.1619420052,,,
55.8125000000,6,-2.5442430973,,,
55.8281250000,6,-2.9286880493,,,
55.8437500000,6,-3.1625521183,,,
55.8593750000,6,-3.1137390137,,,
55.8750000000,6,-2.7215809822,,,
55.8906250000,6,-2.0181050301,,,
55.9062500000,6,-1.1062320471,,,
55.9218750000,6,-0.0970687866,,,
55.9375000000,6,0.8771591187,,,
55.9531250000,6,1.7178729773,,,
55.9687500000,6,2.3440630436,,,
55.9843750000,6,2.7160420418,,,
56.0000000000,7,2.8348619938,,,
56.0156250000,7,2.7475509644,,,
56.0312500000,7,2.5213549137,,,
56.0468750000,7,2.2413480282,,,
56.0625000000,7,1.9585109949,,,
56.0781250000,7,1.7058559656,,,
56.0937500000,7,1.4923019409,,,
