Time:64Hz,Epoch,Channel 1,Event Id,Event Date,Event Duration
0.0000000000,0,-0.4917831123,,,
0.0156250000,0,-0.3018569946,,,
0.0312500000,0,-0.1920471042,,,
0.0468750000,0,-0.0921173096,,,
0.0625000000,0,0.0748214722,,,
0.0781250000,0,0.3721236885,,,
0.0937500000,0,0.7703322768,,,
0.1093750000,0,1.1758500338,,,
0.1250000000,0,1.4370959997,,,
0.1406250000,0,1.4359740019,,,
0.1562500000,0,1.1691509485,,,
0.1718750000,0,0.7427825928,,,
0.1875000000,0,0.3329772949,,,
0.2031250000,0,0.1055907980,,,
0.2187500000,0,0.1360168010,,,
0.2343750000,0,0.3736191094,,,
0.2500000000,0,0.7111511230,,,
0.2656250000,0,1.0097960234,,,
0.2812500000,0,1.1910929680,,,
0.2968750000,0,1.2217940092,,,
0.3125000000,0,1.1225810051,,,
0.3281250000,0,0.9131621718,,,
0.3437500000,0,0.6175460815,,,
0.3593750000,0,0.2753753960,,,
0.3750000000,0,-0.0748748779,,,
0.3906250000,0,-0.3656539917,,,
0.4062500000,0,-0.5241776109,,,
0.4218750000,0,-0.4991073906,,,
0.4375000000,0,-0.2980042100,,,
0.4531250000,0,0.0054321289,,,
0.4687500000,0,0.2834090889,,,
0.4843750000,0,0.4037551880,,,
0.5000000000,0,0.3061447144,,,
0.5156250000,0,0.0424270593,,,
0.5312500000,0,-0.2384719998,,,
0.5468750000,0,-0.3730239868,,,
0.5625000000,0,-0.2951813042,,,
0.5781250000,0,-0.0542526208,,,
0.5937500000,0,0.1901244968,,,
0.6093750000,0,0.3053435981,,,
0.6250000000,0,0.2527999878,,,
0.6406250000,0,0.1240004972,,,
0.6562500000,0,0.0630340576,,,
0.6718750000,0,0.1753997952,,,
0.6875000000,0,0.4272536933,,,
0.7031250000,0,0.6879578233,,,
0.7187500000,0,0.8180999756,,,
0.7343750000,0,0.7603989244,,,
0.7500000000,0,0.5737305284,,,
0.7656250000,0,0.3601455986,,,
0.7812500000,0,0.2084960938,,,
0.7968750000,0,0.1182326972,,,
0.8125000000,0,0.0479965210,,,
0.8281250000,0,-0.0489654504,,,
0.8437500000,0,-0.1514969021,,,
0.8593750000,0,-0.1928406060,,,
0.8750000000,0,-0.1039810032,,,
0.8906250000,0,0.1248473972,,,
0.9062500000,0,0.4206160903,,,
0.9218750000,0,0.6618041992,,,
0.9375000000,0,0.7371826172,,,
0.9531250000,0,0.6022415161,,,
0.9687500000,0,0.2672728896,,,
0.9843750000,0,-0.1972808987,,,
1.0000000000,0,-0.6698380113,,,
1.0156250000,0,-1.0408250093,,,
1.0312500000,0,-1.2116390467,,,
1.0468750000,0,-1.1418299675,,,
1.0625000000,0,-0.8544921875,,,
1.0781250000,0,-0.4425658882,,,
1.0937500000,0,-0.0414962806,,,
1.1093750000,0,0.2307891995,,,
1.1250000000,0,0.3105086982,,,
1.1406250000,0,0.2147980034,,,
1.1562500000,0,0.0075225830,,,
1.1718750000,0,-0.2145615071,,,
1.1875000000,0,-0.3881911933,,,
1.2031250000,0,-0.4964447021,,,
1.2187500000,0,-0.5698928833,,,
1.2343750000,0,-0.6330565810,,,
1.2500000000,0,-0.7004241943,,,
1.2656250000,0,-0.7570952773,,,
1.2812500000,0,-0.7836685181,,,
1.2968750000,0,-0.7737885118,,,
1.3125000000,0,-0.7412338257,,,
1.3281250000,0,-0.7099074721,,,
1.3437500000,0,-0.6931610107,,,
1.3593750000,0,-0.7013931274,,,
1.3750000000,0,-0.7147064209,,,
1.3906250000,0,-0.7222977281,,,
1.4062500000,0,-0.7044373155,,,
1.4218750000,0,-0.6549605727,,,
1.4375000000,0,-0.5711669922,,,
1.4531250000,0,-0.4480667114,,,
1.4687500000,0,-0.3042145073,,,
1.4843750000,0,-0.1784362942,,,
1.5000000000,0,-0.1032103971,,,
1.5156250000,0,-0.1027756035,,,
1.5312500000,0,-0.1556853950,,,
1.5468750000,0,-0.2266921997,,,
1.5625000000,0,-0.2541579902,,,
1.5781250000,0,-0.1918715984,,,
1.5937500000,0,-0.0358505212,,,
1.6093750000,0,0.1933059990,,,
1.6250000000,0,0.4631347954,,,
1.6406250000,0,0.7348480225,,,
1.6562500000,0,0.9791870117,,,
1.6718750000,0,1.1675189734,,,
1.6875000000,0,1.2642140388,,,
1.7031250000,0,1.2404630184,,,
1.7187500000,0,1.0848079920,,,
1.7343750000,0,0.8173676133,,,
1.7500000000,0,0.4897308052,,,
1.7656250000,0,0.1665802002,,,
1.7812500000,0,-0.1072693020,,,
1.7968750000,0,-0.3075638115,,,
1.8125000000,0,-0.4372025132,,,
1.8281250000,0,-0.4962997139,,,
1.8437500000,0,-0.4683913887,,,
1.8593750000,0,-0.3290024102,,,
1.8750000000,0,-0.0423583984,,,
1.8906250000,0,0.3629378974,,,
1.9062500000,0,0.8158493042,,,
1.9218750000,0,1.1882170439,,,
1.9375000000,0,1.3646240234,,,
1.9531250000,0,1.3011779785,,,
1.9687500000,0,1.0517040491,,,
1.9843750000,0,0.7474135756,,,
2.0000000000,0,0.5416030884,,,
2.0156250000,0,0.4997634888,,,
2.0312500000,0,0.6006699204,,,
2.0468750000,0,0.7231978774,,,
2.0625000000,0,0.7321547866,,,
2.0781250000,0,0.5575333238,,,
2.0937500000,0,0.2428130955,,,
2.1093750000,0,-0.0960159302,,,
2.1250000000,0,-0.3185882866,,,
2.1406250000,0,-0.2486190945,,,
2.1562500000,0,-0.0530471802,,,
2.1718750000,0,0.1257095039,,,
2.1875000000,0,0.2342147976,,,
2.2031250000,0,0.2806853950,,,
2.2187500000,0,0.3016662896,,,
2.2343750000,0,0.3299103081,,,
2.2500000000,0,0.3751525879,,,
2.2656250000,0,0.4078598022,,,
2.2812500000,0,0.3866347969,,,
2.2968750000,0,0.2670212090,,,
2.3125000000,0,0.0221328698,,,
2.3281250000,0,-0.3422012031,,,
2.3437500000,0,-0.7967987061,,,
2.3593750000,0,-1.2910840511,,,
2.3750000000,0,-1.7551269531,,,
2.3906250000,0,-2.1101000309,,,
2.4062500000,0,-2.2824020386,,,
2.4218750000,0,-2.2414779663,,,
2.4375000000,0,-2.0002140999,,,
2.4531250000,0,-1.6063539982,,,
2.4687500000,0,-1.1390529871,,,
2.4843750000,0,-0.6619033813,,,
2.5000000000,0,-0.2637633979,,,
2.5156250000,0,-0.0156784095,,,
2.5312500000,0,0.0203018207,,,
2.5468750000,0,-0.1619797051,,,
2.5625000000,0,-0.5153579712,,,
2.5781250000,0,-0.9085845947,,,
2.5937500000,0,-1.1882859468,,,
2.6093750000,0,-1.2374650240,,,
2.6250000000,0,-1.0531690121,,,
2.6406250000,0,-0.7453842163,,,
2.6562500000,0,-0.4647063911,,,
2.6718750000,0,-0.3399963081,,,
2.6875000000,0,-0.3793182075,,,
2.7031250000,0,-0.4781951904,,,
2.7187500000,0,-0.4760895073,,,
2.7343750000,0,-0.2685852051,,,
2.7500000000,0,0.1421432048,,,
2.7656250000,0,0.6366577148,,,
2.7812500000,0,1.0545879602,,,
2.7968750000,0,1.3044359684,,,
2.8125000000,0,1.3842010498,,,
2.8281250000,0,1.3746639490,,,
2.8437500000,0,1.3652950525,,,
2.8593750000,0,1.3893740177,,,
2.8750000000,0,1.4195859432,,,
2.8906250000,0,1.3871229887,,,
2.9062500000,0,1.2691730261,,,
2.9218750000,0,1.0997619629,,,
2.9375000000,0,0.9695662856,,,
2.9531250000,0,0.9587172866,,,
2.9687500000,0,1.0639649630,,,
2.9843750000,0,1.2043910027,,,
3.0000000000,0,1.2184829712,,,
3.0156250000,0,0.9773635864,,,
3.0312500000,0,0.4470900893,,,
3.0468750000,0,-0.2636413872,,,
3.0625000000,0,-0.9615554810,,,
3.0781250000,0,-1.4679410458,,,
3.0937500000,0,-1.6852190495,,,
3.1093750000,0,-1.6414870024,,,
3.1250000000,0,-1.4575350285,,,
3.1406250000,0,-1.2522200346,,,
3.1562500000,0,-1.0881040096,,,
3.1718750000,0,-0.9846953750,,,
3.1875000000,0,-0.9556961060,,,
3.2031250000,0,-1.0539859533,,,
3.2187500000,0,-1.3498990536,,,
3.2343750000,0,-1.8580629826,,,
3.2500000000,0,-2.4770359993,,,
3.2656250000,0,-3.0176239014,,,
3.2812500000,0,-3.3109889030,,,
3.2968750000,0,-3.2963559628,,,
3.3125000000,0,-3.1044619083,,,
3.3281250000,0,-2.9895169735,,,
3.3437500000,0,-3.1947100163,,,
3.3593750000,0,-3.8280560970,,,
3.3750000000,0,-4.8057627678,,,
3.3906250000,0,-5.9064249992,,,
3.4062500000,0,-6.8883361816,,,
3.4218750000,0,-7.6186599731,,,
3.4375000000,0,-8.0764694214,,,
3.4531250000,0,-8.3341064453,,,
3.4687500000,0,-8.4826126099,,,
3.4843750000,0,-8.5473709106,,,
3.5000000000,0,-8.4867782593,,,
3.5156250000,0,-8.1886224747,,,
3.5312500000,0,-7.5369567871,,,
3.5468750000,0,-6.4483571053,,,
3.5625000000,0,-4.9319458008,,,
3.5781250000,0,-3.0843510628,,,
3.5937500000,0,-1.0871200562,,,
3.6093750000,0,0.8608016968,,,
3.6250000000,0,2.5727689266,,,
3.6406250000,0,3.9018630981,,,
3.6562500000,0,4.7676930428,,,
3.6718750000,0,5.1730117798,,,
3.6875000000,0,5.2344818115,,,
3.7031250000,0,5.1703720093,,,
3.7187500000,0,5.2488780022,,,
3.7343750000,0,5.6854481697,,,
3.7500000000,0,6.5288162231,,,
3.7656250000,0,7.6195139885,,,
3.7812500000,0,8.6336898804,,,
3.7968750000,0,9.2467041016,,,
3.8125000000,0,9.2668075562,,,
3.8281250000,0,8.7126693726,,,
3.8437500000,0,7.7838358879,,,
3.8593750000,0,6.7583389282,,,
3.8750000000,0,5.8636250496,,,
3.8906250000,0,5.1924819946,,,
3.9062500000,0,4.7171249390,,,
3.9218750000,0,4.3368840218,,,
3.9375000000,0,3.9666519165,,,
3.9531250000,0,3.5789721012,,,
3.9687500000,0,3.2163391113,,,
3.9843750000,0,2.9442288876,,,
4.0000000000,0,2.8102340698,,,
4.0156250000,0,2.8050079346,,,
4.0312500000,0,2.8521349430,,,
4.0468750000,0,2.8519129753,,,
4.0625000000,0,2.7065279484,,,
4.0781250000,0,2.4000630379,,,
4.0937500000,0,1.9924319983,,,
4.1093750000,0,1.5967710018,,,
4.1250000000,0,1.3219449520,,,
4.1406250000,0,1.1906429529,,,
4.1562500000,0,1.1262279749,,,
4.1718750000,0,0.9945678711,,,
4.1875000000,0,0.6902008057,,,
4.2031250000,0,0.1810532063,,,
4.2187500000,0,-0.4657287896,,,
4.2343750000,0,-1.1108249426,,,
4.2500000000,0,-1.5917969942,,,
4.2656250000,0,-1.8035739660,,,
4.2812500000,0,-1.7075959444,,,
4.2968750000,0,-1.3508379459,,,
4.3125000000,0,-0.8295059204,,,
4.3281250000,0,-0.2704314888,,,
4.3437500000,0,0.1840744019,,,
4.3593750000,0,0.4343872070,,,
4.3750000000,0,0.4322127998,,,
4.3906250000,0,0.2191925049,,,
4.4062500000,0,-0.1019058004,,,
4.4218750000,0,-0.3882674873,,,
4.4375000000,0,-0.5167847276,,,
4.4531250000,0,-0.4520111084,,,
4.4687500000,0,-0.2232590020,,,
4.4843750000,0,0.0823211670,,,
4.5000000000,0,0.3854827881,,,
4.5156250000,0,0.6337738037,,,
4.5312500000,0,0.8089752197,,,
4.5468750000,0,0.9215775132,,,
4.5625000000,0,0.9706649780,,,
4.5781250000,0,0.9795914292,,,
4.5937500000,0,0.9897537231,,,
4.6093750000,0,1.0562820435,,,
4.6250000000,0,1.2041319609,,,
4.6406250000,0,1.4060130119,,,
4.6562500000,0,1.5966869593,,,
4.6718750000,0,1.7115550041,,,
4.6875000000,0,1.7508620024,,,
4.7031250000,0,1.7824939489,,,
4.7187500000,0,1.8745499849,,,
4.7343750000,0,2.0210189819,,,
4.7500000000,0,2.1050341129,,,
4.7656250000,0,1.9639509916,,,
4.7812500000,0,1.4954149723,,,
4.7968750000,0,0.7430419922,,,
4.8125000000,0,-0.1006011963,,,
4.8281250000,0,-0.8037949204,,,
4.8437500000,0,-1.2304840088,,,
4.8593750000,0,-1.3846969604,,,
4.8750000000,0,-1.3898160458,,,
4.8906250000,0,-1.3463129997,,,
4.9062500000,0,-1.2947460413,,,
4.9218750000,0,-1.1858669519,,,
4.9375000000,0,-0.9689254761,,,
4.9531250000,0,-0.6835631728,,,
4.9687500000,0,-0.4381026924,,,
4.9843750000,0,-0.3637466133,,,
5.0000000000,0,-0.5199738145,,,
5.0156250000,0,-0.8381804824,,,
5.0312500000,0,-1.1862490177,,,
5.0468750000,0,-1.4202580452,,,
5.0625000000,0,-1.4806139469,,,
5.0781250000,0,-1.3958439827,,,
5.0937500000,0,-1.2603679895,,,
5.1093750000,0,-1.1601870060,,,
5.1250000000,0,-1.1345289946,,,
5.1406250000,0,-1.1717909575,,,
5.1562500000,0,-1.2256089449,,,
5.1718750000,0,-1.2675249577,,,
5.1875000000,0,-1.2847900391,,,
5.2031250000,0,-1.2816090584,,,
5.2187500000,0,-1.2850040197,,,
5.2343750000,0,-1.2984770536,,,
5.2500000000,0,-1.3264620304,,,
5.2656250000,0,-1.3618930578,,,
5.2812500000,0,-1.4072949886,,,
5.2968750000,0,-1.4557039738,,,
5.3125000000,0,-1.4890060425,,,
5.3281250000,0,-1.4638439417,,,
5.3437500000,0,-1.3433840275,,,
5.3593750000,0,-1.1045000553,,,
5.3750000000,0,-0.7799987793,,,
5.3906250000,0,-0.4324341118,,,
5.4062500000,0,-0.1491089016,,,
5.4218750000,0,0.0392150916,,,
5.4375000000,0,0.1601638943,,,
5.4531250000,0,0.2609634101,,,
5.4687500000,0,0.4074477851,,,
5.4843750000,0,0.6079483032,,,
5.5000000000,0,0.8138579726,,,
5.5156250000,0,0.9659805298,,,
5.5312500000,0,1.0118939877,,,
5.5468750000,0,0.9380797744,,,
5.5625000000,0,0.7612075806,,,
5.5781250000,0,0.5048599243,,,
5.5937500000,0,0.1794357002,,,
5.6093750000,0,-0.2029114068,,,
5.6250000000,0,-0.6095581055,,,
5.6406250000,0,-0.9670562744,,,
5.6562500000,0,-1.1820529699,,,
5.6718750000,0,-1.1999590397,,,
5.6875000000,0,-1.0476000309,,,
5.7031250000,0,-0.8160324097,,,
5.7187500000,0,-0.6313552856,,,
5.7343750000,0,-0.5689240098,,,
5.7500000000,0,-0.6211928725,,,
5.7656250000,0,-0.7225571275,,,
5.7812500000,0,-0.7922440171,,,
5.7968750000,0,-0.7869644165,,,
5.8125000000,0,-0.6991577148,,,
5.8281250000,0,-0.5398864746,,,
5.8437500000,0,-0.3263702095,,,
5.8593750000,0,-0.0806961134,,,
5.8750000000,0,0.1803206950,,,
5.8906250000,0,0.4308395088,,,
5.9062500000,0,0.6462708116,,,
5.9218750000,0,0.8231812119,,,
5.9375000000,0,0.9829558730,,,
5.9531250000,0,1.1336820126,,,
5.9687500000,0,1.2700580359,,,
5.9843750000,0,1.3334579468,,,
6.0000000000,0,1.2373889685,,,
6.0156250000,0,0.9265747070,,,
6.0312500000,0,0.4156418145,,,
6.0468750000,0,-0.1902924031,,,
6.0625000000,0,-0.7231522202,,,
6.0781250000,0,-1.0316699743,,,
6.0937500000,0,-1.0545120239,,,
6.1093750000,0,-0.8355941772,,,
6.1250000000,0,-0.5067902207,,,
6.1406250000,0,-0.2337341011,,,
6.1562500000,0,-0.1367644966,,,
6.1718750000,0,-0.2534331977,,,
6.1875000000,0,-0.5248641968,,,
6.2031250000,0,-0.8331832886,,,
6.2187500000,0,-1.0596690178,,,
6.2343750000,0,-1.1427839994,,,
6.2500000000,0,-1.1066590548,,,
6.2656250000,0,-1.0291980505,,,
6.2812500000,0,-0.9779509902,,,
6.2968750000,0,-0.9511107802,,,
6.3125000000,0,-0.8985518813,,,
6.3281250000,0,-0.7384567261,,,
6.3437500000,0,-0.4369964898,,,
6.3593750000,0,-0.0554656982,,,
6.3750000000,0,0.2865523994,,,
6.3906250000,0,0.4581756890,,,
6.4062500000,0,0.4027481079,,,
6.4218750000,0,0.1526488960,,,
6.4375000000,0,-0.1751555949,,,
6.4531250000,0,-0.4556274116,,,
6.4687500000,0,-0.6083449721,,,
6.4843750000,0,-0.6202086806,,,
6.5000000000,0,-0.5254364014,,,
6.5156250000,0,-0.3712539971,,,
6.5312500000,0,-0.1865233928,,,
6.5468750000,0,0.0247726403,,,
6.5625000000,0,0.2617568970,,,
6.5781250000,0,0.5136718750,,,
6.5937500000,0,0.7481232285,,,
6.6093750000,0,0.9352493286,,,
6.6250000000,0,1.0597989559,,,
6.6406250000,0,1.1127849817,,,
6.6562500000,0,1.0951609612,,,
6.6718750000,0,1.0224759579,,,
6.6875000000,0,0.9488143921,,,
6.7031250000,0,0.9649962783,,,
6.7187500000,0,1.1671680212,,,
6.7343750000,0,1.5989760160,,,
6.7500000000,0,2.2005770206,,,
6.7656250000,0,2.8044819832,,,
6.7812500000,0,3.1760709286,,,
6.7968750000,0,3.1683878899,,,
6.8125000000,0,2.7447130680,,,
6.8281250000,0,2.0365679264,,,
6.8437500000,0,1.2548680305,,,
6.8593750000,0,0.5868682861,,,
6.8750000000,0,0.1333923042,,,
6.8906250000,0,-0.1164627001,,,
6.9062500000,0,-0.2174835056,,,
6.9218750000,0,-0.2348403931,,,
6.9375000000,0,-0.1978148967,,,
6.9531250000,0,-0.1122971028,,,
6.9687500000,0,-0.0092010498,,,
6.9843750000,0,0.0509872399,,,
7.0000000000,0,0.0171890296,,,
7.0156250000,0,-0.1214827970,,,
7.0312500000,0,-0.3352966011,,,
7.0468750000,0,-0.5601500869,,,
7.0625000000,0,-0.7409058213,,,
7.0781250000,0,-0.8535767198,,,
7.0937500000,0,-0.8774337769,,,
7.1093750000,0,-0.8046035767,,,
7.1250000000,0,-0.6340714097,,,
7.1406250000,0,-0.3754043877,,,
7.1562500000,0,-0.0728683472,,,
7.1718750000,0,0.1906432956,,,
7.1875000000,0,0.3507843018,,,
7.2031250000,0,0.3801116943,,,
7.2187500000,0,0.2981643975,,,
7.2343750000,0,0.1453399956,,,
7.2500000000,0,-0.0442199707,,,
7.2656250000,0,-0.2435684055,,,
7.2812500000,0,-0.4104233086,,,
7.2968750000,0,-0.4580307007,,,
7.3125000000,0,-0.3129653931,,,
7.3281250000,0,0.0222778302,,,
7.3437500000,0,0.3879776001,,,
7.3593750000,0,0.5259323120,,,
7.3750000000,0,0.2212066948,,,
7.3906250000,0,-0.5396347046,,,
7.4062500000,0,-1.5000690222,,,
7.4218750000,0,-2.2455220222,,,
7.4375000000,0,-2.4552149773,,,
7.4531250000,0,-2.0671689510,,,
7.4687500000,0,-1.3232189417,,,
7.4843750000,0,-0.5870208740,,,
7.5000000000,0,-0.1043549031,,,
7.5156250000,0,0.1226273030,,,
7.5312500000,0,0.2852019966,,,
7.5468750000,0,0.5780181885,,,
7.5625000000,0,1.0142749548,,,
7.5781250000,0,1.3935470581,,,
7.5937500000,0,1.4813460112,,,
7.6093750000,0,1.1874539852,,,
7.6250000000,0,0.6590117812,,,
7.6406250000,0,0.1949615031,,,
7.6562500000,0,0.0581970215,,,
7.6718750000,0,0.2946014106,,,
7.6875000000,0,0.7072371840,,,
7.7031250000,0,0.9966887832,,,
7.7187500000,0,0.9183502197,,,
7.7343750000,0,0.4516372979,,,
7.7500000000,0,-0.2194900960,,,
7.7656250000,0,-0.8279190063,,,
7.7812500000,0,-1.1546549797,,,
7.7968750000,0,-1.1386719942,,,
7.8125000000,0,-0.8716431260,,,
7.8281250000,0,-0.5102996826,,,
7.8437500000,0,-0.1921309978,,,
7.8593750000,0,0.0268173199,,,
7.8750000000,0,0.1665572971,,,
7.8906250000,0,0.2756499946,,,
7.9062500000,0,0.3734206855,,,
7.9218750000,0,0.4244079888,,,
7.9375000000,0,0.3558121026,,,
7.9531250000,0,0.1134871989,,,
7.9687500000,0,-0.2979660034,,,
7.9843750000,0,-0.7709121704,,,
8.0000000000,1,-1.1409300566,,,
8.0156250000,1,-1.2560579777,,,
8.0312500000,1,-1.0672910213,,,
8.0468750000,1,-0.6477965713,,,
8.0625000000,1,-0.1703872979,,,
8.0781250000,1,0.1808777004,,,
8.0937500000,1,0.3284302056,,,
8.1093750000,1,0.3043670952,,,
8.1250000000,1,0.2385711968,,,
8.1406250000,1,0.2468796074,,,
8.1562500000,1,0.3703536987,,,
8.1718750000,1,0.5578765869,,,
8.1875000000,1,0.7037429810,,,
8.2031250000,1,0.7461853027,,,
8.2187500000,1,0.6719130874,,,
8.2343750000,1,0.5301818848,,,
8.2500000000,1,0.3499602973,,,
8.2656250000,1,0.1218566969,,,
8.2812500000,1,-0.1971282959,,,
8.2968750000,1,-0.6351088881,,,
8.3125000000,1,-1.1486890316,,,
8.3281250000,1,-1.6413350105,,,
8.3437500000,1,-1.9826350212,,,
8.3593750000,1,-2.0972290039,,,
8.3750000000,1,-1.9985959530,,,
8.3906250000,1,-1.7639240026,,,
8.4062500000,1,-1.4792790413,,,
8.4218750000,1,-1.2052990198,,,
8.4375000000,1,-0.9419326782,,,
8.4531250000,1,-0.6550902724,,,
8.4687500000,1,-0.3215256035,,,
8.4843750000,1,0.0483550988,,,
8.5000000000,1,0.3808211982,,,
8.5156250000,1,0.5762634277,,,
8.5312500000,1,0.5560073853,,,
8.5468750000,1,0.3085480034,,,
8.5625000000,1,-0.0834350586,,,
8.5781250000,1,-0.4755325019,,,
8.5937500000,1,-0.6930007935,,,
8.6093750000,1,-0.6317520142,,,
8.6250000000,1,-0.2962112129,,,
8.6406250000,1,0.2016754001,,,
8.6562500000,1,0.6967697144,,,
8.6718750000,1,1.0644379854,,,
8.6875000000,1,1.2616039515,,,
8.7031250000,1,1.3312230110,,,
8.7187500000,1,1.3367309570,,,
8.7343750000,1,1.3211820126,,,
8.7500000000,1,1.2417759895,,,
8.7656250000,1,1.0372469425,,,
8.7812500000,1,0.6699829102,,,
8.7968750000,1,0.1617126018,,,
8.8125000000,1,-0.3892974854,,,
8.8281250000,1,-0.8960723877,,,
8.8437500000,1,-1.2889330387,,,
8.8593750000,1,-1.5470889807,,,
8.8750000000,1,-1.6732560396,,,
8.8906250000,1,-1.6756969690,,,
8.9062500000,1,-1.5429149866,,,
8.9218750000,1,-1.2744289637,,,
8.9375000000,1,-0.9123458862,,,
8.9531250000,1,-0.5199202895,,,
8.9687500000,1,-0.1882476956,,,
8.9843750000,1,0.0241699200,,,
9.0000000000,1,0.1111373976,,,
9.0156250000,1,0.0993194580,,,
9.0312500000,1,0.0244903602,,,
9.0468750000,1,-0.1001586989,,,
9.0625000000,1,-0.2648087144,,,
9.0781250000,1,-0.4640808105,,,
9.0937500000,1,-0.6464920044,,,
9.1093750000,1,-0.7400665283,,,
9.1250000000,1,-0.6788787842,,,
9.1406250000,1,-0.4380416870,,,
9.1562500000,1,-0.0746994019,,,
9.1718750000,1,0.3092421889,,,
9.1875000000,1,0.6128615737,,,
9.2031250000,1,0.7724456787,,,
9.2187500000,1,0.7958908081,,,
9.2343750000,1,0.7532805800,,,
9.2500000000,1,0.7018967271,,,
9.2656250000,1,0.6733779907,,,
9.2812500000,1,0.6558151245,,,
9.2968750000,1,0.6118621826,,,
9.3125000000,1,0.5221633911,,,
9.3281250000,1,0.3807831109,,,
9.3437500000,1,0.2000122070,,,
9.3593750000,1,-0.0148620596,,,
9.3750000000,1,-0.2527542114,,,
9.3906250000,1,-0.5014038086,,,
9.4062500000,1,-0.7246245742,,,
9.4218750000,1,-0.8760452271,,,
9.4375000000,1,-0.9269638062,,,
9.4531250000,1,-0.8401337266,,,
9.4687500000,1,-0.6170958877,,,
9.4843750000,1,-0.2770308852,,,
9.5000000000,1,0.1407622993,,,
9.5156250000,1,0.5931777954,,,
9.5312500000,1,1.0309369564,,,
9.5468750000,1,1.4017720222,,,
9.5625000000,1,1.6495510340,,,
9.5781250000,1,1.7105940580,,,
9.5937500000,1,1.5633239746,,,
9.6093750000,1,1.2285610437,,,
9.6250000000,1,0.7949218750,,,
9.6406250000,1,0.3833160102,,,
9.6562500000,1,0.0964889526,,,
9.6718750000,1,-0.0272445697,,,
9.6875000000,1,-0.0065994258,,,
9.7031250000,1,0.0787734985,,,
9.7187500000,1,0.1564331055,,,
9.7343750000,1,0.1793594062,,,
9.7500000000,1,0.1316222996,,,
9.7656250000,1,0.0331802405,,,
9.7812500000,1,-0.0827179030,,,
9.7968750000,1,-0.1818085015,,,
9.8125000000,1,-0.2402572930,,,
9.8281250000,1,-0.2615050972,,,
9.8437500000,1,-0.2583847046,,,
9.8593750000,1,-0.2536621094,,,
9.8750000000,1,-0.2535400093,,,
9.8906250000,1,-0.2746429145,,,
9.9062500000,1,-0.3336105049,,,
9.9218750000,1,-0.4416733086,,,
9.9375000000,1,-0.6009140015,,,
9.9531250000,1,-0.7778319716,,,
9.9687500000,1,-0.9064177871,,,
9.9843750000,1,-0.9004439712,,,
10.0000000000,1,-0.6966019273,,,
10.0156250000,1,-0.3089371026,,,
10.0312500000,1,0.1576309055,,,
10.0468750000,1,0.5505676270,,,
10.0625000000,1,0.7334442139,,,
10.0781250000,1,0.6638488770,,,
10.0937500000,1,0.4324570000,,,
10.1093750000,1,0.1971817017,,,
10.1250000000,1,0.1163254008,,,
10.1406250000,1,0.2602157891,,,
10.1562500000,1,0.5980072021,,,
10.1718750000,1,1.0185320377,,,
10.1875000000,1,1.3974080086,,,
10.2031250000,1,1.6467670202,,,
10.2187500000,1,1.7515870333,,,
10.2343750000,1,1.7363280058,,,
10.2500000000,1,1.6535489559,,,
10.2656250000,1,1.5522379875,,,
10.2812500000,1,1.4461289644,,,
10.2968750000,1,1.3436579704,,,
10.3125000000,1,1.2451779842,,,
10.3281250000,1,1.1560360193,,,
10.3437500000,1,1.0695420504,,,
10.3593750000,1,0.9420471191,,,
10.3750000000,1,0.7237548828,,,
10.3906250000,1,0.3644484878,,,
10.4062500000,1,-0.1221923977,,,
10.4218750000,1,-0.6671906114,,,
10.4375000000,1,-1.1576540470,,,
10.4531250000,1,-1.5017470121,,,
10.4687500000,1,-1.6691279411,,,
10.4843750000,1,-1.7077560425,,,
10.5000000000,1,-1.6837010384,,,
10.5156250000,1,-1.6393740177,,,
10.5312500000,1,-1.5646669865,,,
10.5468750000,1,-1.4083100557,,,
10.5625000000,1,-1.1626360416,,,
10.5781250000,1,-0.8760833740,,,
10.5937500000,1,-0.6445388794,,,
10.6093750000,1,-0.5380477905,,,
10.6250000000,1,-0.5585250854,,,
10.6406250000,1,-0.6352844238,,,
10.6562500000,1,-0.6616135240,,,
10.6718750000,1,-0.5763779283,,,
10.6875000000,1,-0.3758850098,,,
10.7031250000,1,-0.1016464010,,,
10.7187500000,1,0.2172089070,,,
10.7343750000,1,0.5547028184,,,
10.7500000000,1,0.9041290283,,,
10.7656250000,1,1.2150959969,,,
10.7812500000,1,1.4151079655,,,
10.7968750000,1,1.4270629883,,,
10.8125000000,1,1.2286829948,,,
10.8281250000,1,0.8703613281,,,
10.8437500000,1,0.4521636963,,,
10.8593750000,1,0.0781326294,,,
10.8750000000,1,-0.1948166043,,,
10.8906250000,1,-0.3746567070,,,
10.9062500000,1,-0.4872283936,,,
10.9218750000,1,-0.5397490859,,,
10.9375000000,1,-0.5042114258,,,
10.9531250000,1,-0.3515853882,,,
10.9687500000,1,-0.0949249268,,,
10.9843750000,1,0.1846161038,,,
11.0000000000,1,0.3676986992,,,
11.0156250000,1,0.3562164009,,,
11.0312500000,1,0.1438751072,,,
11.0468750000,1,-0.1552657932,,,
11.0625000000,1,-0.3771133125,,,
11.0781250000,1,-0.3681564033,,,
11.0937500000,1,-0.0810699463,,,
11.1093750000,1,0.4208832085,,,
11.1250000000,1,0.9799193740,,,
11.1406250000,1,1.4041210413,,,
11.1562500000,1,1.5552519560,,,
11.1718750000,1,1.3906710148,,,
11.1875000000,1,0.9583588243,,,
11.2031250000,1,0.3948363960,,,
11.2187500000,1,-0.1382445991,,,
11.2343750000,1,-0.5124741197,,,
11.2500000000,1,-0.6458892822,,,
11.2656250000,1,-0.5642852783,,,
11.2812500000,1,-0.3494186103,,,
11.2968750000,1,-0.1303329021,,,
11.3125000000,1,-0.0008697510,,,
11.3281250000,1,-0.0072555542,,,
11.3437500000,1,-0.1347274929,,,
11.3593750000,1,-0.3183670044,,,
11.3750000000,1,-0.4899978936,,,
11.3906250000,1,-0.6051102281,,,
11.4062500000,1,-0.6206055284,,,
11.4218750000,1,-0.5112609863,,,
11.4375000000,1,-0.2410202026,,,
11.4531250000,1,0.1905059963,,,
11.4687500000,1,0.7115479112,,,
11.4843750000,1,1.1901470423,,,
11.5000000000,1,1.4462130070,,,
11.5156250000,1,1.3573230505,,,
11.5312500000,1,0.9414215088,,,
11.5468750000,1,0.3791503906,,,
11.5625000000,1,-0.0493698083,,,
11.5781250000,1,-0.1136246026,,,
11.5937500000,1,0.2417449951,,,
11.6093750000,1,0.8486176133,,,
11.6250000000,1,1.3981549740,,,
11.6406250000,1,1.6067659855,,,
11.6562500000,1,1.3470989466,,,
11.6718750000,1,0.7256469727,,,
11.6875000000,1,-0.0206909198,,,
11.7031250000,1,-0.6314467788,,,
11.7187500000,1,-0.9543914795,,,
11.7343750000,1,-0.9871978760,,,
11.7500000000,1,-0.8202208877,,,
11.7656250000,1,-0.5639420152,,,
11.7812500000,1,-0.2866286933,,,
11.7968750000,1,-0.0143280001,,,
11.8125000000,1,0.2263946980,,,
11.8281250000,1,0.3821564019,,,
11.8437500000,1,0.3766936958,,,
11.8593750000,1,0.1409225017,,,
11.8750000000,1,-0.3257598877,,,
11.8906250000,1,-0.9539185166,,,
11.9062500000,1,-1.5835649967,,,
11.9218750000,1,-2.0423738956,,,
11.9375000000,1,-2.2061159611,,,
11.9531250000,1,-2.0480799675,,,
11.9687500000,1,-1.6790540218,,,
11.9843750000,1,-1.2830959558,,,
12.0000000000,1,-1.0481189489,,,
12.0156250000,1,-1.0648349524,,,
12.0312500000,1,-1.3001099825,,,
12.0468750000,1,-1.6284029484,,,
12.0625000000,1,-1.8985819817,,,
12.0781250000,1,-2.0246660709,,,
12.0937500000,1,-2.0165100098,,,
12.1093750000,1,-1.9322129488,,,
12.1250000000,1,-1.8229060173,,,
12.1406250000,1,-1.6741260290,,,
12.1562500000,1,-1.4091570377,,,
12.1718750000,1,-0.9433670044,,,
12.1875000000,1,-0.2875899971,,,
12.2031250000,1,0.4278258979,,,
12.2187500000,1,0.9988784790,,,
12.2343750000,1,1.2385250330,,,
12.2500000000,1,1.0942080021,,,
12.2656250000,1,0.6660385132,,,
12.2812500000,1,0.1565093994,,,
12.2968750000,1,-0.2215270996,,,
12.3125000000,1,-0.3536682129,,,
12.3281250000,1,-0.2619247139,,,
12.3437500000,1,-0.0511856116,,,
12.3593750000,1,0.1606750041,,,
12.3750000000,1,0.3184280097,,,
12.3906250000,1,0.4304122925,,,
12.4062500000,1,0.5354614258,,,
12.4218750000,1,0.6571578979,,,
12.4375000000,1,0.7802504897,,,
12.4531250000,1,0.8829802871,,,
12.4687500000,1,0.9507141113,,,
12.4843750000,1,0.9927597046,,,
12.5000000000,1,1.0082089901,,,
12.5156250000,1,0.9806060791,,,
12.5312500000,1,0.8870391846,,,
12.5468750000,1,0.7160797119,,,
12.5625000000,1,0.4913940132,,,
12.5781250000,1,0.2667846978,,,
12.5937500000,1,0.1034851000,,,
12.6093750000,1,0.0321197510,,,
12.6250000000,1,0.0528869592,,,
12.6406250000,1,0.1532745063,,,
12.6562500000,1,0.3318938911,,,
12.6718750000,1,0.6096724868,,,
12.6875000000,1,0.9837952256,,,
12.7031250000,1,1.3999559879,,,
12.7187500000,1,1.7450489998,,,
12.7343750000,1,1.8764649630,,,
12.7500000000,1,1.7093429565,,,
12.7656250000,1,1.2598340511,,,
12.7812500000,1,0.6634520888,,,
12.7968750000,1,0.0834426880,,,
12.8125000000,1,-0.3460159004,,,
12.8281250000,1,-0.5964354873,,,
12.8437500000,1,-0.7116088867,,,
12.8593750000,1,-0.7637329102,,,
12.8750000000,1,-0.7832260132,,,
12.8906250000,1,-0.7328491211,,,
12.9062500000,1,-0.5666121840,,,
12.9218750000,1,-0.2607651055,,,
12.9375000000,1,0.1215972975,,,
12.9531250000,1,0.4643020928,,,
12.9687500000,1,0.6354904175,,,
12.9843750000,1,0.5732117295,,,
13.0000000000,1,0.3052597046,,,
13.0156250000,1,-0.0756301880,,,
13.0312500000,1,-0.4471741021,,,
13.0468750000,1,-0.7188796997,,,
13.0625000000,1,-0.8492736816,,,
13.0781250000,1,-0.8636397719,,,
13.0937500000,1,-0.8114777207,,,
13.1093750000,1,-0.7649384141,,,
13.1250000000,1,-0.7872313857,,,
13.1406250000,1,-0.9070358276,,,
13.1562500000,1,-1.1195830107,,,
13.1718750000,1,-1.3935389519,,,
13.1875000000,1,-1.6826479435,,,
13.2031250000,1,-1.9298249483,,,
13.2187500000,1,-2.0925900936,,,
13.2343750000,1,-2.1318969727,,,
13.2500000000,1,-2.0017619133,,,
13.2656250000,1,-1.6633909941,,,
13.2812500000,1,-1.0917129517,,,
13.2968750000,1,-0.3335723877,,,
13.3125000000,1,0.4920273125,,,
13.3281250000,1,1.2251050472,,,
13.3437500000,1,1.7105029821,,,
13.3593750000,1,1.8532179594,,,
13.3750000000,1,1.6432570219,,,
13.3906250000,1,1.1743010283,,,
13.4062500000,1,0.5918502808,,,
13.4218750000,1,0.0806579590,,,
13.4375000000,1,-0.2012711018,,,
13.4531250000,1,-0.1524199992,,,
13.4687500000,1,0.2140121013,,,
13.4843750000,1,0.7631835938,,,
13.5000000000,1,1.3069759607,,,
13.5156250000,1,1.6708070040,,,
13.5312500000,1,1.7950439453,,,
13.5468750000,1,1.7507859468,,,
13.5625000000,1,1.6787569523,,,
13.5781250000,1,1.7139589787,,,
13.5937500000,1,1.8805999756,,,
13.6093750000,1,2.0881419182,,,
13.6250000000,1,2.1883769035,,,
13.6406250000,1,2.0755228996,,,
13.6562500000,1,1.7490839958,,,
13.6718750000,1,1.2871249914,,,
13.6875000000,1,0.7946776748,,,
13.7031250000,1,0.3340378106,,,
13.7187500000,1,-0.0710296631,,,
13.7343750000,1,-0.4131165147,,,
13.7500000000,1,-0.6769257188,,,
13.7656250000,1,-0.8253784180,,,
13.7812500000,1,-0.8279190063,,,
13.7968750000,1,-0.6968079209,,,
13.8125000000,1,-0.5008162856,,,
13.8281250000,1,-0.3385314941,,,
13.8437500000,1,-0.2958145142,,,
13.8593750000,1,-0.4056091011,,,
13.8750000000,1,-0.6426392198,,,
13.8906250000,1,-0.9408646226,,,
13.9062500000,1,-1.2314150333,,,
13.9218750000,1,-1.4745639563,,,
13.9375000000,1,-1.6689759493,,,
13.9531250000,1,-1.8239589930,,,
13.9687500000,1,-1.9255909920,,,
13.9843750000,1,-1.9411770105,,,
14.0000000000,1,-1.8231199980,,,
14.0156250000,1,-1.5289460421,,,
14.0312500000,1,-1.0757139921,,,
14.0468750000,1,-0.5304946899,,,
14.0625000000,1,-0.0255737305,,,
14.0781250000,1,0.3177795112,,,
14.0937500000,1,0.4324035943,,,
14.1093750000,1,0.3506165147,,,
14.1250000000,1,0.1891174018,,,
14.1406250000,1,0.1030960009,,,
14.1562500000,1,0.2030791938,,,
14.1718750000,1,0.5022506714,,,
14.1875000000,1,0.9118118286,,,
14.2031250000,1,1.2662960291,,,
14.2187500000,1,1.4043049812,,,
14.2343750000,1,1.2408219576,,,
14.2500000000,1,0.8189315796,,,
14.2656250000,1,0.2920531929,,,
14.2812500000,1,-0.1413955986,,,
14.2968750000,1,-0.3401184082,,,
14.3125000000,1,-0.2704926133,,,
14.3281250000,1,-0.0300140399,,,
14.3437500000,1,0.2083130032,,,
14.3593750000,1,0.3019104004,,,
14.3750000000,1,0.1906432956,,,
14.3906250000,1,-0.0731277466,,,
14.4062500000,1,-0.3783187866,,,
14.4218750000,1,-0.6190947890,,,
14.4375000000,1,-0.7443923950,,,
14.4531250000,1,-0.7826309204,,,
14.4687500000,1,-0.7890319824,,,
14.4843750000,1,-0.8014144897,,,
14.5000000000,1,-0.8116912842,,,
14.5156250000,1,-0.7638397217,,,
14.5312500000,1,-0.6027144790,,,
14.5468750000,1,-0.3370285034,,,
14.5625000000,1,-0.0454635583,,,
14.5781250000,1,0.1563721001,,,
14.5937500000,1,0.1835632026,,,
14.6093750000,1,0.0281219501,,,
14.6250000000,1,-0.2249680012,,,
14.6406250000,1,-0.4258041084,,,
14.6562500000,1,-0.4439696968,,,
14.6718750000,1,-0.2191237956,,,
14.6875000000,1,0.1951065063,,,
14.7031250000,1,0.6542968750,,,
14.7187500000,1,0.9869384766,,,
14.7343750000,1,1.0914540291,,,
14.7500000000,1,0.9717407227,,,
14.7656250000,1,0.7257689834,,,
14.7812500000,1,0.4919052124,,,
14.7968750000,1,0.3534164131,,,
14.8125000000,1,0.3112792969,,,
14.8281250000,1,0.3000792861,,,
14.8437500000,1,0.2447357029,,,
14.8593750000,1,0.1462250054,,,
14.8750000000,1,0.0771865770,,,
14.8906250000,1,0.1637955010,,,
14.9062500000,1,0.4742355049,,,
14.9218750000,1,0.9597930908,,,
14.9375000000,1,1.4693069458,,,
14.9531250000,1,1.8152240515,,,
14.9687500000,1,1.8843150139,,,
14.9843750000,1,1.6702580452,,,
15.0000000000,1,1.2665790319,,,
15.0156250000,1,0.7826157212,,,
15.0312500000,1,0.3110046089,,,
15.0468750000,1,-0.1144637987,,,
15.0625000000,1,-0.4756011963,,,
15.0781250000,1,-0.7522963881,,,
15.0937500000,1,-0.9137573242,,,
15.1093750000,1,-0.9496384263,,,
15.1250000000,1,-0.8782805800,,,
15.1406250000,1,-0.7747954726,,,
15.1562500000,1,-0.7311553955,,,
15.1718750000,1,-0.7960814834,,,
15.1875000000,1,-0.9436492920,,,
15.2031250000,1,-1.0841369629,,,
15.2187500000,1,-1.1167370081,,,
15.2343750000,1,-0.9811859131,,,
15.2500000000,1,-0.6911544800,,,
15.2656250000,1,-0.3246231079,,,
15.2812500000,1,0.0441894494,,,
15.2968750000,1,0.3606567085,,,
15.3125000000,1,0.6113967896,,,
15.3281250000,1,0.8247147202,,,
15.3437500000,1,1.0125579834,,,
15.3593750000,1,1.1547549963,,,
15.3750000000,1,1.1861799955,,,
15.3906250000,1,1.0506670475,,,
15.4062500000,1,0.7184143066,,,
15.4218750000,1,0.2336730957,,,
15.4375000000,1,-0.2978821099,,,
15.4531250000,1,-0.7651367188,,,
15.4687500000,1,-1.0755460262,,,
15.4843750000,1,-1.2048720121,,,
15.5000000000,1,-1.1752170324,,,
15.5156250000,1,-1.0420529842,,,
15.5312500000,1,-0.8802413940,,,
15.5468750000,1,-0.7634658813,,,
15.5625000000,1,-0.7499237061,,,
15.5781250000,1,-0.8619080186,,,
15.5937500000,1,-1.0351790190,,,
15.6093750000,1,-1.1670989990,,,
15.6250000000,1,-1.1304090023,,,
15.6406250000,1,-0.8419799805,,,
15.6562500000,1,-0.3070220947,,,
15.6718750000,1,0.3690643013,,,
15.6875000000,1,1.0197600126,,,
15.7031250000,1,1.4789730310,,,
15.7187500000,1,1.6477199793,,,
15.7343750000,1,1.5254210234,,,
15.7500000000,1,1.1882779598,,,
15.7656250000,1,0.7524948120,,,
15.7812500000,1,0.3415451050,,,
15.7968750000,1,0.0363998413,,,
15.8125000000,1,-0.1382599026,,,
15.8281250000,1,-0.1953506023,,,
15.8437500000,1,-0.1767425984,,,
15.8593750000,1,-0.1286240071,,,
15.8750000000,1,-0.0785674974,,,
15.8906250000,1,-0.0330429114,,,
15.9062500000,1,-0.0060729980,,,
15.9218750000,1,-0.0027465820,,,
15.9375000000,1,-0.0417709388,,,
15.9531250000,1,-0.1035308987,,,
15.9687500000,1,-0.1385117024,,,
15.9843750000,1,-0.0846557617,,,
16.0000000000,2,0.0863952637,,,
16.0156250000,2,0.3094482124,,,
16.0312500000,2,0.4505080879,,,
16.0468750000,2,0.3680877984,,,
16.0625000000,2,0.0174789391,,,
16.0781250000,2,-0.5246887207,,,
16.0937500000,2,-1.0491180420,,,
16.1093750000,2,-1.3342210054,,,
16.1250000000,2,-1.2613450289,,,
16.1406250000,2,-0.8648148179,,,
16.1562500000,2,-0.3026123047,,,
16.1718750000,2,0.2177505046,,,
16.1875000000,2,0.5325012207,,,
16.2031250000,2,0.5760803223,,,
16.2187500000,2,0.3778609931,,,
16.2343750000,2,0.0490417518,,,
16.2500000000,2,-0.2624207139,,,
16.2656250000,2,-0.4321976006,,,
16.2812500000,2,-0.3895035088,,,
16.2968750000,2,-0.1729660034,,,
16.3125000000,2,0.1041107029,,,
16.3281250000,2,0.2891693115,,,
16.3437500000,2,0.2805862129,,,
16.3593750000,2,0.0745239332,,,
16.3750000000,2,-0.2150879055,,,
16.3906250000,2,-0.4170379937,,,
16.4062500000,2,-0.4213486016,,,
16.4218750000,2,-0.2331466973,,,
16.4375000000,2,0.0075988770,,,
16.4531250000,2,0.1547852010,,,
16.4687500000,2,0.1306076050,,,
16.4843750000,2,0.0035324099,,,
16.5000000000,2,-0.0590209998,,,
16.5156250000,2,0.0735549927,,,
16.5312500000,2,0.4201659858,,,
16.5468750000,2,0.8580322266,,,
16.5625000000,2,1.2055360079,,,
16.5781250000,2,1.3152849674,,,
16.5937500000,2,1.1406630278,,,
16.6093750000,2,0.7513657212,,,
16.6250000000,2,0.2613449097,,,
16.6406250000,2,-0.2142944038,,,
16.6562500000,2,-0.5860825181,,,
16.6718750000,2,-0.7903214097,,,
16.6875000000,2,-0.7847747803,,,
16.7031250000,2,-0.5492630005,,,
16.7187500000,2,-0.1207047030,,,
16.7343750000,2,0.3729018867,,,
16.7500000000,2,0.7664412856,,,
16.7656250000,2,0.9065856934,,,
16.7812500000,2,0.7787628174,,,
16.7968750000,2,0.4977188110,,,
16.8125000000,2,0.2667084038,,,
16.8281250000,2,0.2583541870,,,
16.8437500000,2,0.5113143921,,,
16.8593750000,2,0.9093474746,,,
16.8750000000,2,1.2298129797,,,
16.8906250000,2,1.2728500366,,,
16.9062500000,2,0.9514617920,,,
16.9218750000,2,0.3378829956,,,
16.9375000000,2,-0.3859024048,,,
16.9531250000,2,-1.0368499756,,,
16.9687500000,2,-1.4997179508,,,
16.9843750000,2,-1.7982250452,,,
17.0000000000,2,-2.0228729248,,,
17.0156250000,2,-2.2754440308,,,
17.0312500000,2,-2.5777049065,,,
17.0468750000,2,-2.8683929443,,,
17.0625000000,2,-3.0346219540,,,
17.0781250000,2,-2.9958419800,,,
17.0937500000,2,-2.7630620003,,,
17.1093750000,2,-2.3961870670,,,
17.1250000000,2,-1.9979399443,,,
17.1406250000,2,-1.6341170073,,,
17.1562500000,2,-1.3234250546,,,
17.1718750000,2,-1.0167620182,,,
17.1875000000,2,-0.6659622192,,,
17.2031250000,2,-0.2371674031,,,
17.2187500000,2,0.2520599067,,,
17.2343750000,2,0.7258834839,,,
17.2500000000,2,1.0988010168,,,
17.2656250000,2,1.2924959660,,,
17.2812500000,2,1.3087389469,,,
17.2968750000,2,1.2146220207,,,
17.3125000000,2,1.1454770565,,,
17.3281250000,2,1.2146220207,,,
17.3437500000,2,1.4754409790,,,
17.3593750000,2,1.8719480038,,,
17.3750000000,2,2.2714540958,,,
17.3906250000,2,2.5225300789,,,
17.4062500000,2,2.5255129337,,,
17.4218750000,2,2.2714540958,,,
17.4375000000,2,1.8287659883,,,
17.4531250000,2,1.2960360050,,,
17.4687500000,2,0.7565383911,,,
17.4843750000,2,0.2726821899,,,
17.5000000000,2,-0.0886917114,,,
17.5156250000,2,-0.2765578926,,,
17.5312500000,2,-0.2807692885,,,
17.5468750000,2,-0.1465529948,,,
17.5625000000,2,0.0298538208,,,
17.5781250000,2,0.1516799927,,,
17.5937500000,2,0.1819992065,,,
17.6093750000,2,0.2001952976,,,
17.6250000000,2,0.3186492920,,,
17.6406250000,2,0.6190567017,,,
17.6562500000,2,1.0438920259,,,
17.6718750000,2,1.4114689827,,,
17.6875000000,2,1.4976119995,,,
17.7031250000,2,1.1754230261,,,
17.7187500000,2,0.4898987114,,,
17.7343750000,2,-0.3492279053,,,
17.7500000000,2,-1.0786739588,,,
17.7656250000,2,-1.5182269812,,,
17.7812500000,2,-1.6177749634,,,
17.7968750000,2,-1.4552689791,,,
17.8125000000,2,-1.1419910192,,,
17.8281250000,2,-0.7861862183,,,
17.8437500000,2,-0.4364013970,,,
17.8593750000,2,-0.1282196045,,,
17.8750000000,2,0.1188888997,,,
17.8906250000,2,0.2989043891,,,
17.9062500000,2,0.4117049873,,,
17.9218750000,2,0.4697951972,,,
17.9375000000,2,0.4734801948,,,
17.9531250000,2,0.4224472046,,,
17.9687500000,2,0.2828826904,,,
17.9843750000,2,0.0273819007,,,
18.0000000000,2,-0.3283157051,,,
18.0156250000,2,-0.7148209214,,,
18.0312500000,2,-1.0332340002,,,
18.0468750000,2,-1.1878969669,,,
18.0625000000,2,-1.1407999992,,,
18.0781250000,2,-0.9207611084,,,
18.0937500000,2,-0.5940018296,,,
18.1093750000,2,-0.2182006985,,,
18.1250000000,2,0.1493072957,,,
18.1406250000,2,0.4878005981,,,
18.1562500000,2,0.7622222900,,,
18.1718750000,2,0.9392395020,,,
18.1875000000,2,0.9988327026,,,
18.2031250000,2,0.9414672852,,,
18.2187500000,2,0.8016281128,,,
18.2343750000,2,0.6363068223,,,
18.2500000000,2,0.5243759155,,,
18.2656250000,2,0.5183258057,,,
18.2812500000,2,0.6446685791,,,
18.2968750000,2,0.8767241836,,,
18.3125000000,2,1.1228710413,,,
18.3281250000,2,1.2546310425,,,
18.3437500000,2,1.1548000574,,,
18.3593750000,2,0.7643126845,,,
18.3750000000,2,0.1304244995,,,
18.3906250000,2,-0.5993041992,,,
18.4062500000,2,-1.2334059477,,,
18.4218750000,2,-1.5966639519,,,
18.4375000000,2,-1.6202930212,,,
18.4531250000,2,-1.3529969454,,,
18.4687500000,2,-0.9303206801,,,
18.4843750000,2,-0.5360183716,,,
18.5000000000,2,-0.3121871948,,,
18.5156250000,2,-0.3301619887,,,
18.5312500000,2,-0.5719528198,,,
18.5468750000,2,-0.9453353882,,,
18.5625000000,2,-1.3216480017,,,
18.5781250000,2,-1.6005170345,,,
18.5937500000,2,-1.7273479700,,,
18.6093750000,2,-1.6969909668,,,
18.6250000000,2,-1.5254360437,,,
18.6406250000,2,-1.2192000151,,,
18.6562500000,2,-0.7922515869,,,
18.6718750000,2,-0.2652206123,,,
18.6875000000,2,0.3034667969,,,
18.7031250000,2,0.8381729126,,,
18.7187500000,2,1.2302249670,,,
18.7343750000,2,1.4278179407,,,
18.7500000000,2,1.4499050379,,,
18.7656250000,2,1.3698810339,,,
18.7812500000,2,1.2808990479,,,
18.7968750000,2,1.2479399443,,,
18.8125000000,2,1.2637250423,,,
18.8281250000,2,1.2616649866,,,
18.8437500000,2,1.1882859468,,,
18.8593750000,2,1.0053329468,,,
18.8750000000,2,0.7396163940,,,
18.8906250000,2,0.4607239068,,,
18.9062500000,2,0.2252501994,,,
18.9218750000,2,0.0695571899,,,
18.9375000000,2,-0.0170364399,,,
18.9531250000,2,-0.0822296068,,,
18.9687500000,2,-0.1646118015,,,
18.9843750000,2,-0.2768250108,,,
19.0000000000,2,-0.3854140937,33025,19.0000000000,0.0000000000
19.0156250000,2,-0.4206924140,,,
19.0312500000,2,-0.3198165894,,,
19.0468750000,2,-0.0855560303,,,
19.0625000000,2,0.2184982002,,,
19.0781250000,2,0.4707793891,,,
19.0937500000,2,0.5733489990,,,
19.1093750000,2,0.4850921929,,,
19.1250000000,2,0.2628783882,33024,19.1250000000,0.0000000000
19.1406250000,2,0.0049743648,,,
19.1562500000,2,-0.1948928982,,,
19.1718750000,2,-0.3021011055,,,
19.1875000000,2,-0.3398132026,,,
19.2031250000,2,-0.3247146904,,,
19.2187500000,2,-0.2947692871,,,
19.2343750000,2,-0.2512665093,,,
19.2500000000,2,-0.2089844048,,,
19.2656250000,2,-0.1722106934,,,
19.2812500000,2,-0.1664123982,,,
19.2968750000,2,-0.1856689006,,,
19.3125000000,2,-0.1912917942,,,
19.3281250000,2,-0.1445236057,,,
19.3437500000,2,-0.0223770104,,,
19.3593750000,2,0.1311873943,,,
19.3750000000,2,0.2234573066,,,
19.3906250000,2,0.1633148044,,,
19.4062500000,2,-0.0790023804,,,
19.4218750000,2,-0.4466018975,,,
19.4375000000,2,-0.8055878282,,,
19.4531250000,2,-1.0327379704,,,
19.4687500000,2,-1.0737689734,,,
19.4843750000,2,-0.9624481201,,,
19.5000000000,2,-0.7969055176,,,
19.5156250000,2,-0.6577454209,,,
19.5312500000,2,-0.5685729980,,,
19.5468750000,2,-0.4988631904,,,
19.5625000000,2,-0.4137344062,,,
19.5781250000,2,-0.3101578057,,,
19.5937500000,2,-0.2290191948,,,
19.6093750000,2,-0.2159270942,,,
19.6250000000,2,-0.2771987915,,,
19.6406250000,2,-0.3641357124,,,
19.6562500000,2,-0.4035033882,,,
19.6718750000,2,-0.3499146104,,,
19.6875000000,2,-0.2128601074,,,
19.7031250000,2,-0.0653991699,,,
19.7187500000,2,0.0041732788,,,
19.7343750000,2,-0.0314254798,,,
19.7500000000,2,-0.1320496053,,,
19.7656250000,2,-0.1891707927,,,
19.7812500000,2,-0.0896453932,,,
19.7968750000,2,0.2196197957,,,
19.8125000000,2,0.6999130249,,,
19.8281250000,2,1.2469639778,,,
19.8437500000,2,1.7214130163,,,
19.8593750000,2,2.0165100098,,,
19.8750000000,2,2.0879750252,,,
19.8906250000,2,1.9571690559,,,
19.9062500000,2,1.6833720207,,,
19.9218750000,2,1.3337630033,,,
19.9375000000,2,0.9500808716,,,
19.9531250000,2,0.5413436890,,,
19.9687500000,2,0.1160430983,,,
19.9843750000,2,-0.2961348891,,,
20.0000000000,2,-0.6425781250,,,
20.0156250000,2,-0.8691101074,,,
20.0312500000,2,-0.9685363770,,,
20.0468750000,2,-0.9892730713,,,
20.0625000000,2,-1.0088499784,,,
20.0781250000,2,-1.0693739653,,,
20.0937500000,2,-1.1494450569,,,
20.1093750000,2,-1.1689380407,,,
20.1250000000,2,-1.0405960083,,,
20.1406250000,2,-0.7389525771,,,
20.1562500000,2,-0.3552170098,,,
20.1718750000,2,-0.0390701294,,,
20.1875000000,2,0.0685119629,,,
20.2031250000,2,-0.0976333618,,,
20.2187500000,2,-0.4896850884,,,
20.2343750000,2,-0.9651337266,,,
20.2500000000,2,-1.3520430326,,,
20.2656250000,2,-1.5178220272,,,
20.2812500000,2,-1.4025189877,,,
20.2968750000,2,-1.0316009521,,,
20.3125000000,2,-0.5080261230,,,
20.3281250000,2,0.0581207313,,,
20.3437500000,2,0.5605620742,,,
20.3593750000,2,0.9455490112,,,
20.3750000000,2,1.1884460449,,,
20.3906250000,2,1.2919919491,,,
20.4062500000,2,1.2347719669,,,
20.4218750000,2,0.9955139160,,,
20.4375000000,2,0.5684279799,,,
20.4531250000,2,0.0099945068,,,
20.4687500000,2,-0.5648651123,,,
20.4843750000,2,-1.0126500130,,,
20.5000000000,2,-1.2483830452,,,
20.5156250000,2,-1.2622679472,,,
20.5312500000,2,-1.1383290291,,,
20.5468750000,2,-0.9862517715,,,
20.5625000000,2,-0.8815842271,,,
20.5781250000,2,-0.8291016221,,,
20.5937500000,2,-0.7680205703,,,
20.6093750000,2,-0.6232147217,,,
20.6250000000,2,-0.3540039063,,,
20.6406250000,2,0.0276336707,,,
20.6562500000,2,0.4579238892,,,
20.6718750000,2,0.8592606187,,,
20.6875000000,2,1.1855319738,,,
20.7031250000,2,1.4309309721,,,
20.7187500000,2,1.6132509708,,,
20.7343750000,2,1.7653199434,,,
20.7500000000,2,1.8947069645,,,
20.7656250000,2,1.9864350557,,,
20.7812500000,2,1.9945529699,,,
20.7968750000,2,1.8922040462,,,
20.8125000000,2,1.6586149931,,,
20.8281250000,2,1.3181760311,,,
20.8437500000,2,0.9245223999,,,
20.8593750000,2,0.5558928847,,,
20.8750000000,2,0.2698287964,,,
20.8906250000,2,0.0973815918,,,
20.9062500000,2,0.0297317505,,,
20.9218750000,2,0.0394592285,,,
20.9375000000,2,0.0875778198,,,
20.9531250000,2,0.1605225056,,,
20.9687500000,2,0.2432326972,,,
20.9843750000,2,0.3400345147,,,
21.0000000000,2,0.4367598891,,,
21.0156250000,2,0.5186386108,,,
21.0312500000,2,0.5147933960,,,
21.0468750000,2,0.3598021865,,,
21.0625000000,2,0.0158691406,,,
21.0781250000,2,-0.4993819892,,,
21.0937500000,2,-1.1020580530,,,
21.1093750000,2,-1.6827930212,,,
21.1250000000,2,-2.1239929199,,,
21.1406250000,2,-2.3551559448,,,
21.1562500000,2,-2.3436200619,,,
21.1718750000,2,-2.1031041145,,,
21.1875000000,2,-1.6793750525,,,
21.2031250000,2,-1.1304470301,,,
21.2187500000,2,-0.5281295776,,,
21.2343750000,2,0.0601119995,,,
21.2500000000,2,0.5514603257,,,
21.2656250000,2,0.8785933852,,,
21.2812500000,2,0.9570006728,,,
21.2968750000,2,0.7506638169,,,
21.3125000000,2,0.2701874077,,,
21.3281250000,2,-0.3809967041,,,
21.3437500000,2,-1.0433119535,,,
21.3593750000,2,-1.5441210270,,,
21.3750000000,2,-1.7606509924,,,
21.3906250000,2,-1.6802059412,,,
21.4062500000,2,-1.3779449463,,,
21.4218750000,2,-0.9849166870,,,
21.4375000000,2,-0.6172562242,,,
21.4531250000,2,-0.3251647949,,,
21.4687500000,2,-0.1001434028,,,
21.4843750000,2,0.0961380005,,,
21.5000000000,2,0.2756958008,,,
21.5156250000,2,0.4402008057,,,
21.5312500000,2,0.5613936782,,,
21.5468750000,2,0.6316986084,,,
21.5625000000,2,0.6706008911,,,
21.5781250000,2,0.7075881958,,,
21.5937500000,2,0.7692871094,,,
21.6093750000,2,0.8390502930,,,
21.6250000000,2,0.8778228760,,,
21.6406250000,2,0.8437271118,,,
21.6562500000,2,0.7346268296,,,
21.6718750000,2,0.5963057876,,,
21.6875000000,2,0.5001220703,,,
21.7031250000,2,0.4867782891,,,
21.7187500000,2,0.5505828857,,,
21.7343750000,2,0.6276245117,,,
21.7500000000,2,0.6389235854,,,
21.7656250000,2,0.5497512817,,,
21.7812500000,2,0.3918075860,,,
21.7968750000,2,0.2269515991,,,
21.8125000000,2,0.0969161987,,,
21.8281250000,2,0.0009002686,,,
21.8437500000,2,-0.1040496975,,,
21.8593750000,2,-0.2554625869,,,
21.8750000000,2,-0.4405669868,,,
21.8906250000,2,-0.5999373794,,,
21.9062500000,2,-0.6778640747,,,
21.9218750000,2,-0.6625748277,,,
21.9375000000,2,-0.5895462036,,,
21.9531250000,2,-0.5198593140,,,
21.9687500000,2,-0.4566726983,,,
21.9843750000,2,-0.3505401909,,,
22.0000000000,2,-0.1288146973,,,
22.0156250000,2,0.2326813042,,,
22.0312500000,2,0.6498184204,,,
22.0468750000,2,0.9881591797,,,
22.0625000000,2,1.1223679781,,,
22.0781250000,2,1.0249789953,,,
22.0937500000,2,0.7848815918,,,
22.1093750000,2,0.5478286743,,,
22.1250000000,2,0.4183349907,,,
22.1406250000,2,0.4176788032,,,
22.1562500000,2,0.4616698921,,,
22.1718750000,2,0.4457320869,,,
22.1875000000,2,0.3028258979,,,
22.2031250000,2,0.0509262085,,,
22.2187500000,2,-0.2166748047,,,
22.2343750000,2,-0.3935165107,,,
22.2500000000,2,-0.4014815986,,,
22.2656250000,2,-0.2471542060,,,
22.2812500000,2,0.0388336182,,,
22.2968750000,2,0.3856888115,,,
22.3125000000,2,0.7316818237,,,
22.3281250000,2,1.0259250402,,,
22.3437500000,2,1.2321469784,,,
22.3593750000,2,1.3222500086,,,
22.3750000000,2,1.2936099768,,,
22.3906250000,2,1.1646499634,,,
22.4062500000,2,0.9752045274,,,
22.4218750000,2,0.7664412856,,,
22.4375000000,2,0.5750350952,,,
22.4531250000,2,0.4118422866,,,
22.4687500000,2,0.2615509033,,,
22.4843750000,2,0.1002731025,,,
22.5000000000,2,-0.0903015137,,,
22.5156250000,2,-0.2967987061,,,
22.5312500000,2,-0.4932098091,,,
22.5468750000,2,-0.6348494887,,,
22.5625000000,2,-0.6887435913,,,
22.5781250000,2,-0.6579818726,,,
22.5937500000,2,-0.5493698120,,,
22.6093750000,2,-0.4000397027,,,
22.6250000000,2,-0.2654494941,,,
22.6406250000,2,-0.1901015937,,,
22.6562500000,2,-0.2087935954,,,
22.6718750000,2,-0.3154678047,,,
22.6875000000,2,-0.4784317017,,,
22.7031250000,2,-0.6298447251,,,
22.7187500000,2,-0.7165070176,,,
22.7343750000,2,-0.7069625854,,,
22.7500000000,2,-0.6090698242,,,
22.7656250000,2,-0.4598694146,,,
22.7812500000,2,-0.3140411079,,,
22.7968750000,2,-0.2350769043,,,
22.8125000000,2,-0.2636641860,,,
22.8281250000,2,-0.4141769111,,,
22.8437500000,2,-0.6404572129,,,
22.8593750000,2,-0.8580551147,,,
22.8750000000,2,-0.9562377930,,,
22.8906250000,2,-0.8575592041,,,
22.9062500000,2,-0.5487899780,,,
22.9218750000,2,-0.1218262017,,,
22.9375000000,2,0.2625580132,,,
22.9531250000,2,0.4571532905,,,
22.9687500000,2,0.3734740913,,,
22.9843750000,2,0.0654678270,,,
23.0000000000,2,-0.3242492974,,,
23.0156250000,2,-0.6355742812,,,
23.0312500000,2,-0.7714691162,,,
23.0468750000,2,-0.7479019165,,,
23.0625000000,2,-0.6438369751,,,
23.0781250000,2,-0.5757598877,,,
23.0937500000,2,-0.5895462036,,,
23.1093750000,2,-0.6716156006,,,
23.1250000000,2,-0.7519454956,,,
23.1406250000,2,-0.7578659058,,,
23.1562500000,2,-0.6483612061,,,
23.1718750000,2,-0.4460372925,,,
23.1875000000,2,-0.2115783989,,,
23.2031250000,2,0.0030517580,,,
23.2187500000,2,0.1908188015,,,
23.2343750000,2,0.4000853896,,,
23.2500000000,2,0.6869202256,,,
23.2656250000,2,1.0767290592,,,
23.2812500000,2,1.4996570349,,,
23.2968750000,2,1.8112410307,,,
23.3125000000,2,1.8639910221,,,
23.3281250000,2,1.5930789709,,,
23.3437500000,2,1.0734939575,,,
23.3593750000,2,0.5020064712,,,
23.3750000000,2,0.1141967997,,,
23.3906250000,2,0.0462951697,,,
23.4062500000,2,0.2704772949,,,
23.4218750000,2,0.5964813232,,,
23.4375000000,2,0.8029556274,,,
23.4531250000,2,0.7507019043,,,
23.4687500000,2,0.4466857910,,,
23.4843750000,2,0.0348892212,,,
23.5000000000,2,-0.3032760918,,,
23.5156250000,2,-0.4655685127,,,
23.5312500000,2,-0.4464950860,,,
23.5468750000,2,-0.3315810859,,,
23.5625000000,2,-0.2059479058,,,
23.5781250000,2,-0.1314087063,,,
23.5937500000,2,-0.1179428026,,,
23.6093750000,2,-0.1603621989,,,
23.6250000000,2,-0.2686386108,,,
23.6406250000,2,-0.4536896050,,,
23.6562500000,2,-0.6974105835,,,
23.6718750000,2,-0.9563140869,,,
23.6875000000,2,-1.1516419649,,,
23.7031250000,2,-1.2060170174,,,
23.7187500000,2,-1.0877230167,,,
23.7343750000,2,-0.8198928833,,,
23.7500000000,2,-0.4755325019,,,
23.7656250000,2,-0.1260529011,,,
23.7812500000,2,0.1587906033,,,
23.7968750000,2,0.3415375054,,,
23.8125000000,2,0.4011535943,,,
23.8281250000,2,0.3467254937,,,
23.8437500000,2,0.1897201985,,,
23.8593750000,2,-0.0429840088,,,
23.8750000000,2,-0.3291854858,,,
23.8906250000,2,-0.6336287856,,,
23.9062500000,2,-0.9052124023,,,
23.9218750000,2,-1.0890500546,,,
23.9375000000,2,-1.0961840153,,,
23.9531250000,2,-0.8710175157,,,
23.9687500000,2,-0.4170303047,,,
23.9843750000,2,0.1624756008,,,
24.0000000000,3,0.7059478760,,,
24.0156250000,3,1.0465389490,,,
24.0312500000,3,1.1319730282,,,
24.0468750000,3,1.0252460241,,,
24.0625000000,3,0.8715209961,,,
24.0781250000,3,0.7899398804,,,
24.0937500000,3,0.7971953750,,,
24.1093750000,3,0.8304213881,,,
24.1250000000,3,0.7681807876,,,
24.1406250000,3,0.5804976821,,,
24.1562500000,3,0.3243483901,,,
24.1718750000,3,0.1143035963,,,
24.1875000000,3,0.0317001306,,,
24.2031250000,3,0.0728149414,,,
24.2187500000,3,0.1587677002,,,
24.2343750000,3,0.2077483982,,,
24.2500000000,3,0.1903152019,,,
24.2656250000,3,0.1695861965,,,
24.2812500000,3,0.2353363037,,,
24.2968750000,3,0.4267959893,,,
24.3125000000,3,0.6675338745,,,
24.3281250000,3,0.8200988770,,,
24.3437500000,3,0.7479019165,,,
24.3593750000,3,0.4183349907,,,
24.3750000000,3,-0.0779647827,,,
24.3906250000,3,-0.5596694946,,,
24.4062500000,3,-0.8716124892,,,
24.4218750000,3,-0.9650115967,,,
24.4375000000,3,-0.9104614258,,,
24.4531250000,3,-0.8422470093,,,
24.4687500000,3,-0.8706130981,,,
24.4843750000,3,-1.0123289824,,,
24.5000000000,3,-1.2048029900,,,
24.5156250000,3,-1.3591229916,,,
24.5312500000,3,-1.4028550386,,,
24.5468750000,3,-1.3294069767,,,
24.5625000000,3,-1.1672519445,,,
24.5781250000,3,-0.9428482056,,,
24.5937500000,3,-0.6770020127,,,
24.6093750000,3,-0.3587723076,,,
24.6250000000,3,-0.0067749019,,,
24.6406250000,3,0.3443450928,,,
24.6562500000,3,0.6311569214,,,
24.6718750000,3,0.8085327148,,,
24.6875000000,3,0.8568419814,,,
24.7031250000,3,0.7782669067,,,
24.7187500000,3,0.6065369248,,,
24.7343750000,3,0.3928528130,,,
24.7500000000,3,0.1799544990,,,
24.7656250000,3,0.0200958308,,,
24.7812500000,3,-0.0528564490,,,
24.7968750000,3,-0.0236282293,,,
24.8125000000,3,0.0850906372,,,
24.8281250000,3,0.2489089966,,,
24.8437500000,3,0.4468612969,,,
24.8593750000,3,0.6694182754,,,
24.8750000000,3,0.9086074829,,,
24.8906250000,3,1.1557240486,,,
24.9062500000,3,1.3749849796,,,
24.9218750000,3,1.5166929960,,,
24.9375000000,3,1.5258640051,,,
24.9531250000,3,1.3802490234,,,
24.9687500000,3,1.0770950317,,,
24.9843750000,3,0.6640471816,,,
25.0000000000,3,0.1976851970,,,
25.0156250000,3,-0.2442321926,,,
25.0312500000,3,-0.5703964233,,,
25.0468750000,3,-0.6989821792,,,
25.0625000000,3,-0.5863800049,,,
25.0781250000,3,-0.2692795098,,,
25.0937500000,3,0.1292418987,,,
25.1093750000,3,0.4432831109,,,
25.1250000000,3,0.5481491089,,,
25.1406250000,3,0.4023056030,,,
25.1562500000,3,0.0675201416,,,
25.1718750000,3,-0.3272551894,,,
25.1875000000,3,-0.6625518799,,,
25.2031250000,3,-0.8663330078,,,
25.2187500000,3,-0.9186553955,,,
25.2343750000,3,-0.8251038194,,,
25.2500000000,3,-0.6012114882,,,
25.2656250000,3,-0.2580338120,,,
25.2812500000,3,0.1591109931,,,
25.2968750000,3,0.5536422729,,,
25.3125000000,3,0.7978820801,,,
25.3281250000,3,0.8055191040,,,
25.3437500000,3,0.5738754272,,,
25.3593750000,3,0.2120209038,,,
25.3750000000,3,-0.1345977932,,,
25.3906250000,3,-0.3578262031,,,
25.4062500000,3,-0.4329986870,,,
25.4218750000,3,-0.4183731079,,,
25.4375000000,3,-0.4228897095,,,
25.4531250000,3,-0.5000991821,,,
25.4687500000,3,-0.6479874253,,,
25.4843750000,3,-0.8178024292,,,
25.5000000000,3,-0.9669417739,,,
25.5156250000,3,-1.0779420137,,,
25.5312500000,3,-1.1653670073,,,
25.5468750000,3,-1.2346949577,,,
25.5625000000,3,-1.2502369881,,,
25.5781250000,3,-1.1437610388,,,
25.5937500000,3,-0.8477553725,,,
25.6093750000,3,-0.3576202095,,,
25.6250000000,3,0.2572937012,,,
25.6406250000,3,0.8495560288,,,
25.6562500000,3,1.2592929602,,,
25.6718750000,3,1.3760149479,,,
25.6875000000,3,1.1898119450,,,
25.7031250000,3,0.7883300781,,,
25.7187500000,3,0.3125916123,,,
25.7343750000,3,-0.0892639235,,,
25.7500000000,3,-0.3289184868,,,
25.7656250000,3,-0.3955993950,,,
25.7812500000,3,-0.3333053887,,,
25.7968750000,3,-0.2087630928,,,
25.8125000000,3,-0.0752410889,,,
25.8281250000,3,0.0412673987,,,
25.8437500000,3,0.1362075955,,,
25.8593750000,3,0.2209624946,,,
25.8750000000,3,0.3110198975,,,
25.8906250000,3,0.4091339111,,,
25.9062500000,3,0.5054702759,,,
25.9218750000,3,0.5898284912,,,
25.9375000000,3,0.6315535903,,,
25.9531250000,3,0.5995407104,,,
25.9687500000,3,0.4585342109,,,
25.9843750000,3,0.1898498982,,,
26.0000000000,3,-0.2015457004,,,
26.0156250000,3,-0.6657562256,,,
26.0312500000,3,-1.1176220179,,,
26.0468750000,3,-1.4684909582,,,
26.0625000000,3,-1.6452790499,,,
26.0781250000,3,-1.6137160063,,,
26.0937500000,3,-1.3960950375,,,
26.1093750000,3,-1.0560150146,,,
26.1250000000,3,-0.6545029283,,,
26.1406250000,3,-0.2430420071,,,
26.1562500000,3,0.1558533013,,,
26.1718750000,3,0.5288391113,,,
26.1875000000,3,0.8504868150,,,
26.2031250000,3,1.0812449455,,,
26.2187500000,3,1.1398849487,,,
26.2343750000,3,0.9737930298,,,
26.2500000000,3,0.5945281982,,,
26.2656250000,3,0.0737609863,,,
26.2812500000,3,-0.4611130059,,,
26.2968750000,3,-0.9102706909,,,
26.3125000000,3,-1.2203220129,,,
26.3281250000,3,-1.4052959681,,,
26.3437500000,3,-1.5096509457,,,
26.3593750000,3,-1.5669779778,,,
26.3750000000,3,-1.5619430542,,,
26.3906250000,3,-1.4385679960,,,
26.4062500000,3,-1.1603620052,,,
26.4218750000,3,-0.7480773926,,,
26.4375000000,3,-0.2850952148,,,
26.4531250000,3,0.1328200996,,,
26.4687500000,3,0.4418258965,,,
26.4843750000,3,0.6611022949,,,
26.5000000000,3,0.8647232056,,,
26.5156250000,3,1.1226119995,,,
26.5312500000,3,1.4520419836,,,
26.5468750000,3,1.7873840332,,,
26.5625000000,3,2.0222170353,,,
26.5781250000,3,2.0504760742,,,
26.5937500000,3,1.8367919922,,,
26.6093750000,3,1.4333269596,,,
26.6250000000,3,0.9507141113,,,
26.6406250000,3,0.5139389038,,,
26.6562500000,3,0.2053298950,,,
26.6718750000,3,0.0528411902,,,
26.6875000000,3,0.0166015606,,,
26.7031250000,3,0.0565261804,,,
26.7187500000,3,0.1229323968,,,
26.7343750000,3,0.1730803996,,,
26.7500000000,3,0.1898269951,,,
26.7656250000,3,0.1665726006,,,
26.7812500000,3,0.1406174004,,,
26.7968750000,3,0.1515121013,,,
26.8125000000,3,0.2462234050,,,
26.8281250000,3,0.4291152954,,,
26.8437500000,3,0.6571732163,,,
26.8593750000,3,0.8174132705,,,
26.8750000000,3,0.7986602783,,,
26.8906250000,3,0.5478057861,,,
26.9062500000,3,0.0988235474,,,
26.9218750000,3,-0.4131241143,,,
26.9375000000,3,-0.8516541123,,,
26.9531250000,3,-1.0938030481,,,
26.9687500000,3,-1.1043239832,,,
26.9843750000,3,-0.9173889160,,,
27.0000000000,3,-0.5969315171,,,
27.0156250000,3,-0.2212830037,,,
27.0312500000,3,0.1364517063,,,
27.0468750000,3,0.3961105049,,,
27.0625000000,3,0.5082396865,,,
27.0781250000,3,0.4496155083,,,
27.0937500000,3,0.2744216919,,,
27.1093750000,3,0.0914764404,,,
27.1250000000,3,0.0092620850,,,
27.1406250000,3,0.0657806396,,,
27.1562500000,3,0.2053527981,,,
27.1718750000,3,0.3139496148,,,
27.1875000000,3,0.2777405083,,,
27.2031250000,3,0.0743255615,,,
27.2187500000,3,-0.2209015042,,,
27.2343750000,3,-0.4749146104,,,
27.2500000000,3,-0.5633469224,,,
27.2656250000,3,-0.4482116997,,,
27.2812500000,3,-0.1764678955,,,
27.2968750000,3,0.1469116062,,,
27.3125000000,3,0.4307022095,,,
27.3281250000,3,0.6375731826,,,
27.3437500000,3,0.8075942993,,,
27.3593750000,3,0.9788817763,,,
27.3750000000,3,1.1586610079,,,
27.3906250000,3,1.2833180428,,,
27.4062500000,3,1.2435070276,,,
27.4218750000,3,0.9753494263,,,
27.4375000000,3,0.4753265083,,,
27.4531250000,3,-0.1615523994,,,
27.4687500000,3,-0.7817764282,,,
27.4843750000,3,-1.2417140007,,,
27.5000000000,3,-1.4792629480,,,
27.5156250000,3,-1.5200580359,,,
27.5312500000,3,-1.4486769438,,,
27.5468750000,3,-1.3557430506,,,
27.5625000000,3,-1.2752989531,,,
27.5781250000,3,-1.2067869902,,,
27.5937500000,3,-1.1358799934,,,
27.6093750000,3,-1.0732040405,,,
27.6250000000,3,-1.0435409546,,,
27.6406250000,3,-1.0576100349,,,
27.6562500000,3,-1.0774149895,,,
27.6718750000,3,-1.0069960356,,,
27.6875000000,3,-0.7712935805,,,
27.7031250000,3,-0.3548659980,,,
27.7187500000,3,0.1704483032,,,
27.7343750000,3,0.6771544814,,,
27.7500000000,3,1.0454410315,,,
27.7656250000,3,1.2247240543,,,
27.7812500000,3,1.2487410307,,,
27.7968750000,3,1.1941219568,,,
27.8125000000,3,1.1200710535,,,
27.8281250000,3,1.0353850126,,,
27.8437500000,3,0.9112014771,,,
27.8593750000,3,0.7214279175,,,
27.8750000000,3,0.5114974976,,,
27.8906250000,3,0.3883132935,,,
27.9062500000,3,0.4621047974,,,
27.9218750000,3,0.7553557754,,,
27.9375000000,3,1.1682280302,,,
27.9531250000,3,1.4995800257,,,
27.9687500000,3,1.5664139986,,,
27.9843750000,3,1.3015370369,,,
28.0000000000,3,0.7881469727,,,
28.0156250000,3,0.2037353963,,,
28.0312500000,3,-0.2632217109,,,
28.0468750000,3,-0.5092468262,,,
28.0625000000,3,-0.5213851929,,,
28.0781250000,3,-0.3610534966,,,
28.0937500000,3,-0.0995254517,,,
28.1093750000,3,0.1761168987,,,
28.1250000000,3,0.3827438056,,,
28.1406250000,3,0.4312210083,,,
28.1562500000,3,0.2477570027,,,
28.1718750000,3,-0.1619644016,,,
28.1875000000,3,-0.6979675293,,,
28.2031250000,3,-1.1821060181,,,
28.2187500000,3,-1.4443210363,,,
28.2343750000,3,-1.4207459688,,,
28.2500000000,3,-1.1855700016,,,
28.2656250000,3,-0.9174500108,,,
28.2812500000,3,-0.7778549194,,,
28.2968750000,3,-0.8301162720,,,
28.3125000000,3,-1.0167690516,,,
28.3281250000,3,-1.2087550163,,,
28.3437500000,3,-1.3189539909,,,
28.3593750000,3,-1.3384549618,,,
28.3750000000,3,-1.3382489681,,,
28.3906250000,3,-1.3972630501,,,
28.4062500000,3,-1.5468829870,,,
28.4218750000,3,-1.7322770357,,,
28.4375000000,3,-1.8306659460,,,
28.4531250000,3,-1.7195659876,,,
28.4687500000,3,-1.3487089872,,,
28.4843750000,3,-0.7862166762,,,
28.5000000000,3,-0.2012481987,,,
28.5156250000,3,0.2055283040,,,
28.5312500000,3,0.3135604858,,,
28.5468750000,3,0.1385879964,,,
28.5625000000,3,-0.1635742038,,,
28.5781250000,3,-0.4068068862,,,
28.5937500000,3,-0.4686127007,,,
28.6093750000,3,-0.3562164009,,,
28.6250000000,3,-0.1634293050,,,
28.6406250000,3,0.0274124108,,,
28.6562500000,3,0.2112198025,,,
28.6718750000,3,0.4910736084,,,
28.6875000000,3,0.9742661119,,,
28.7031250000,3,1.6748889685,,,
28.7187500000,3,2.4531168938,,,
28.7343750000,3,3.0521769524,,,
28.7500000000,3,3.2565000057,,,
28.7656250000,3,2.9856259823,,,
28.7812500000,3,2.3765408993,,,
28.7968750000,3,1.6714320183,,,
28.8125000000,3,1.0864030123,,,
28.8281250000,3,0.7315139771,,,
28.8437500000,3,0.5520095825,,,
28.8593750000,3,0.4253998101,,,
28.8750000000,3,0.2472915947,,,
28.8906250000,3,0.0225677509,,,
28.9062500000,3,-0.1725158989,,,
28.9218750000,3,-0.2289734036,,,
28.9375000000,3,-0.1032257006,,,
28.9531250000,3,0.1620406955,,,
28.9687500000,3,0.4311904907,,,
28.9843750000,3,0.5581740737,,,
29.0000000000,3,0.4593048096,,,
29.0156250000,3,0.1418686062,,,
29.0312500000,3,-0.2948226929,,,
29.0468750000,3,-0.7355651855,,,
29.0625000000,3,-1.0862200260,,,
29.0781250000,3,-1.3320920467,,,
29.0937500000,3,-1.5062559843,,,
29.1093750000,3,-1.6629869938,,,
29.1250000000,3,-1.8154139519,,,
29.1406250000,3,-1.8994749784,,,
29.1562500000,3,-1.8394089937,,,
29.1718750000,3,-1.5579220057,,,
29.1875000000,3,-1.0712280273,,,
29.2031250000,3,-0.4563904107,,,
29.2187500000,3,0.1666336060,,,
29.2343750000,3,0.6816101074,,,
29.2500000000,3,1.0516970158,,,
29.2656250000,3,1.2859649658,,,
29.2812500000,3,1.4420169592,,,
29.2968750000,3,1.5503009558,,,
29.3125000000,3,1.5882339478,,,
29.3281250000,3,1.4980930090,,,
29.3437500000,3,1.2385410070,,,
29.3593750000,3,0.8283309937,,,
29.3750000000,3,0.3579865098,,,
29.3906250000,3,-0.0419006310,,,
29.4062500000,3,-0.2991713881,,,
29.4218750000,3,-0.4200210869,,,
29.4375000000,3,-0.5055999756,,,
29.4531250000,3,-0.6522141099,,,
29.4687500000,3,-0.8972473145,,,
29.4843750000,3,-1.1758120060,,,
29.5000000000,3,-1.3506389856,,,
29.5156250000,3,-1.3035279512,,,
29.5312500000,3,-0.9862288833,,,
29.5468750000,3,-0.4687500000,,,
29.5625000000,3,0.1385803074,,,
29.5781250000,3,0.7078170776,,,
29.5937500000,3,1.1649700403,,,
29.6093750000,3,1.4652940035,,,
29.6250000000,3,1.6016919613,,,
29.6406250000,3,1.5905460119,,,
29.6562500000,3,1.4553070068,,,
29.6718750000,3,1.2472529411,,,
29.6875000000,3,1.0048680305,,,
29.7031250000,3,0.7592697144,,,
29.7187500000,3,0.5327224731,,,
29.7343750000,3,0.3269577026,,,
29.7500000000,3,0.1388701946,,,
29.7656250000,3,-0.0384063683,,,
29.7812500000,3,-0.2147064060,,,
29.7968750000,3,-0.4033660889,,,
29.8125000000,3,-0.6042938232,,,
29.8281250000,3,-0.7932891846,,,
29.8437500000,3,-0.9060059190,,,
29.8593750000,3,-0.8856887817,,,
29.8750000000,3,-0.7162932754,,,
29.8906250000,3,-0.4606018066,,,
29.9062500000,3,-0.2357635051,,,
29.9218750000,3,-0.1339644939,,,
29.9375000000,3,-0.1662521064,,,
29.9531250000,3,-0.2403717041,,,
29.9687500000,3,-0.2357483059,,,
29.9843750000,3,-0.0868225098,,,
30.0000000000,3,0.1536026001,,,
30.0156250000,3,0.3576126099,,,
30.0312500000,3,0.4125289917,,,
30.0468750000,3,0.2874068916,,,
30.0625000000,3,0.0498123206,,,
30.0781250000,3,-0.2106399983,,,
30.0937500000,3,-0.4197922051,,,
30.1093750000,3,-0.5695800781,,,
30.1250000000,3,-0.6557083130,,,
30.1406250000,3,-0.6592177749,,,
30.1562500000,3,-0.5304871202,,,
30.1718750000,3,-0.2503280938,,,
30.1875000000,3,0.1308746040,,,
30.2031250000,3,0.4566422105,,,
30.2187500000,3,0.5449752808,,,
30.2343750000,3,0.2965927124,,,
30.2500000000,3,-0.2530669868,,,
30.2656250000,3,-0.8994216919,,,
30.2812500000,3,-1.3786699772,,,
30.2968750000,3,-1.4796299934,,,
30.3125000000,3,-1.1669770479,,,
30.3281250000,3,-0.5889893174,,,
30.3437500000,3,0.0005187988,,,
30.3593750000,3,0.3725281060,,,
30.3750000000,3,0.4308547974,,,
30.3906250000,3,0.2240142971,,,
30.4062500000,3,-0.0990905836,,,
30.4218750000,3,-0.3625259101,,,
30.4375000000,3,-0.4442977905,,,
30.4531250000,3,-0.3135071099,,,
30.4687500000,3,-0.0267868005,,,
30.4843750000,3,0.3229598999,,,
30.5000000000,3,0.6416016221,,,
30.5156250000,3,0.8804398179,,,
30.5312500000,3,1.0250849724,,,
30.5468750000,3,1.0943599939,,,
30.5625000000,3,1.1146320105,,,
30.5781250000,3,1.1035000086,,,
30.5937500000,3,1.0636140108,,,
30.6093750000,3,0.9971848130,,,
30.6250000000,3,0.9022902846,,,
30.6406250000,3,0.7740402222,,,
30.6562500000,3,0.6263275146,,,
30.6718750000,3,0.4694671929,,,
30.6875000000,3,0.3246535957,,,
30.7031250000,3,0.2020034939,,,
30.7187500000,3,0.1014785990,,,
30.7343750000,3,0.0128097497,,,
30.7500000000,3,-0.0710143968,,,
30.7656250000,3,-0.1523056030,,,
30.7812500000,3,-0.2199096978,,,
30.7968750000,3,-0.2473755032,,,
30.8125000000,3,-0.2291488945,,,
30.8281250000,3,-0.1532821953,,,
30.8437500000,3,-0.0385589600,,,
30.8593750000,3,0.0704803467,,,
30.8750000000,3,0.1190795973,,,
30.8906250000,3,0.0609359704,,,
30.9062500000,3,-0.1242905036,,,
30.9218750000,3,-0.4003905952,,,
30.9375000000,3,-0.6917037964,,,
30.9531250000,3,-0.9162750244,,,
30.9687500000,3,-1.0424419641,,,
30.9843750000,3,-1.0922160149,,,
31.0000000000,3,-1.1398999691,,,
31.0156250000,3,-1.2627110481,,,
31.0312500000,3,-1.4726639986,,,
31.0468750000,3,-1.7115169764,,,
31.0625000000,3,-1.8494260311,,,
31.0781250000,3,-1.7647709846,,,
31.0937500000,3,-1.4111939669,,,
31.1093750000,3,-0.8376389146,,,
31.1250000000,3,-0.1656647027,,,
31.1406250000,3,0.4663009942,,,
31.1562500000,3,0.9926682115,,,
31.1718750000,3,1.4042429924,,,
31.1875000000,3,1.7385179996,,,
31.2031250000,3,1.9939349890,,,
31.2187500000,3,2.1225130558,,,
31.2343750000,3,2.0481030941,,,
31.2500000000,3,1.7290500402,,,
31.2656250000,3,1.2218090296,,,
31.2812500000,3,0.6743164063,,,
31.2968750000,3,0.2857818902,,,
31.3125000000,3,0.1782913059,,,
31.3281250000,3,0.3338012993,,,
31.3437500000,3,0.5965651870,,,
31.3593750000,3,0.7400208116,,,
31.3750000000,3,0.6101912856,,,
31.3906250000,3,0.2050933987,,,
31.4062500000,3,-0.3119583130,,,
31.4218750000,3,-0.6992949843,,,
31.4375000000,3,-0.7748413086,,,
31.4531250000,3,-0.5326461792,,,
31.4687500000,3,-0.1376495063,,,
31.4843750000,3,0.1509398967,,,
31.5000000000,3,0.1402053982,,,
31.5156250000,3,-0.2098007053,,,
31.5312500000,3,-0.7533950806,,,
31.5468750000,3,-1.2631759644,,,
31.5625000000,3,-1.5488970280,,,
31.5781250000,3,-1.5437469482,,,
31.5937500000,3,-1.3278659582,,,
31.6093750000,3,-1.0502320528,,,
31.6250000000,3,-0.8370894790,,,
31.6406250000,3,-0.7315216064,,,
31.6562500000,3,-0.6617354751,,,
31.6718750000,3,-0.5367888808,,,
31.6875000000,3,-0.2968139946,,,
31.7031250000,3,0.0215911902,,,
31.7187500000,3,0.3092193902,,,
31.7343750000,3,0.4355086982,,,
31.7500000000,3,0.3511658013,,,
31.7656250000,3,0.1019973978,,,
31.7812500000,3,-0.1882935017,,,
31.7968750000,3,-0.3882445991,,,
31.8125000000,3,-0.4348526001,,,
31.8281250000,3,-0.3563995063,,,
31.8437500000,3,-0.2412490994,,,
31.8593750000,3,-0.1843872070,,,
31.8750000000,3,-0.2253647000,,,
31.8906250000,3,-0.3447951972,,,
31.9062500000,3,-0.4840317070,,,
31.9218750000,3,-0.5780715942,,,
31.9375000000,3,-0.5719680786,,,
31.9531250000,3,-0.4456177056,,,
31.9687500000,3,-0.1942749023,,,
31.9843750000,3,0.1727295071,,,
32.0000000000,4,0.6075897217,,,
32.0156250000,4,1.0154880285,,,
32.0312500000,4,1.3011859655,,,
32.0468750000,4,1.3807070255,,,
32.0625000000,4,1.2260589600,,,
32.0781250000,4,0.9066162109,,,
32.0937500000,4,0.5444564819,,,
32.1093750000,4,0.2787551880,,,
32.1250000000,4,0.1996306926,,,
32.1406250000,4,0.3105773926,,,
32.1562500000,4,0.5485535264,,,
32.1718750000,4,0.8178557754,,,
32.1875000000,4,1.0518109798,,,
32.2031250000,4,1.2121510506,,,
32.2187500000,4,1.3146289587,,,
32.2343750000,4,1.3549649715,,,
32.2500000000,4,1.3363339901,,,
32.2656250000,4,1.2312389612,,,
32.2812500000,4,1.0197679996,,,
32.2968750000,4,0.7196198106,,,
32.3125000000,4,0.3756943047,,,
32.3281250000,4,0.0411834717,,,
32.3437500000,4,-0.2658005059,,,
32.3593750000,4,-0.5633391738,,,
32.3750000000,4,-0.8936614990,,,
32.3906250000,4,-1.2723009586,,,
32.4062500000,4,-1.6695250273,,,
32.4218750000,4,-2.0145800114,,,
32.4375000000,4,-2.2261810303,,,
32.4531250000,4,-2.2512440681,,,
32.4687500000,4,-2.0986399651,,,
32.4843750000,4,-1.8136899471,,,
32.5000000000,4,-1.4519350529,,,
32.5156250000,4,-1.0788880587,,,
32.5312500000,4,-0.7388153076,,,
32.5468750000,4,-0.4718781114,,,
32.5625000000,4,-0.3208465874,,,
32.5781250000,4,-0.2958678901,,,
32.5937500000,4,-0.3656235039,,,
32.6093750000,4,-0.4363403022,,,
32.6250000000,4,-0.3984222114,,,
32.6406250000,4,-0.1871338040,,,
32.6562500000,4,0.1674118042,,,
32.6718750000,4,0.5439682007,,,
32.6875000000,4,0.8097382188,,,
32.7031250000,4,0.8876342773,,,
32.7187500000,4,0.8194426894,,,
32.7343750000,4,0.7046890259,,,
32.7500000000,4,0.6560363770,,,
32.7656250000,4,0.6995087266,,,
32.7812500000,4,0.7832412720,,,
32.7968750000,4,0.8043364882,,,
32.8125000000,4,0.6940460205,,,
32.8281250000,4,0.4741058052,,,
32.8437500000,4,0.2498244941,,,
32.8593750000,4,0.1404037029,,,
32.8750000000,4,0.2139129937,,,
32.8906250000,4,0.4470520020,,,
32.9062500000,4,0.7366486192,,,
32.9218750000,4,0.9688950181,,,
32.9375000000,4,1.0646059513,,,
32.9531250000,4,1.0250929594,,,
32.9687500000,4,0.9077376723,,,
32.9843750000,4,0.7566986084,,,
33.0000000000,4,0.5937346816,,,
33.0156250000,4,0.3755187988,,,
33.0312500000,4,0.0351409912,,,
33.0468750000,4,-0.4500732124,,,
33.0625000000,4,-1.0195920467,,,
33.0781250000,4,-1.5135569572,,,
33.0937500000,4,-1.7478259802,,,
33.1093750000,4,-1.5978850126,,,
33.1250000000,4,-1.0740970373,,,
33.1406250000,4,-0.3357085884,,,
33.1562500000,4,0.3742522895,,,
33.1718750000,4,0.8514708877,,,
33.1875000000,4,1.0005040169,,,
33.2031250000,4,0.8687819839,,,
33.2187500000,4,0.5912094116,,,
33.2343750000,4,0.2975997925,,,
33.2500000000,4,0.0638885498,,,
33.2656250000,4,-0.0991439819,,,
33.2812500000,4,-0.1938247979,,,
33.2968750000,4,-0.2177962959,,,
33.3125000000,4,-0.1309662014,,,
33.3281250000,4,0.0760955811,,,
33.3437500000,4,0.3803252876,,,
33.3593750000,4,0.6807097793,,,
33.3750000000,4,0.8596420288,,,
33.3906250000,4,0.8419799805,,,
33.4062500000,4,0.6420059204,,,
33.4218750000,4,0.3638535142,,,
33.4375000000,4,0.1245421991,,,
33.4531250000,4,-0.0156173697,,,
33.4687500000,4,-0.0755691528,,,
33.4843750000,4,-0.1482696980,,,
33.5000000000,4,-0.2998046875,,,
33.5156250000,4,-0.5092849731,,,
33.5312500000,4,-0.6676558852,,,
33.5468750000,4,-0.6467285156,,,
33.5625000000,4,-0.4023438096,,,
33.5781250000,4,-0.0186843891,,,
33.5937500000,4,0.3142699897,,,
33.6093750000,4,0.4048995972,,,
33.6250000000,4,0.1734237969,,,
33.6406250000,4,-0.2870940864,,,
33.6562500000,4,-0.7606735229,,,
33.6718750000,4,-0.9973983765,,,
33.6875000000,4,-0.8589705825,,,
33.7031250000,4,-0.3889693916,,,
33.7187500000,4,0.2246627957,,,
33.7343750000,4,0.7481688857,,,
33.7500000000,4,1.0146640539,,,
33.7656250000,4,1.0146180391,,,
33.7812500000,4,0.8729401231,,,
33.7968750000,4,0.7455062866,,,
33.8125000000,4,0.7387694716,,,
33.8281250000,4,0.8421401978,,,
33.8437500000,4,0.9789505005,,,
33.8593750000,4,1.0600969791,,,
33.8750000000,4,1.0662460327,,,
33.8906250000,4,1.0349960327,,,
33.9062500000,4,1.0428240299,,,
33.9218750000,4,1.1479949951,,,
33.9375000000,4,1.3334200382,,,
33.9531250000,4,1.5191119909,,,
33.9687500000,4,1.5872650146,,,
33.9843750000,4,1.4180370569,,,
34.0000000000,4,0.9513167739,,,
34.0156250000,4,0.2048721015,,,
34.0312500000,4,-0.7137374878,,,
34.0468750000,4,-1.6004559994,,,
34.0625000000,4,-2.2239069939,,,
34.0781250000,4,-2.3913118839,,,
34.0937500000,4,-2.0558240414,,,
34.1093750000,4,-1.3358609676,,,
34.1250000000,4,-0.4863204956,,,
34.1406250000,4,0.2122803032,,,
34.1562500000,4,0.5839691162,,,
34.1718750000,4,0.6215744019,,,
34.1875000000,4,0.4569625854,,,
34.2031250000,4,0.2702408135,,,
34.2187500000,4,0.1895446926,,,
34.2343750000,4,0.2424315959,,,
34.2500000000,4,0.3757705986,,,
34.2656250000,4,0.5122374892,,,
34.2812500000,4,0.6226425171,,,
34.2968750000,4,0.7331467271,,,
34.3125000000,4,0.9015045166,,,
34.3281250000,4,1.1662900448,,,
34.3437500000,4,1.4931030273,,,
34.3593750000,4,1.7952120304,,,
34.3750000000,4,1.9821469784,,,
34.3906250000,4,2.0244140625,,,
34.4062500000,4,1.9702450037,,,
34.4218750000,4,1.9251099825,,,
34.4375000000,4,1.9885790348,,,
34.4531250000,4,2.1760480404,,,
34.4687500000,4,2.4195480347,,,
34.4843750000,4,2.5815579891,,,
34.5000000000,4,2.5630040169,,,
34.5156250000,4,2.3240740299,,,
34.5312500000,4,1.9067840576,,,
34.5468750000,4,1.3835370541,,,
34.5625000000,4,0.7878417969,,,
34.5781250000,4,0.1075820997,,,
34.5937500000,4,-0.7172545791,,,
34.6093750000,4,-1.6918489933,,,
34.6250000000,4,-2.7247469425,,,
34.6406250000,4,-3.6448969841,,,
34.6562500000,4,-4.2719879150,,,
34.6718750000,4,-4.5008621216,,,
34.6875000000,4,-4.3590240479,,,
34.7031250000,4,-3.9905469418,,,
34.7187500000,4,-3.5688929558,,,
34.7343750000,4,-3.2347719669,,,
34.7500000000,4,-3.0326690674,,,
34.7656250000,4,-2.9435648918,,,
34.7812500000,4,-2.9171600342,,,
34.7968750000,4,-2.9276499748,,,
34.8125000000,4,-2.9638059139,,,
34.8281250000,4,-3.0199511051,,,
34.8437500000,4,-3.0784680843,,,
34.8593750000,4,-3.0805048943,,,
34.8750000000,4,-2.9669339657,,,
34.8906250000,4,-2.6877820492,,,
34.9062500000,4,-2.2534708977,,,
34.9218750000,4,-1.7187500000,,,
34.9375000000,4,-1.1716459990,,,
34.9531250000,4,-0.7155991197,,,
34.9687500000,4,-0.4066390991,,,
34.9843750000,4,-0.2556458116,,,
35.0000000000,4,-0.1822357029,,,
35.0156250000,4,-0.0845947266,,,
35.0312500000,4,0.1478195041,,,
35.0468750000,4,0.5592803955,,,
35.0625000000,4,1.1127929688,,,
35.0781250000,4,1.6864780188,,,
35.0937500000,4,2.1304779053,,,
35.1093750000,4,2.3082430363,,,
35.1250000000,4,2.1683878899,,,
35.1406250000,4,1.7551729679,,,
35.1562500000,4,1.1944199800,,,
35.1718750000,4,0.6371613145,,,
35.1875000000,4,0.2053679973,,,
35.2031250000,4,-0.0455474891,,,
35.2187500000,4,-0.1162720025,,,
35.2343750000,4,-0.0653533936,,,
35.2500000000,4,0.0429916382,,,
35.2656250000,4,0.1648560017,,,
35.2812500000,4,0.2856445014,,,
35.2968750000,4,0.4023132026,,,
35.3125000000,4,0.5310745239,,,
35.3281250000,4,0.6649628282,,,
35.3437500000,4,0.7687911987,,,
35.3593750000,4,0.7981491089,,,
35.3750000000,4,0.7075499892,,,
35.3906250000,4,0.5085906982,,,
35.4062500000,4,0.2491836995,,,
35.4218750000,4,0.0198364295,,,
35.4375000000,4,-0.0977478027,,,
35.4531250000,4,-0.0707549974,,,
35.4687500000,4,0.0753402710,,,
35.4843750000,4,0.2673569024,,,
35.5000000000,4,0.4160538018,,,
35.5156250000,4,0.4740219116,,,
35.5312500000,4,0.4665679932,,,
35.5468750000,4,0.4596405029,,,
35.5625000000,4,0.5328826904,,,
35.5781250000,4,0.7108306885,,,
35.5937500000,4,0.9593430161,,,
35.6093750000,4,1.1879349947,,,
35.6250000000,4,1.2932360172,,,
35.6406250000,4,1.1886670589,,,
35.6562500000,4,0.8668593764,,,
35.6718750000,4,0.3818435967,,,
35.6875000000,4,-0.1584624946,,,
35.7031250000,4,-0.6336975098,,,
35.7187500000,4,-0.9374771118,,,
35.7343750000,4,-1.0115200281,,,
35.7500000000,4,-0.8412246704,,,
35.7656250000,4,-0.4650802910,,,
35.7812500000,4,0.0268631000,,,
35.7968750000,4,0.5146331787,,,
35.8125000000,4,0.8685225844,,,
35.8281250000,4,0.9914855957,,,
35.8437500000,4,0.8709030151,,,
35.8593750000,4,0.6113204956,,,
35.8750000000,4,0.3734282851,,,
35.8906250000,4,0.3072356880,,,
35.9062500000,4,0.4598082900,,,
35.9218750000,4,0.7477111816,,,
35.9375000000,4,0.9864196777,,,
35.9531250000,4,0.9921646118,,,
35.9687500000,4,0.6731491089,,,
35.9843750000,4,0.0802230835,,,
36.0000000000,4,-0.6495285034,,,
36.0156250000,4,-1.3586499691,,,
36.0312500000,4,-1.9309920073,,,
36.0468750000,4,-2.3115770817,,,
36.0625000000,4,-2.4764859676,,,
36.0781250000,4,-2.4059300423,,,
36.0937500000,4,-2.1021349430,,,
36.1093750000,4,-1.5793149471,,,
36.1250000000,4,-0.9008255005,,,
36.1406250000,4,-0.1811829060,,,
36.1562500000,4,0.4642638862,,,
36.1718750000,4,0.9337081909,,,
36.1875000000,4,1.1788250208,,,
36.2031250000,4,1.1995320320,,,
36.2187500000,4,1.0556720495,,,
36.2343750000,4,0.8123322129,,,
36.2500000000,4,0.5541306138,,,
36.2656250000,4,0.3404769897,,,
36.2812500000,4,0.1869430989,,,
36.2968750000,4,0.0703887865,,,
36.3125000000,4,-0.0442276001,,,
36.3281250000,4,-0.1724853963,,,
36.3437500000,4,-0.2739562988,,,
36.3593750000,4,-0.2631301880,,,
36.3750000000,4,-0.0871429369,,,
36.3906250000,4,0.2460480034,,,
36.4062500000,4,0.6311035156,,,
36.4218750000,4,0.9348602295,,,
36.4375000000,4,1.0462650061,,,
36.4531250000,4,0.9468460083,,,
36.4687500000,4,0.6973953247,,,
36.4843750000,4,0.3908463120,,,
36.5000000000,4,0.0944595337,,,
36.5156250000,4,-0.1796645969,,,
36.5312500000,4,-0.4502868950,,,
36.5468750000,4,-0.7168427110,,,
36.5625000000,4,-0.9570313096,,,
36.5781250000,4,-1.1415710449,,,
36.5937500000,4,-1.2622300386,,,
36.6093750000,4,-1.3523180485,,,
36.6250000000,4,-1.4552379847,,,
36.6406250000,4,-1.5626139641,,,
36.6562500000,4,-1.6063610315,,,
36.6718750000,4,-1.4792859554,,,
36.6875000000,4,-1.0934519768,,,
36.7031250000,4,-0.4715346992,,,
36.7187500000,4,0.2646178901,,,
36.7343750000,4,0.9373322129,,,
36.7500000000,4,1.4159929752,,,
36.7656250000,4,1.6706919670,,,
36.7812500000,4,1.7700200081,,,
36.7968750000,4,1.8028030396,,,
36.8125000000,4,1.8009489775,,,
36.8281250000,4,1.7154010534,,,
36.8437500000,4,1.4710849524,,,
36.8593750000,4,1.0493320227,,,
36.8750000000,4,0.5365524292,,,
36.8906250000,4,0.0811614990,,,
36.9062500000,4,-0.1824035943,,,
36.9218750000,4,-0.2029190063,,,
36.9375000000,4,-0.0662918091,,,
36.9531250000,4,0.0788803101,,,
36.9687500000,4,0.1033478007,,,
36.9843750000,4,-0.0319290198,,,
37.0000000000,4,-0.2719649971,,,
37.0156250000,4,-0.5037307739,,,
37.0312500000,4,-0.6550217271,,,
37.0468750000,4,-0.6980515122,,,
37.0625000000,4,-0.6584854126,,,
37.0781250000,4,-0.5848618150,,,
37.0937500000,4,-0.4901351929,,,
37.1093750000,4,-0.3709717095,,,
37.1250000000,4,-0.2328567952,,,
37.1406250000,4,-0.0953445435,,,
37.1562500000,4,0.0008468628,,,
37.1718750000,4,0.0027618411,,,
37.1875000000,4,-0.1002579033,,,
37.2031250000,4,-0.2644501030,,,
37.2187500000,4,-0.3911896050,,,
37.2343750000,4,-0.3685759902,,,
37.2500000000,4,-0.1286620945,,,
37.2656250000,4,0.3057479858,,,
37.2812500000,4,0.8261489868,,,
37.2968750000,4,1.2689900398,,,
37.3125000000,4,1.4868010283,,,
37.3281250000,4,1.4039920568,,,
37.3437500000,4,1.0564730167,,,
37.3593750000,4,0.5605620742,,,
37.3750000000,4,0.0890273973,,,
37.3906250000,4,-0.2162552029,,,
37.4062500000,4,-0.2918167114,,,
37.4218750000,4,-0.1693191975,,,
37.4375000000,4,0.0488586389,,,
37.4531250000,4,0.2388381958,,,
37.4687500000,4,0.2954559028,,,
37.4843750000,4,0.1880341023,,,
37.5000000000,4,-0.0513610803,,,
37.5156250000,4,-0.3300322890,,,
37.5312500000,4,-0.5513916016,,,
37.5468750000,4,-0.6426773071,,,
37.5625000000,4,-0.5988463759,,,
37.5781250000,4,-0.4769287109,,,
37.5937500000,4,-0.3545151055,,,
37.6093750000,4,-0.2810744941,,,
37.6250000000,4,-0.2641983032,,,
37.6406250000,4,-0.2873382866,,,
37.6562500000,4,-0.3332672119,,,
37.6718750000,4,-0.4275893867,,,
37.6875000000,4,-0.6170958877,,,
37.7031250000,4,-0.9328079224,,,
37.7187500000,4,-1.3312840462,,,
37.7343750000,4,-1.6885679960,,,
37.7500000000,4,-1.8426589966,,,
37.7656250000,4,-1.6814270020,,,
37.7812500000,4,-1.2120970488,,,
37.7968750000,4,-0.5515747070,,,
37.8125000000,4,0.1140213013,,,
37.8281250000,4,0.6322556138,,,
37.8437500000,4,0.9331207275,,,
37.8593750000,4,1.0221480131,,,
37.8750000000,4,0.9500731826,,,
37.8906250000,4,0.7822800279,,,
37.9062500000,4,0.5792694092,,,
37.9218750000,4,0.3990021050,,,
37.9375000000,4,0.2904509902,,,
37.9531250000,4,0.2936859131,,,
37.9687500000,4,0.3986282051,,,
37.9843750000,4,0.5641860962,,,
38.0000000000,4,0.7386475205,,,
38.0156250000,4,0.8868256211,,,
38.0312500000,4,0.9979630113,,,
38.0468750000,4,1.0801539421,,,
38.0625000000,4,1.1348719597,,,
38.0781250000,4,1.1310579777,,,
38.0937500000,4,1.0300829411,,,
38.1093750000,4,0.8128203750,,,
38.1250000000,4,0.4967575073,,,
38.1406250000,4,0.1490249932,,,
38.1562500000,4,-0.1569443047,,,
38.1718750000,4,-0.3519820869,,,
38.1875000000,4,-0.4186401069,,,
38.2031250000,4,-0.3868483901,,,
38.2187500000,4,-0.3102188110,,,
38.2343750000,4,-0.2608413994,,,
38.2500000000,4,-0.2946090996,,,
38.2656250000,4,-0.4337157905,,,
38.2812500000,4,-0.6952437758,,,
38.2968750000,4,-1.0383529663,,,
38.3125000000,4,-1.3861010075,,,
38.3281250000,4,-1.6237180233,,,
38.3437500000,4,-1.6424709558,,,
38.3593750000,4,-1.3963010311,,,
38.3750000000,4,-0.9366226196,,,
38.3906250000,4,-0.4101181030,,,
38.4062500000,4,-0.0127639798,,,
38.4218750000,4,0.1036681980,,,
38.4375000000,4,-0.1036529988,,,
38.4531250000,4,-0.5277100205,,,
38.4687500000,4,-0.9527739882,,,
38.4843750000,4,-1.1699520350,,,
38.5000000000,4,-1.0501480103,,,
38.5156250000,4,-0.6231384277,,,
38.5312500000,4,-0.0575256310,,,
38.5468750000,4,0.4183731079,,,
38.5625000000,4,0.6184464097,,,
38.5781250000,4,0.4628219903,,,
38.5937500000,4,0.0146408100,,,
38.6093750000,4,-0.5455017090,,,
38.6250000000,4,-1.0040440559,,,
38.6406250000,4,-1.1601639986,,,
38.6562500000,4,-0.9180374146,,,
38.6718750000,4,-0.3002625108,,,
38.6875000000,4,0.5387421250,,,
38.7031250000,4,1.3769609928,,,
38.7187500000,4,1.9878079891,,,
38.7343750000,4,2.2200388908,,,
38.7500000000,4,2.0515060425,,,
38.7656250000,4,1.6149139404,,,
38.7812500000,4,1.1230930090,,,
38.7968750000,4,0.7807540894,,,
38.8125000000,4,0.7138596177,,,
38.8281250000,4,0.9111557007,,,
38.8437500000,4,1.2606199980,,,
38.8593750000,4,1.6112289429,,,
38.8750000000,4,1.8525539637,,,
38.8906250000,4,1.9619220495,,,
38.9062500000,4,1.9629750252,,,
38.9218750000,4,1.8868030310,,,
38.9375000000,4,1.7386319637,,,
38.9531250000,4,1.4783099890,,,
38.9687500000,4,1.0990370512,,,
38.9843750000,4,0.6324080825,,,
39.0000000000,4,0.1675262004,,,
39.0156250000,4,-0.2083435059,,,
39.0312500000,4,-0.4506683052,,,
39.0468750000,4,-0.5798950195,,,
39.0625000000,4,-0.6498488784,,,
39.0781250000,4,-0.6994019151,,,
39.0937500000,4,-0.7330703735,,,
39.1093750000,4,-0.7313842773,,,
39.1250000000,4,-0.6901245117,,,
39.1406250000,4,-0.6535720825,,,
39.1562500000,4,-0.6809769273,,,
39.1718750000,4,-0.7784729004,,,
39.1875000000,4,-0.9027863145,,,
39.2031250000,4,-0.9409943223,,,
39.2187500000,4,-0.7992858887,,,
39.2343750000,4,-0.4628525078,,,
39.2500000000,4,-0.0305480994,,,
39.2656250000,4,0.3282851875,,,
39.2812500000,4,0.4665527046,,,
39.2968750000,4,0.3161239922,,,
39.3125000000,4,-0.0699005127,,,
39.3281250000,4,-0.5584868789,,,
39.3437500000,4,-0.9957504272,,,
39.3593750000,4,-1.2729870081,,,
39.3750000000,4,-1.3394550085,,,
39.3906250000,4,-1.2122119665,,,
39.4062500000,4,-0.9555205703,,,
39.4218750000,4,-0.6624755859,,,
39.4375000000,4,-0.4192276001,,,
39.4531250000,4,-0.2804337144,,,
39.4687500000,4,-0.2706299126,,,
39.4843750000,4,-0.3716582954,,,
39.5000000000,4,-0.5401992798,,,
39.5156250000,4,-0.7424011230,,,
39.5312500000,4,-0.9604187012,,,
39.5468750000,4,-1.1716610193,,,
39.5625000000,4,-1.3398209810,,,
39.5781250000,4,-1.4190059900,,,
39.5937500000,4,-1.3744510412,,,
39.6093750000,4,-1.2306439877,,,
39.6250000000,4,-1.0501099825,,,
39.6406250000,4,-0.9372481704,,,
39.6562500000,4,-0.9530181885,,,
39.6718750000,4,-1.0844960213,,,
39.6875000000,4,-1.2372360229,,,
39.7031250000,4,-1.3009109497,,,
39.7187500000,4,-1.2042239904,,,
39.7343750000,4,-0.9587172866,,,
39.7500000000,4,-0.6513671875,,,
39.7656250000,4,-0.3928909004,,,
39.7812500000,4,-0.2602385879,,,
39.7968750000,4,-0.2752838135,,,
39.8125000000,4,-0.4040375054,,,
39.8281250000,4,-0.5734252930,,,
39.8437500000,4,-0.7037734985,,,
39.8593750000,4,-0.7105103135,,,
39.8750000000,4,-0.5382614136,,,
39.8906250000,4,-0.1594467014,,,
39.9062500000,4,0.3911285102,,,
39.9218750000,4,1.0310289860,,,
39.9375000000,4,1.6314389706,,,
39.9531250000,4,2.0898211002,,,
39.9687500000,4,2.3311839104,,,
39.9843750000,4,2.3423390388,,,
40.0000000000,5,2.1702799797,,,
40.0156250000,5,1.8982770443,,,
40.0312500000,5,1.6181950569,,,
40.0468750000,5,1.4014819860,,,
40.0625000000,5,1.2702180147,,,
40.0781250000,5,1.1909179688,,,
40.0937500000,5,1.1166080236,,,
40.1093750000,5,1.0008469820,,,
40.1250000000,5,0.8394011855,,,
40.1406250000,5,0.6714934707,,,
40.1562500000,5,0.5463942885,,,
40.1718750000,5,0.4870910943,,,
40.1875000000,5,0.4491730034,,,
40.2031250000,5,0.3599396050,,,
40.2187500000,5,0.1404190063,,,
40.2343750000,5,-0.2007445991,,,
40.2500000000,5,-0.5593718886,,,
40.2656250000,5,-0.7831038833,,,
40.2812500000,5,-0.7461013794,,,
40.2968750000,5,-0.4426040947,,,
40.3125000000,5,0.0062789922,,,
40.3281250000,5,0.4099425972,,,
40.3437500000,5,0.6016921997,,,
40.3593750000,5,0.5431975722,,,
40.3750000000,5,0.3143387139,,,
40.3906250000,5,0.0710830688,,,
40.4062500000,5,-0.0583572388,,,
40.4218750000,5,-0.0447311401,,,
40.4375000000,5,0.0522918701,,,
40.4531250000,5,0.1519318074,,,
40.4687500000,5,0.2250366062,,,
40.4843750000,5,0.3085480034,,,
40.5000000000,5,0.4695205986,,,
40.5156250000,5,0.7320098877,,,
40.5312500000,5,1.0431900024,,,
40.5468750000,5,1.2799609900,,,
40.5625000000,5,1.3197100163,,,
40.5781250000,5,1.0988160372,,,
40.5937500000,5,0.6619033813,,,
40.6093750000,5,0.1334533989,,,
40.6250000000,5,-0.3459244072,,,
40.6406250000,5,-0.6612091064,,,
40.6562500000,5,-0.7668991089,,,
40.6718750000,5,-0.6835327148,,,
40.6875000000,5,-0.4924927056,,,
40.7031250000,5,-0.2918548882,,,
40.7187500000,5,-0.1951293945,,,
40.7343750000,5,-0.2618561089,,,
40.7500000000,5,-0.4734039009,,,
40.7656250000,5,-0.7510452271,,,
40.7812500000,5,-0.9801483154,,,
40.7968750000,5,-1.0776669979,,,
40.8125000000,5,-1.0402070284,,,
40.8281250000,5,-0.9153748155,,,
40.8437500000,5,-0.7843704224,,,
40.8593750000,5,-0.7005004883,,,
40.8750000000,5,-0.6501312256,,,
40.8906250000,5,-0.5786284804,,,
40.9062500000,5,-0.4329986870,,,
40.9218750000,5,-0.1878204048,,,
40.9375000000,5,0.1189879999,,,
40.9531250000,5,0.4136353135,,,
40.9687500000,5,0.6328734756,,,
40.9843750000,5,0.7525634766,,,
41.0000000000,5,0.7784119248,,,
41.0156250000,5,0.7122344971,,,
41.0312500000,5,0.5443726182,,,
41.0468750000,5,0.2712784111,,,
41.0625000000,5,-0.0827407837,,,
41.0781250000,5,-0.4772490859,,,
41.0937500000,5,-0.8385695815,,,
41.1093750000,5,-1.1064000130,,,
41.1250000000,5,-1.2480009794,,,
41.1406250000,5,-1.2803649902,,,
41.1562500000,5,-1.2244189978,,,
41.1718750000,5,-1.1175229549,,,
41.1875000000,5,-0.9795227051,,,
41.2031250000,5,-0.8076400757,,,
41.2187500000,5,-0.5842667222,,,
41.2343750000,5,-0.3044357002,,,
41.2500000000,5,0.0287475605,,,
41.2656250000,5,0.3676224053,,,
41.2812500000,5,0.6490020752,,,
41.2968750000,5,0.8223037720,,,
41.3125000000,5,0.8580170274,,,
41.3281250000,5,0.7838134766,,,
41.3437500000,5,0.6702576280,,,
41.3593750000,5,0.5966873169,,,
41.3750000000,5,0.6239089966,,,
41.3906250000,5,0.7743607163,,,
41.4062500000,5,1.0075839758,,,
41.4218750000,5,1.2682720423,,,
41.4375000000,5,1.4782710075,,,
41.4531250000,5,1.5837780237,,,
41.4687500000,5,1.5553669930,,,
41.4843750000,5,1.3909529448,,,
41.5000000000,5,1.1164929867,,,
41.5156250000,5,0.7863159180,,,
41.5312500000,5,0.4720382988,,,
41.5468750000,5,0.2392577976,,,
41.5625000000,5,0.1260605007,,,
41.5781250000,5,0.1118317023,,,
41.5937500000,5,0.1338654011,,,
41.6093750000,5,0.1140441969,,,
41.6250000000,5,0.0164108295,,,
41.6406250000,5,-0.1403580010,,,
41.6562500000,5,-0.3108825982,,,
41.6718750000,5,-0.4406814873,,,
41.6875000000,5,-0.5242462158,,,
41.7031250000,5,-0.5998764038,,,
41.7187500000,5,-0.7157515883,,,
41.7343750000,5,-0.8981552124,,,
41.7500000000,5,-1.1232759953,,,
41.7656250000,5,-1.3478779793,,,
41.7812500000,5,-1.5227890015,,,
41.7968750000,5,-1.6449810266,,,
41.8125000000,5,-1.7624739408,,,
41.8281250000,5,-1.9405590296,,,
41.8437500000,5,-2.2150270939,,,
41.8593750000,5,-2.5396420956,,,
41.8750000000,5,-2.8036348820,,,
41.8906250000,5,-2.8691709042,,,
41.9062500000,5,-2.6549680233,,,
41.9218750000,5,-2.1767039299,,,
41.9375000000,5,-1.5464709997,,,
41.9531250000,5,-0.9084548950,,,
41.9687500000,5,-0.3591080010,,,
41.9843750000,5,0.0880432129,,,
42.0000000000,5,0.5013884902,,,
42.0156250000,5,0.9651337266,,,
42.0312500000,5,1.5285489559,,,
42.0468750000,5,2.1519999504,,,
42.0625000000,5,2.7328870296,,,
42.0781250000,5,3.1550140381,,,
42.0937500000,5,3.3552780151,,,
42.1093750000,5,3.3440699577,,,
42.1250000000,5,3.1517560482,,,
42.1406250000,5,2.8302459717,,,
42.1562500000,5,2.3805849552,,,
42.1718750000,5,1.7830890417,,,
42.1875000000,5,1.0485529900,,,
42.2031250000,5,0.2377014011,,,
42.2187500000,5,-0.5281981826,,,
42.2343750000,5,-1.1000599861,,,
42.2500000000,5,-1.3573609591,,,
42.2656250000,5,-1.2872619629,,,
42.2812500000,5,-0.9862976074,,,
42.2968750000,5,-0.6349411011,,,
42.3125000000,5,-0.3830414116,,,
42.3281250000,5,-0.2801361084,,,
42.3437500000,5,-0.2473984063,,,
42.3593750000,5,-0.1406096965,,,
42.3750000000,5,0.1451034993,,,
42.3906250000,5,0.5825194716,,,
42.4062500000,5,0.9962081909,,,
42.4218750000,5,1.1455149651,,,
42.4375000000,5,0.8602294922,,,
42.4531250000,5,0.1420975029,,,
42.4687500000,5,-0.8055953979,,,
42.4843750000,5,-1.6715999842,,,
42.5000000000,5,-2.1587450504,,,
42.5156250000,5,-2.1351320744,,,
42.5312500000,5,-1.6486359835,,,
42.5468750000,5,-0.9175415039,,,
42.5625000000,5,-0.1980590969,,,
42.5781250000,5,0.3114700019,,,
42.5937500000,5,0.5352097154,,,
42.6093750000,5,0.5368881226,,,
42.6250000000,5,0.4256516099,,,
42.6406250000,5,0.3186188042,,,
42.6562500000,5,0.2970046997,,,
42.6718750000,5,0.3643417060,,,
42.6875000000,5,0.4925537109,,,
42.7031250000,5,0.6305161119,,,
42.7187500000,5,0.7416762710,,,
42.7343750000,5,0.7936248779,,,
42.7500000000,5,0.7794570923,,,
42.7656250000,5,0.7018585205,,,
42.7812500000,5,0.5871887207,,,
42.7968750000,5,0.4646911919,,,
42.8125000000,5,0.3769530952,,,
42.8281250000,5,0.3341827095,,,
42.8437500000,5,0.2986831963,,,
42.8593750000,5,0.2094803005,,,
42.8750000000,5,0.0172653198,,,
42.8906250000,5,-0.2782745063,,,
42.9062500000,5,-0.6009215713,,,
42.9218750000,5,-0.8551483154,,,
42.9375000000,5,-0.9714890122,,,
42.9531250000,5,-0.9538956285,,,
42.9687500000,5,-0.8709334731,,,
42.9843750000,5,-0.8038787842,,,
43.0000000000,5,-0.7747191787,,,
43.0156250000,5,-0.7549514771,,,
43.0312500000,5,-0.6812744141,,,
43.0468750000,5,-0.5287322998,,,
43.0625000000,5,-0.3273009956,,,
43.0781250000,5,-0.1593323052,,,
43.0937500000,5,-0.0902404785,,,
43.1093750000,5,-0.0918655396,,,
43.1250000000,5,-0.0680465698,,,
43.1406250000,5,0.1000977010,,,
43.1562500000,5,0.4537582099,,,
43.1718750000,5,0.9258422852,,,
43.1875000000,5,1.3660579920,,,
43.2031250000,5,1.6399379969,,,
43.2187500000,5,1.7037119865,,,
43.2343750000,5,1.6092300415,,,
43.2500000000,5,1.4596860409,,,
43.2656250000,5,1.3227009773,,,
43.2812500000,5,1.1980899572,,,
43.2968750000,5,1.0288619995,,,
43.3125000000,5,0.7918395996,,,
43.3281250000,5,0.5202636719,,,
43.3437500000,5,0.2915421128,,,
43.3593750000,5,0.1673126072,,,
43.3750000000,5,0.1428070068,,,
43.3906250000,5,0.1159591973,,,
43.4062500000,5,-0.0200424194,,,
43.4218750000,5,-0.3329696953,,,
43.4375000000,5,-0.7805252075,,,
43.4531250000,5,-1.2358399630,,,
43.4687500000,5,-1.5643459558,,,
43.4843750000,5,-1.6965329647,,,
43.5000000000,5,-1.6465990543,,,
43.5156250000,5,-1.4580919743,,,
43.5312500000,5,-1.1771010160,,,
43.5468750000,5,-0.8392562866,,,
43.5625000000,5,-0.4808883965,,,
43.5781250000,5,-0.1849517971,,,
43.5937500000,5,-0.0596160889,,,
43.6093750000,5,-0.1796416938,,,
43.6250000000,5,-0.5244827271,,,
43.6406250000,5,-0.9533538818,,,
43.6562500000,5,-1.2642439604,,,
43.6718750000,5,-1.3011549711,,,
43.6875000000,5,-1.0574719906,,,
43.7031250000,5,-0.6666107178,,,
43.7187500000,5,-0.3316498101,,,
43.7343750000,5,-0.2090682983,,,
43.7500000000,5,-0.3151778877,,,
43.7656250000,5,-0.5166168213,,,
43.7812500000,5,-0.6265563965,,,
43.7968750000,5,-0.5251389146,,,
43.8125000000,5,-0.2275009006,,,
43.8281250000,5,0.1520538032,,,
43.8437500000,5,0.4744949043,,,
43.8593750000,5,0.6614990234,,,
43.8750000000,5,0.7255324721,,,
43.8906250000,5,0.7358016968,,,
43.9062500000,5,0.7532653809,,,
43.9218750000,5,0.7795104980,,,
43.9375000000,5,0.7594832778,,,
43.9531250000,5,0.6392211914,,,
43.9687500000,5,0.4195632935,,,
43.9843750000,5,0.1715774983,,,
44.0000000000,5,0.0125045804,,,
44.0156250000,5,0.0386276208,,,
44.0312500000,5,0.2713699043,,,
44.0468750000,5,0.6320266724,,,
44.0625000000,5,0.9912871718,,,
44.0781250000,5,1.2142410278,,,
44.0937500000,5,1.2118610144,,,
44.1093750000,5,0.9749069214,,,
44.1250000000,5,0.5599060059,,,
44.1406250000,5,0.0489730798,,,
44.1562500000,5,-0.4517821968,,,
44.1718750000,5,-0.8476790786,,,
44.1875000000,5,-1.0979460478,,,
44.2031250000,5,-1.1929470301,,,
44.2187500000,5,-1.1502230167,,,
44.2343750000,5,-1.0046080351,,,
44.2500000000,5,-0.8088607788,,,
44.2656250000,5,-0.6084517837,,,
44.2812500000,5,-0.4305343926,,,
44.2968750000,5,-0.2833481133,,,
44.3125000000,5,-0.1595840007,,,
44.3281250000,5,-0.0521545410,,,
44.3437500000,5,0.0316238403,,,
44.3593750000,5,0.0593795814,,,
44.3750000000,5,-0.0054779048,,,
44.3906250000,5,-0.1666793972,,,
44.4062500000,5,-0.4025650024,,,
44.4218750000,5,-0.6653900146,,,
44.4375000000,5,-0.9095993042,,,
44.4531250000,5,-1.0987930298,,,
44.4687500000,5,-1.2024539709,,,
44.4843750000,5,-1.1940079927,,,
44.5000000000,5,-1.0201339722,,,
44.5156250000,5,-0.6609191895,,,
44.5312500000,5,-0.1435393989,,,
44.5468750000,5,0.4187012017,,,
44.5625000000,5,0.8693084717,,,
44.5781250000,5,1.0752179623,,,
44.5937500000,5,0.9926909804,,,
44.6093750000,5,0.7137680054,,,
44.6250000000,5,0.4133071899,,,
44.6406250000,5,0.2506713867,,,
44.6562500000,5,0.2891159058,,,
44.6718750000,5,0.4775162041,,,
44.6875000000,5,0.6894531250,,,
44.7031250000,5,0.8293839097,,,
44.7187500000,5,0.8844528198,,,
44.7343750000,5,0.9305800796,,,
44.7500000000,5,1.0538560152,,,
44.7656250000,5,1.2890779972,,,
44.7812500000,5,1.5874099731,,,
44.7968750000,5,1.8303220272,,,
44.8125000000,5,1.8978730440,,,
44.8281250000,5,1.7414319515,,,
44.8437500000,5,1.4045029879,,,
44.8593750000,5,0.9941939712,,,
44.8750000000,5,0.6254348755,,,
44.8906250000,5,0.3669509888,,,
44.9062500000,5,0.2075576931,,,
44.9218750000,5,0.0969390869,,,
44.9375000000,5,-0.0376357995,,,
44.9531250000,5,-0.2156981975,,,
44.9687500000,5,-0.3931351006,,,
44.9843750000,5,-0.5016098022,,,
45.0000000000,5,-0.4849930108,,,
45.0156250000,5,-0.3526229858,,,
45.0312500000,5,-0.1506271064,,,
45.0468750000,5,0.0410614014,,,
45.0625000000,5,0.1965713948,,,
45.0781250000,5,0.3517302871,,,
45.0937500000,5,0.5612487793,,,
45.1093750000,5,0.8562545776,,,
45.1250000000,5,1.1781619787,,,
45.1406250000,5,1.4001619816,,,
45.1562500000,5,1.3976440430,,,
45.1718750000,5,1.1309889555,,,
45.1875000000,5,0.6863021851,,,
45.2031250000,5,0.2309112996,,,
45.2187500000,5,-0.0955734327,,,
45.2343750000,5,-0.2553406060,,,
45.2500000000,5,-0.3235397041,,,
45.2656250000,5,-0.4173659980,,,
45.2812500000,5,-0.6213150024,,,
45.2968750000,5,-0.9168319702,,,
45.3125000000,5,-1.2181550264,,,
45.3281250000,5,-1.4321819544,,,
45.3437500000,5,-1.5013810396,,,
45.3593750000,5,-1.4462280273,,,
45.3750000000,5,-1.3284759521,,,
45.3906250000,5,-1.2062530518,,,
45.4062500000,5,-1.1209559441,,,
45.4218750000,5,-1.0711359978,,,
45.4375000000,5,-1.0439449549,,,
45.4531250000,5,-1.0295259953,,,
45.4687500000,5,-1.0261759758,,,
45.4843750000,5,-1.0401990414,,,
45.5000000000,5,-1.0794600248,,,
45.5156250000,5,-1.1488649845,,,
45.5312500000,5,-1.2222820520,,,
45.5468750000,5,-1.2727810144,,,
45.5625000000,5,-1.2710419893,,,
45.5781250000,5,-1.1870800257,,,
45.5937500000,5,-1.0146939754,,,
45.6093750000,5,-0.7815474868,,,
45.6250000000,5,-0.5175170898,,,
45.6406250000,5,-0.2469864041,,,
45.6562500000,5,0.0361328088,,,
45.6718750000,5,0.3516311944,,,
45.6875000000,5,0.7133483887,,,
45.7031250000,5,1.0975270271,,,
45.7187500000,5,1.4471820593,,,
45.7343750000,5,1.6908420324,,,
45.7500000000,5,1.7772370577,,,
45.7656250000,5,1.7195889950,,,
45.7812500000,5,1.5769729614,,,
45.7968750000,5,1.4440380335,,,
45.8125000000,5,1.3963320255,,,
45.8281250000,5,1.4442210197,,,
45.8437500000,5,1.5305019617,,,
45.8593750000,5,1.5547410250,,,
45.8750000000,5,1.4107060432,,,
45.8906250000,5,1.0689320564,,,
45.9062500000,5,0.5839843750,,,
45.9218750000,5,0.0847702026,,,
45.9375000000,5,-0.2825011909,,,
45.9531250000,5,-0.4371185005,,,
45.9687500000,5,-0.3884887993,,,
45.9843750000,5,-0.2502593994,,,
46.0000000000,5,-0.1792221069,,,
46.0156250000,5,-0.2994765937,,,
46.0312500000,5,-0.6462631226,,,
46.0468750000,5,-1.1274340153,,,
46.0625000000,5,-1.5937500000,,,
46.0781250000,5,-1.8768160343,,,
46.0937500000,5,-1.8743740320,,,
46.1093750000,5,-1.5679399967,,,
46.1250000000,5,-1.0093309879,,,
46.1406250000,5,-0.3033981025,,,
46.1562500000,5,0.4275969863,,,
46.1718750000,5,1.0616149902,,,
46.1875000000,5,1.4955899715,,,
46.2031250000,5,1.6567989588,,,
46.2187500000,5,1.5353239775,,,
46.2343750000,5,1.1959079504,,,
46.2500000000,5,0.7653961182,,,
46.2656250000,5,0.3730697930,,,
46.2812500000,5,0.0914459229,,,
46.2968750000,5,-0.0874023363,,,
46.3125000000,5,-0.2275619954,,,
46.3281250000,5,-0.3904190063,,,
46.3437500000,5,-0.5749663711,,,
46.3593750000,5,-0.7178574204,,,
46.3750000000,5,-0.7688369751,,,
46.3906250000,5,-0.7285537720,,,
46.4062500000,5,-0.6707993150,,,
46.4218750000,5,-0.6843261719,,,
46.4375000000,5,-0.7967681885,,,
46.4531250000,5,-0.9282761216,,,
46.4687500000,5,-0.9372786880,,,
46.4843750000,5,-0.7425765991,,,
46.5000000000,5,-0.3851394951,,,
46.5156250000,5,-0.0269393902,,,
46.5312500000,5,0.1334991008,,,
46.5468750000,5,0.0089416504,,,
46.5625000000,5,-0.3437500000,,,
46.5781250000,5,-0.7672348022,,,
46.5937500000,5,-1.1188280582,,,
46.6093750000,5,-1.3462909460,,,
46.6250000000,5,-1.4845199585,,,
46.6406250000,5,-1.5634919405,,,
46.6562500000,5,-1.5644680262,,,
46.6718750000,5,-1.4033969641,,,
46.6875000000,5,-1.0194699764,,,
46.7031250000,5,-0.4402236938,,,
46.7187500000,5,0.1957397014,,,
46.7343750000,5,0.7299575806,,,
46.7500000000,5,1.0705109835,,,
46.7656250000,5,1.2480469942,,,
46.7812500000,5,1.3787610531,,,
46.7968750000,5,1.5638580322,,,
46.8125000000,5,1.8228909969,,,
46.8281250000,5,2.0532529354,,,
46.8437500000,5,2.1419830322,,,
46.8593750000,5,2.0302579403,,,
46.8750000000,5,1.7556300163,,,
46.8906250000,5,1.4224239588,,,
46.9062500000,5,1.1258469820,,,
46.9218750000,5,0.8804625869,,,
46.9375000000,5,0.6418303847,,,
46.9531250000,5,0.3460845947,,,
46.9687500000,5,-0.0223083496,,,
46.9843750000,5,-0.4385757148,,,
47.0000000000,5,-0.8293762207,,,
47.0156250000,5,-1.1191860437,,,
47.0312500000,5,-1.2851639986,,,
47.0468750000,5,-1.3415069580,,,
47.0625000000,5,-1.3237080574,,,
47.0781250000,5,-1.2601239681,,,
47.0937500000,5,-1.1413650513,,,
47.1093750000,5,-0.9476928711,,,
47.1250000000,5,-0.6795349121,,,
47.1406250000,5,-0.3828200996,,,
47.1562500000,5,-0.1513901055,,,
47.1718750000,5,-0.0520858802,,,
47.1875000000,5,-0.1034697965,,,
47.2031250000,5,-0.2444076985,,,
47.2187500000,5,-0.3870468140,,,
47.2343750000,5,-0.4608612061,,,
47.2500000000,5,-0.4653320014,,,
47.2656250000,5,-0.4501571953,,,
47.2812500000,5,-0.4722366035,,,
47.2968750000,5,-0.5335006714,,,
47.3125000000,5,-0.5689392090,,,
47.3281250000,5,-0.5070189834,,,
47.3437500000,5,-0.3086318970,,,
47.3593750000,5,-0.0162124597,,,
47.3750000000,5,0.2677077949,,,
47.3906250000,5,0.4322510064,,,
47.4062500000,5,0.4482040107,,,
47.4218750000,5,0.3570404053,,,
47.4375000000,5,0.2395095974,,,
47.4531250000,5,0.1630095989,,,
47.4687500000,5,0.1482010037,,,
47.4843750000,5,0.1722411960,,,
47.5000000000,5,0.2114333957,,,
47.5156250000,5,0.2643280029,,,
47.5312500000,5,0.3352585137,,,
47.5468750000,5,0.4251174927,,,
47.5625000000,5,0.5099105835,,,
47.5781250000,5,0.5509871840,,,
47.5937500000,5,0.5332642198,,,
47.6093750000,5,0.4592514038,,,
47.6250000000,5,0.3411101997,,,
47.6406250000,5,0.1879577935,,,
47.6562500000,5,-0.0017089840,,,
47.6718750000,5,-0.2403412014,,,
47.6875000000,5,-0.5168839097,,,
47.7031250000,5,-0.7958374023,,,
47.7187500000,5,-1.0195389986,,,
47.7343750000,5,-1.1260989904,,,
47.7500000000,5,-1.0839610100,,,
47.7656250000,5,-0.8984451294,,,
47.7812500000,5,-0.6201248169,,,
47.7968750000,5,-0.2969666123,,,
47.8125000000,5,0.0200729407,,,
47.8281250000,5,0.3067702949,,,
47.8437500000,5,0.5458983779,,,
47.8593750000,5,0.7346190810,,,
47.8750000000,5,0.8840789795,,,
47.8906250000,5,0.9998779297,,,
47.9062500000,5,1.0994260311,,,
47.9218750000,5,1.1922450066,,,
47.9375000000,5,1.2680660486,,,
47.9531250000,5,1.3165440559,,,
47.9687500000,5,1.3291929960,,,
47.9843750000,5,1.2951350212,,,
48.0000000000,6,1.2021410465,,,
48.0156250000,6,1.0414199829,,,
48.0312500000,6,0.8017653823,,,
48.0468750000,6,0.4949341118,,,
48.0625000000,6,0.1519089043,,,
48.0781250000,6,-0.1692734063,,,
48.0937500000,6,-0.4007186890,,,
48.1093750000,6,-0.4944153130,,,
48.1250000000,6,-0.4494247139,,,
48.1406250000,6,-0.3312225044,,,
48.1562500000,6,-0.2275314033,,,
48.1718750000,6,-0.2131958008,,,
48.1875000000,6,-0.2865523994,,,
48.2031250000,6,-0.3812561035,,,
48.2187500000,6,-0.3881607056,,,
48.2343750000,6,-0.2651900947,,,
48.2500000000,6,-0.0478591882,,,
48.2656250000,6,0.1515655965,,,
48.2812500000,6,0.2147597969,,,
48.2968750000,6,0.1110763997,,,
48.3125000000,6,-0.1014252007,,,
48.3281250000,6,-0.2825851142,,,
48.3437500000,6,-0.3205794990,,,
48.3593750000,6,-0.1679535061,,,
48.3750000000,6,0.1243361980,,,
48.3906250000,6,0.1243361980,,,
48.4062500000,6,0.1243361980,,,
48.4218750000,6,0.1243361980,,,
48.4375000000,6,0.1243361980,,,
48.4531250000,6,0.1243361980,,,
48.4687500000,6,0.1243361980,,,
48.4843750000,6,0.1243361980,,,
48.5000000000,6,0.1243361980,,,
48.5156250000,6,0.1243361980,,,
48.5312500000,6,0.1243361980,,,
48.5468750000,6,0.1243361980,,,
48.5625000000,6,0.1243361980,,,
48.5781250000,6,0.1243361980,,,
48.5937500000,6,0.1243361980,,,
48.6093750000,6,0.1243361980,,,
48.6250000000,6,0.1243361980,,,
48.6406250000,6,0.1243361980,,,
48.6562500000,6,0.1243361980,,,
48.6718750000,6,0.1243361980,,,
48.6875000000,6,0.1243361980,,,
48.7031250000,6,0.1243361980,,,
48.7187500000,6,0.1243361980,,,
48.7343750000,6,0.1243361980,,,
48.7500000000,6,0.1243361980,,,
48.7656250000,6,0.1243361980,,,
48.7812500000,6,0.1243361980,,,
48.7968750000,6,0.1243361980,,,
48.8125000000,6,0.1243361980,,,
48.8281250000,6,0.1243361980,,,
48.8437500000,6,0.1243361980,,,
48.8593750000,6,0.1243361980,,,
48.8750000000,6,0.1243361980,,,
48.8906250000,6,0.1243361980,,,
48.9062500000,6,0.1243361980,,,
48.9218750000,6,0.1243361980,,,
48.9375000000,6,0.1243361980,,,
48.9531250000,6,0.1243361980,,,
48.9687500000,6,0.1243361980,,,
48.9843750000,6,0.1243361980,,,
49.0000000000,6,0.1243361980,,,
49.0156250000,6,0.1243361980,,,
49.0312500000,6,0.1243361980,,,
49.0468750000,6,0.1243361980,,,
49.0625000000,6,0.1243361980,,,
49.0781250000,6,0.1243361980,,,
49.0937500000,6,0.1243361980,,,
49.1093750000,6,0.1243361980,,,
49.1250000000,6,0.1243361980,,,
49.1406250000,6,0.1243361980,,,
49.1562500000,6,0.1243361980,,,
49.1718750000,6,0.1243361980,,,
49.1875000000,6,0.1243361980,,,
49.2031250000,6,0.1243361980,,,
49.2187500000,6,0.1243361980,,,
49.2343750000,6,0.1243361980,,,
49.2500000000,6,0.1243361980,,,
49.2656250000,6,0.1243361980,,,
49.2812500000,6,0.1243361980,,,
49.2968750000,6,0.1243361980,,,
49.3125000000,6,0.1243361980,,,
49.3281250000,6,0.1243361980,,,
49.3437500000,6,0.1243361980,,,
49.3593750000,6,0.1243361980,,,
49.3750000000,6,0.1243361980,,,
49.3906250000,6,0.1243361980,,,
49.4062500000,6,0.1243361980,,,
49.4218750000,6,0.1243361980,,,
49.4375000000,6,0.1243361980,,,
49.4531250000,6,0.1243361980,,,
49.4687500000,6,0.1243361980,,,
49.4843750000,6,0.1243361980,,,
49.5000000000,6,0.1243361980,,,
49.5156250000,6,0.1243361980,,,
49.5312500000,6,0.1243361980,,,
49.5468750000,6,0.1243361980,,,
49.5625000000,6,0.1243361980,,,
49.5781250000,6,0.1243361980,,,
49.5937500000,6,0.1243361980,,,
49.6093750000,6,0.1243361980,,,
49.6250000000,6,0.1243361980,,,
49.6406250000,6,0.1243361980,,,
49.6562500000,6,0.1243361980,,,
49.6718750000,6,0.1243361980,,,
49.6875000000,6,0.1243361980,,,
49.7031250000,6,0.1243361980,,,
49.7187500000,6,0.1243361980,,,
49.7343750000,6,0.1243361980,,,
49.7500000000,6,0.1243361980,,,
49.7656250000,6,0.1243361980,,,
49.7812500000,6,0.1243361980,,,
49.7968750000,6,0.1243361980,,,
49.8125000000,6,0.1243361980,,,
49.8281250000,6,0.1243361980,,,
49.8437500000,6,0.1243361980,,,
49.8593750000,6,0.1243361980,,,
49.8750000000,6,0.1243361980,,,
49.8906250000,6,0.1243361980,,,
49.9062500000,6,0.1243361980,,,
49.9218750000,6,0.1243361980,,,
49.9375000000,6,0.1243361980,,,
49.9531250000,6,0.1243361980,,,
49.9687500000,6,0.1243361980,,,
49.9843750000,6,0.1243361980,,,
50.0000000000,6,0.1243361980,,,
50.0156250000,6,0.1243361980,,,
50.0312500000,6,0.1243361980,,,
50.0468750000,6,0.1243361980,,,
50.0625000000,6,0.1243361980,,,
50.0781250000,6,0.1243361980,,,
50.0937500000,6,0.1243361980,,,
50.1093750000,6,0.1243361980,,,
50.1250000000,6,0.1243361980,,,
50.1406250000,6,0.1243361980,,,
50.1562500000,6,0.1243361980,,,
50.1718750000,6,0.1243361980,,,
50.1875000000,6,0.1243361980,,,
50.2031250000,6,0.1243361980,,,
50.2187500000,6,0.1243361980,,,
50.2343750000,6,0.1243361980,,,
50.2500000000,6,0.1243361980,,,
50.2656250000,6,0.1243361980,,,
50.2812500000,6,0.1243361980,,,
50.2968750000,6,0.1243361980,,,
50.3125000000,6,0.1243361980,,,
50.3281250000,6,0.1243361980,,,
50.3437500000,6,0.1243361980,,,
50.3593750000,6,0.1243361980,,,
50.3750000000,6,0.1243361980,,,
50.3906250000,6,0.1243361980,,,
50.4062500000,6,0.1243361980,,,
50.4218750000,6,0.1243361980,,,
50.4375000000,6,0.1243361980,,,
50.4531250000,6,0.1243361980,,,
50.4687500000,6,0.1243361980,,,
50.4843750000,6,0.1243361980,,,
50.5000000000,6,0.1243361980,,,
50.5156250000,6,0.1243361980,,,
50.5312500000,6,0.1243361980,,,
50.5468750000,6,0.1243361980,,,
50.5625000000,6,0.1243361980,,,
50.5781250000,6,0.1243361980,,,
50.5937500000,6,0.1243361980,,,
50.6093750000,6,0.1243361980,,,
50.6250000000,6,0.1243361980,,,
50.6406250000,6,0.1243361980,,,
50.6562500000,6,0.1243361980,,,
50.6718750000,6,0.1243361980,,,
50.6875000000,6,0.1243361980,,,
50.7031250000,6,0.1243361980,,,
50.7187500000,6,0.1243361980,,,
50.7343750000,6,0.1243361980,,,
50.7500000000,6,0.1243361980,,,
50.7656250000,6,0.1243361980,,,
50.7812500000,6,0.1243361980,,,
50.7968750000,6,0.1243361980,,,
50.8125000000,6,0.1243361980,,,
50.8281250000,6,0.1243361980,,,
50.8437500000,6,0.1243361980,,,
50.8593750000,6,0.1243361980,,,
50.8750000000,6,0.1243361980,,,
50.8906250000,6,0.1243361980,,,
50.9062500000,6,0.1243361980,,,
50.9218750000,6,0.1243361980,,,
50.9375000000,6,0.1243361980,,,
50.9531250000,6,0.1243361980,,,
50.9687500000,6,0.1243361980,,,
50.9843750000,6,0.1243361980,,,
51.0000000000,6,0.1243361980,,,
51.0156250000,6,0.1243361980,,,
51.0312500000,6,0.1243361980,,,
51.0468750000,6,0.1243361980,,,
51.0625000000,6,0.1243361980,,,
51.0781250000,6,0.1243361980,,,
51.0937500000,6,0.1243361980,,,
51.1093750000,6,0.1243361980,,,
51.1250000000,6,0.1243361980,,,
51.1406250000,6,0.1243361980,,,
51.1562500000,6,0.1243361980,,,
51.1718750000,6,0.1243361980,,,
51.1875000000,6,0.1243361980,,,
51.2031250000,6,0.1243361980,,,
51.2187500000,6,0.1243361980,,,
51.2343750000,6,0.1243361980,,,
51.2500000000,6,0.1243361980,,,
51.2656250000,6,0.1243361980,,,
51.2812500000,6,0.1243361980,,,
51.2968750000,6,0.1243361980,,,
51.3125000000,6,0.1243361980,,,
51.3281250000,6,0.1243361980,,,
51.3437500000,6,0.1243361980,,,
51.3593750000,6,0.1243361980,,,
51.3750000000,6,0.1243361980,,,
51.3906250000,6,0.1243361980,,,
51.4062500000,6,0.1243361980,,,
51.4218750000,6,0.1243361980,,,
51.4375000000,6,0.1243361980,,,
51.4531250000,6,0.1243361980,,,
51.4687500000,6,0.1243361980,,,
51.4843750000,6,0.1243361980,,,
51.5000000000,6,0.1243361980,,,
51.5156250000,6,0.1243361980,,,
51.5312500000,6,0.1243361980,,,
51.5468750000,6,0.1243361980,,,
51.5625000000,6,0.1243361980,,,
51.5781250000,6,0.1243361980,,,
51.5937500000,6,0.1243361980,,,
51.6093750000,6,0.1243361980,,,
51.6250000000,6,0.1243361980,,,
51.6406250000,6,0.1243361980,,,
51.6562500000,6,0.1243361980,,,
51.6718750000,6,0.1243361980,,,
51.6875000000,6,0.1243361980,,,
51.7031250000,6,0.1243361980,,,
51.7187500000,6,0.1243361980,,,
51.7343750000,6,0.1243361980,,,
51.7500000000,6,0.1243361980,,,
51.7656250000,6,0.1243361980,,,
51.7812500000,6,0.1243361980,,,
51.7968750000,6,0.1243361980,,,
51.8125000000,6,0.1243361980,,,
51.8281250000,6,0.1243361980,,,
51.8437500000,6,0.1243361980,,,
51.8593750000,6,0.1243361980,,,
51.8750000000,6,0.1243361980,,,
51.8906250000,6,0.1243361980,,,
51.9062500000,6,0.1243361980,,,
51.9218750000,6,0.1243361980,,,
51.9375000000,6,0.1243361980,,,
51.9531250000,6,0.1243361980,,,
51.9687500000,6,0.1243361980,,,
51.9843750000,6,0.1243361980,,,
52.0000000000,6,0.1243361980,,,
52.0156250000,6,0.1243361980,,,
52.0312500000,6,0.1243361980,,,
52.0468750000,6,0.1243361980,,,
52.0625000000,6,0.1243361980,,,
52.0781250000,6,0.1243361980,,,
52.0937500000,6,0.1243361980,,,
52.1093750000,6,0.1243361980,,,
52.1250000000,6,0.1243361980,,,
52.1406250000,6,0.1243361980,,,
52.1562500000,6,0.1243361980,,,
52.1718750000,6,0.1243361980,,,
52.1875000000,6,0.1243361980,,,
52.2031250000,6,0.1243361980,,,
52.2187500000,6,0.1243361980,,,
52.2343750000,6,0.1243361980,,,
52.2500000000,6,0.1243361980,,,
52.2656250000,6,0.1243361980,,,
52.2812500000,6,0.1243361980,,,
52.2968750000,6,0.1243361980,,,
52.3125000000,6,0.1243361980,,,
52.3281250000,6,0.1243361980,,,
52.3437500000,6,0.1243361980,,,
52.3593750000,6,0.1243361980,,,
52.3750000000,6,0.1243361980,,,
52.3906250000,6,0.1243361980,,,
52.4062500000,6,0.1243361980,,,
52.4218750000,6,0.1243361980,,,
52.4375000000,6,0.1243361980,,,
52.4531250000,6,0.1243361980,,,
52.4687500000,6,0.1243361980,,,
52.4843750000,6,0.1243361980,,,
52.5000000000,6,0.1243361980,,,
52.5156250000,6,0.1243361980,,,
52.5312500000,6,0.1243361980,,,
52.5468750000,6,0.1243361980,,,
52.5625000000,6,0.1243361980,,,
52.5781250000,6,0.1243361980,,,
52.5937500000,6,0.1243361980,,,
52.6093750000,6,0.1243361980,,,
52.6250000000,6,0.1243361980,,,
52.6406250000,6,0.1243361980,,,
52.6562500000,6,0.1243361980,,,
52.6718750000,6,0.1243361980,,,
52.6875000000,6,0.1243361980,,,
52.7031250000,6,0.1243361980,,,
52.7187500000,6,0.1243361980,,,
52.7343750000,6,0.1243361980,,,
52.7500000000,6,0.1243361980,,,
52.7656250000,6,0.1243361980,,,
52.7812500000,6,0.1243361980,,,
52.7968750000,6,0.1243361980,,,
52.8125000000,6,0.1243361980,,,
52.8281250000,6,0.1243361980,,,
52.8437500000,6,0.1243361980,,,
52.8593750000,6,0.1243361980,,,
52.8750000000,6,0.1243361980,,,
52.8906250000,6,0.1243361980,,,
52.9062500000,6,0.1243361980,,,
52.9218750000,6,0.1243361980,,,
52.9375000000,6,0.1243361980,,,
52.9531250000,6,0.1243361980,,,
52.9687500000,6,0.1243361980,,,
52.9843750000,6,0.1243361980,,,
53.0000000000,6,0.1243361980,,,
53.0156250000,6,0.1243361980,,,
53.0312500000,6,0.1243361980,,,
53.0468750000,6,0.1243361980,,,
53.0625000000,6,0.1243361980,,,
53.0781250000,6,0.1243361980,,,
53.0937500000,6,0.1243361980,,,
53.1093750000,6,0.1243361980,,,
53.1250000000,6,0.1243361980,,,
53.1406250000,6,0.1243361980,,,
53.1562500000,6,0.1243361980,,,
53.1718750000,6,0.1243361980,,,
53.1875000000,6,0.1243361980,,,
53.2031250000,6,0.1243361980,,,
53.2187500000,6,0.1243361980,,,
53.2343750000,6,0.1243361980,,,
53.2500000000,6,0.1243361980,,,
53.2656250000,6,0.1243361980,,,
53.2812500000,6,0.1243361980,,,
53.2968750000,6,0.1243361980,,,
53.3125000000,6,0.1243361980,,,
53.3281250000,6,0.1243361980,,,
53.3437500000,6,0.1243361980,,,
53.3593750000,6,0.1243361980,,,
53.3750000000,6,0.1243361980,,,
53.3906250000,6,0.1243361980,,,
53.4062500000,6,0.1243361980,,,
53.4218750000,6,0.1243361980,,,
53.4375000000,6,0.1243361980,,,
53.4531250000,6,0.1243361980,,,
53.4687500000,6,0.1243361980,,,
53.4843750000,6,0.1243361980,,,
53.5000000000,6,0.1243361980,,,
53.5156250000,6,0.1243361980,,,
53.5312500000,6,0.1243361980,,,
53.5468750000,6,0.1243361980,,,
53.5625000000,6,0.1243361980,,,
53.5781250000,6,0.1243361980,,,
53.5937500000,6,0.1243361980,,,
53.6093750000,6,0.1243361980,,,
53.6250000000,6,0.1243361980,,,
53.6406250000,6,0.1243361980,,,
53.6562500000,6,0.1243361980,,,
53.6718750000,6,0.1243361980,,,
53.6875000000,6,0.1243361980,,,
53.7031250000,6,0.1243361980,,,
53.7187500000,6,0.1243361980,,,
53.7343750000,6,0.1243361980,,,
53.7500000000,6,0.1243361980,,,
53.7656250000,6,0.1243361980,,,
53.7812500000,6,0.1243361980,,,
53.7968750000,6,0.1243361980,,,
53.8125000000,6,0.1243361980,,,
53.8281250000,6,0.1243361980,,,
53.8437500000,6,0.1243361980,,,
53.8593750000,6,0.1243361980,,,
53.8750000000,6,0.1243361980,,,
53.8906250000,6,0.1243361980,,,
53.9062500000,6,0.1243361980,,,
53.9218750000,6,0.1243361980,,,
53.9375000000,6,0.1243361980,,,
53.9531250000,6,0.1243361980,,,
53.9687500000,6,0.1243361980,,,
53.9843750000,6,0.1243361980,,,
54.0000000000,6,0.1243361980,,,
54.0156250000,6,0.1243361980,,,
54.0312500000,6,0.1243361980,,,
54.0468750000,6,0.1243361980,,,
54.0625000000,6,0.1243361980,,,
54.0781250000,6,0.1243361980,,,
54.0937500000,6,0.1243361980,,,
54.1093750000,6,0.1243361980,,,
54.1250000000,6,0.1243361980,,,
54.1406250000,6,0.1243361980,,,
54.1562500000,6,0.1243361980,,,
54.1718750000,6,0.1243361980,,,
54.1875000000,6,0.1243361980,,,
54.2031250000,6,0.1243361980,,,
54.2187500000,6,0.1243361980,,,
54.2343750000,6,0.1243361980,,,
54.2500000000,6,0.1243361980,,,
54.2656250000,6,0.1243361980,,,
54.2812500000,6,0.1243361980,,,
54.2968750000,6,0.1243361980,,,
54.3125000000,6,0.1243361980,,,
54.3281250000,6,0.1243361980,,,
54.3437500000,6,0.1243361980,,,
54.3593750000,6,0.1243361980,,,
54.3750000000,6,0.1243361980,,,
54.3906250000,6,0.1243361980,,,
54.4062500000,6,0.1243361980,,,
54.4218750000,6,0.1243361980,,,
54.4375000000,6,0.1243361980,,,
54.4531250000,6,0.1243361980,,,
54.4687500000,6,0.1243361980,,,
54.4843750000,6,0.1243361980,,,
54.5000000000,6,0.1243361980,,,
54.5156250000,6,0.1243361980,,,
54.5312500000,6,0.1243361980,,,
54.5468750000,6,0.1243361980,,,
54.5625000000,6,0.1243361980,,,
54.5781250000,6,0.1243361980,,,
54.5937500000,6,0.1243361980,,,
54.6093750000,6,0.1243361980,,,
54.6250000000,6,0.1243361980,,,
54.6406250000,6,0.1243361980,,,
54.6562500000,6,0.1243361980,,,
54.6718750000,6,0.1243361980,,,
54.6875000000,6,0.1243361980,,,
54.7031250000,6,0.1243361980,,,
54.7187500000,6,0.1243361980,,,
54.7343750000,6,0.1243361980,,,
54.7500000000,6,0.1243361980,,,
54.7656250000,6,0.1243361980,,,
54.7812500000,6,0.1243361980,,,
54.7968750000,6,0.1243361980,,,
54.8125000000,6,0.1243361980,,,
54.8281250000,6,0.1243361980,,,
54.8437500000,6,0.1243361980,,,
54.8593750000,6,0.1243361980,,,
54.8750000000,6,0.1243361980,,,
54.8906250000,6,0.1243361980,,,
54.9062500000,6,0.1243361980,,,
54.9218750000,6,0.1243361980,,,
54.9375000000,6,0.1243361980,,,
54.9531250000,6,0.1243361980,,,
54.9687500000,6,0.1243361980,,,
54.9843750000,6,0.1243361980,,,
55.0000000000,6,0.1243361980,,,
55.0156250000,6,0.1243361980,,,
55.0312500000,6,0.1243361980,,,
55.0468750000,6,0.1243361980,,,
55.0625000000,6,0.1243361980,,,
55.0781250000,6,0.1243361980,,,
55.0937500000,6,0.1243361980,,,
55.1093750000,6,0.1243361980,,,
55.1250000000,6,0.1243361980,,,
55.1406250000,6,0.1243361980,,,
55.1562500000,6,0.1243361980,,,
55.1718750000,6,0.1243361980,,,
55.1875000000,6,0.1243361980,,,
55.2031250000,6,0.1243361980,,,
55.2187500000,6,0.1243361980,,,
55.2343750000,6,0.1243361980,,,
55.2500000000,6,0.1243361980,,,
55.2656250000,6,0.1243361980,,,
55.2812500000,6,0.1243361980,,,
55.2968750000,6,0.1243361980,,,
55.3125000000,6,0.1243361980,,,
55.3281250000,6,0.1243361980,,,
55.3437500000,6,0.1243361980,,,
55.3593750000,6,0.1243361980,,,
55.3750000000,6,0.1243361980,,,
55.3906250000,6,0.1243361980,,,
55.4062500000,6,0.1243361980,,,
55.4218750000,6,0.1243361980,,,
55.4375000000,6,0.1243361980,,,
55.4531250000,6,0.1243361980,,,
55.4687500000,6,0.1243361980,,,
55.4843750000,6,0.1243361980,,,
55.5000000000,6,0.1243361980,,,
55.5156250000,6,0.1243361980,,,
55.5312500000,6,0.1243361980,,,
55.5468750000,6,0.1243361980,,,
55.5625000000,6,0.1243361980,,,
55.5781250000,6,0.1243361980,,,
55.5937500000,6,0.1243361980,,,
55.6093750000,6,0.1243361980,,,
55.6250000000,6,0.1243361980,,,
55.6406250000,6,0.1243361980,,,
55.6562500000,6,0.1243361980,,,
55.6718750000,6,0.1243361980,,,
55.6875000000,6,0.1243361980,,,
55.7031250000,6,0.1243361980,,,
55.7187500000,6,0.1243361980,,,
55.7343750000,6,0.1243361980,,,
55.7500000000,6,0.1243361980,,,
55.7656250000,6,0.1243361980,,,
55.7812500000,6,0.1243361980,,,
55.7968750000,6,0.1243361980,,,
55.8125000000,6,0.1243361980,,,
55.8281250000,6,0.1243361980,,,
55.8437500000,6,0.1243361980,,,
55.8593750000,6,0.1243361980,,,
55.8750000000,6,0.1243361980,,,
55.8906250000,6,0.1243361980,,,
55.9062500000,6,0.1243361980,,,
55.9218750000,6,0.1243361980,,,
55.9375000000,6,0.1243361980,,,
55.9531250000,6,0.1243361980,,,
55.9687500000,6,0.1243361980,,,
55.9843750000,6,0.1243361980,,,
56.0000000000,7,0.1243361980,,,
56.0156250000,7,0.1243361980,,,
56.0312500000,7,0.1243361980,,,
56.0468750000,7,0.1243361980,,,
56.0625000000,7,0.1243361980,,,
56.0781250000,7,0.1243361980,,,
56.0937500000,7,0.1243361980,,,
56.1093750000,7,0.1243361980,,,
56.1250000000,7,0.1243361980,,,
56.1406250000,7,0.1243361980,,,
56.1562500000,7,0.1243361980,,,
56.1718750000,7,0.1243361980,,,
56.1875000000,7,0.1243361980,,,
56.2031250000,7,0.1243361980,,,
56.2187500000,7,0.1243361980,,,
56.2343750000,7,0.1243361980,,,
56.2500000000,7,0.1243361980,,,
56.2656250000,7,0.1243361980,,,
56.2812500000,7,0.1243361980,,,
56.2968750000,7,0.1243361980,,,
56.3125000000,7,0.1243361980,,,
