Time:64Hz,Epoch,Channel 1,Event Id,Event Date,Event Duration
0.0000000000,0,0.4571532905,,,
0.0156250000,0,0.1547852010,,,
0.0312500000,0,0.0423583984,,,
0.0468750000,0,0.1326903999,,,
0.0625000000,0,0.3916015923,,,
0.0781250000,0,0.7664794922,,,
0.0937500000,0,1.2039790154,,,
0.1093750000,0,1.6328129768,,,
0.1250000000,0,1.9436039925,,,
0.1406250000,0,2.0009770393,,,
0.1562500000,0,1.6997070313,,,
0.1718750000,0,1.0180660486,,,
0.1875000000,0,0.0522460900,,,
0.2031250000,0,-1.0043950081,,,
0.2187500000,0,-1.9289549589,,,
0.2343750000,0,-2.5532228947,,,
0.2500000000,0,-2.8060300350,,,
0.2656250000,0,-2.7070310116,,,
0.2812500000,0,-2.3492429256,,,
0.2968750000,0,-1.8383790255,,,
0.3125000000,0,-1.2774660587,,,
0.3281250000,0,-0.7409667969,,,
0.3437500000,0,-0.2653808892,,,
0.3593750000,0,0.1176758036,,,
0.3750000000,0,0.3818359077,,,
0.3906250000,0,0.5083007813,,,
0.4062500000,0,0.4801025093,,,
0.4218750000,0,0.3262938857,,,
0.4375000000,0,0.1245116964,,,
0.4531250000,0,-0.0268554706,,,
0.4687500000,0,-0.0283203106,,,
0.4843750000,0,0.1557617038,,,
0.5000000000,0,0.4916991889,,,
0.5156250000,0,0.8625488281,,,
0.5312500000,0,1.1530760527,,,
0.5468750000,0,1.2790529728,,,
0.5625000000,0,1.2285159826,,,
0.5781250000,0,1.0327149630,,,
0.5937500000,0,0.7296143174,,,
0.6093750000,0,0.3408203125,,,
0.6250000000,0,-0.1304931939,,,
0.6406250000,0,-0.6374511719,,,
0.6562500000,0,-1.0997309685,,,
0.6718750000,0,-1.3697509766,,,
0.6875000000,0,-1.3284909725,,,
0.7031250000,0,-0.9488524795,,,
0.7187500000,0,-0.3199462891,,,
0.7343750000,0,0.3580321968,,,
0.7500000000,0,0.8557128906,,,
0.7656250000,0,1.0107419491,,,
0.7812500000,0,0.7890625000,,,
0.7968750000,0,0.2915039063,,,
0.8125000000,0,-0.2944335938,,,
0.8281250000,0,-0.7568358779,,,
0.8437500000,0,-0.9324951172,,,
0.8593750000,0,-0.7617188096,,,
0.8750000000,0,-0.3264159858,,,
0.8906250000,0,0.1837158054,,,
0.9062500000,0,0.5183104873,,,
0.9218750000,0,0.4808349907,,,
0.9375000000,0,0.0391845703,,,
0.9531250000,0,-0.6424561143,,,
0.9687500000,0,-1.2622070313,,,
0.9843750000,0,-1.5209959745,,,
1.0000000000,0,-1.2829589844,,,
1.0156250000,0,-0.7023925781,,,
1.0312500000,0,-0.1695556939,,,
1.0468750000,0,-0.1547852010,,,
1.0625000000,0,-0.9246826172,,,
1.0781250000,0,-2.3830571175,,,
1.0937500000,0,-4.0720210075,,,
1.1093750000,0,-5.3536381721,,,
1.1250000000,0,-5.7501220703,,,
1.1406250000,0,-5.1915278435,,,
1.1562500000,0,-4.1247558594,,,
1.1718750000,0,-3.3181149960,,,
1.1875000000,0,-3.4846189022,,,
1.2031250000,0,-4.9156489372,,,
1.2187500000,0,-7.2487788200,,,
1.2343750000,0,-9.6102285385,,,
1.2500000000,0,-11.0143995285,,,
1.2656250000,0,-10.8513202667,,,
1.2812500000,0,-9.2082519531,,,
1.2968750000,0,-6.8059082031,,,
1.3125000000,0,-4.7071528435,,,
1.3281250000,0,-3.8417971134,,,
1.3437500000,0,-4.7419428825,,,
1.3593750000,0,-7.5333251953,,,
1.3750000000,0,-12.0817899704,,,
1.3906250000,0,-17.9404296875,,,
1.4062500000,0,-24.0708007813,,,
1.4218750000,0,-28.6839599609,,,
1.4375000000,0,-29.5064697266,,,
1.4531250000,0,-24.6943397522,,,
1.4687500000,0,-13.9885301590,,,
1.4843750000,0,0.6365966797,,,
1.5000000000,0,15.4947500229,,,
1.5156250000,0,26.7791690826,,,
1.5312500000,0,32.4510498047,,,
1.5468750000,0,33.1964111328,,,
1.5625000000,0,31.9282207489,,,
1.5781250000,0,31.9954795837,,,
1.5937500000,0,35.2522010803,,,
1.6093750000,0,41.2054405212,,,
1.6250000000,0,47.5791015625,,,
1.6406250000,0,51.8889198303,,,
1.6562500000,0,52.8303184509,,,
1.6718750000,0,50.6451416016,,,
1.6875000000,0,46.4554405212,,,
1.7031250000,0,41.1849403381,,,
1.7187500000,0,34.9470214844,,,
1.7343750000,0,27.2659893036,,,
1.7500000000,0,17.8465595245,,,
1.7656250000,0,7.2208251953,,,
1.7812500000,0,-3.1640629768,,,
1.7968750000,0,-11.4443397522,,,
1.8125000000,0,-16.2174091339,,,
1.8281250000,0,-17.1757793427,,,
1.8437500000,0,-15.2020301819,,,
1.8593750000,0,-11.9237098694,,,
1.8750000000,0,-9.0184326172,,,
1.8906250000,0,-7.6163330078,,,
1.9062500000,0,-8.0000000000,,,
1.9218750000,0,-9.7269287109,,,
1.9375000000,0,-11.9866895676,,,
1.9531250000,0,-13.9903602600,,,
1.9687500000,0,-15.2541503906,,,
1.9843750000,0,-15.6846904755,,,
2.0000000000,0,-15.4755897522,,,
2.0156250000,0,-14.9457998276,,,
2.0312500000,0,-14.3651103973,,,
2.0468750000,0,-13.8895301819,,,
2.0625000000,0,-13.5217304230,,,
2.0781250000,0,-13.1473398209,,,
2.0937500000,0,-12.6072998047,,,
2.1093750000,0,-11.7734403610,,,
2.1250000000,0,-10.6198701859,,,
2.1406250000,0,-9.2329101563,,,
2.1562500000,0,-7.7836909294,,,
2.1718750000,0,-6.4632568359,,,
2.1875000000,0,-5.3792719841,,,
2.2031250000,0,-4.5432128906,,,
2.2187500000,0,-3.8673100471,,,
2.2343750000,0,-3.2467041016,,,
2.2500000000,0,-2.5965580940,,,
2.2656250000,0,-1.9060059786,,,
2.2812500000,0,-1.2443850040,,,
2.2968750000,0,-0.7368164063,,,
2.3125000000,0,-0.5363770127,,,
2.3281250000,0,-0.7495117188,,,
2.3437500000,0,-1.3729250431,,,
2.3593750000,0,-2.2609860897,,,
2.3750000000,0,-3.1392819881,,,
2.3906250000,0,-3.6944580078,,,
2.4062500000,0,-3.6915280819,,,
2.4218750000,0,-3.0899660587,,,
2.4375000000,0,-2.1027829647,,,
2.4531250000,0,-1.1289060116,,,
2.4687500000,0,-0.6162108779,,,
2.4843750000,0,-0.8649901748,,,
2.5000000000,0,-1.8967289925,,,
2.5156250000,0,-3.3974609375,,,
2.5312500000,0,-4.7912597656,,,
2.5468750000,0,-5.4429931641,,,
2.5625000000,0,-4.9002690315,,,
2.5781250000,0,-3.1281740665,,,
2.5937500000,0,-0.5631104112,,,
2.6093750000,0,2.0393071175,,,
2.6250000000,0,3.9324951172,,,
2.6406250000,0,4.7304692268,,,
2.6562500000,0,4.5944819450,,,
2.6718750000,0,4.0838618279,,,
2.6875000000,0,3.8229980469,,,
2.7031250000,0,4.1059570313,,,
2.7187500000,0,4.7637939453,,,
2.7343750000,0,5.2910161018,,,
2.7500000000,0,5.2188720703,,,
2.7656250000,0,4.4294428825,,,
2.7812500000,0,3.2128911018,,,
2.7968750000,0,2.0574951172,,,
2.8125000000,0,1.3122559786,,,
2.8281250000,0,0.9801024795,,,
2.8437500000,0,0.7653809190,,,
2.8593750000,0,0.3096924126,,,
2.8750000000,0,-0.5345458984,,,
2.8906250000,0,-1.6149899960,,,
2.9062500000,0,-2.5914309025,,,
2.9218750000,0,-3.1727290154,,,
2.9375000000,0,-3.2736821175,,,
2.9531250000,0,-3.0300290585,,,
2.9687500000,0,-2.6710209846,,,
2.9843750000,0,-2.3620610237,,,
3.0000000000,0,-2.1129150391,,,
3.0156250000,0,-1.8201899529,,,
3.0312500000,0,-1.3847659826,,,
3.0468750000,0,-0.8090819716,,,
3.0625000000,0,-0.2286376953,,,
3.0781250000,0,0.1639403999,,,
3.0937500000,0,0.2309570014,,,
3.1093750000,0,0.0158691406,,,
3.1250000000,0,-0.2563476861,,,
3.1406250000,0,-0.2705078125,,,
3.1562500000,0,0.1876221001,,,
3.1718750000,0,1.0959470272,,,
3.1875000000,0,2.1470949650,,,
3.2031250000,0,2.8741459846,,,
3.2187500000,0,2.8760991096,,,
3.2343750000,0,2.0072019100,,,
3.2500000000,0,0.4587402046,,,
3.2656250000,0,-1.3157960176,,,
3.2812500000,0,-2.7692871094,,,
3.2968750000,0,-3.4847409725,,,
3.3125000000,0,-3.3287351131,,,
3.3281250000,0,-2.5031740665,,,
3.3437500000,0,-1.5345460176,,,
3.3593750000,0,-1.1333010197,,,
3.3750000000,0,-1.9567869902,,,
3.3906250000,0,-4.3482670784,,,
3.4062500000,0,-8.1217041016,,,
3.4218750000,0,-12.5017099380,,,
3.4375000000,0,-16.3690204620,,,
3.4531250000,0,-18.6732196808,,,
3.4687500000,0,-18.8413105011,,,
3.4843750000,0,-17.0084209442,,,
3.5000000000,0,-13.8829298019,,,
3.5156250000,0,-10.4425001144,,,
3.5312500000,0,-7.5755620003,,,
3.5468750000,0,-5.8787841797,,,
3.5625000000,0,-5.6420898438,,,
3.5781250000,0,-6.7963871956,,,
3.5937500000,0,-8.7917480469,,,
3.6093750000,0,-10.4464101791,,,
3.6250000000,0,-10.1303701401,,,
3.6406250000,0,-6.3405761719,,,
3.6562500000,0,1.3986819983,,,
3.6718750000,0,11.9135704041,,,
3.6875000000,0,22.4985408783,,,
3.7031250000,0,29.9847393036,,,
3.7187500000,0,32.2216796875,,,
3.7343750000,0,29.1385498047,,,
3.7500000000,0,22.7143592834,,,
3.7656250000,0,15.8299598694,,,
3.7812500000,0,10.7957801819,,,
3.7968750000,0,8.4034423828,,,
3.8125000000,0,8.0039062500,,,
3.8281250000,0,8.4221191406,,,
3.8437500000,0,8.8920898438,,,
3.8593750000,0,9.3914785385,,,
3.8750000000,0,10.2742900848,,,
3.8906250000,0,11.5870399475,,,
3.9062500000,0,12.7048301697,,,
3.9218750000,0,12.6507596970,,,
3.9375000000,0,10.7217998505,,,
3.9531250000,0,7.0366210938,,,
3.9687500000,0,2.5538330078,,,
3.9843750000,0,-1.4354250431,,,
4.0000000000,0,-3.9227290154,,,
4.0156250000,0,-4.6003417969,,,
4.0312500000,0,-3.8308110237,,,
4.0468750000,0,-2.3245849609,,,
4.0625000000,0,-0.7681884766,,,
4.0781250000,0,0.3715820014,,,
4.0937500000,0,0.8796386719,,,
4.1093750000,0,0.7613524795,,,
4.1250000000,0,0.1469727010,,,
4.1406250000,0,-0.7366942763,,,
4.1562500000,0,-1.6214599609,,,
4.1718750000,0,-2.2670900822,,,
4.1875000000,0,-2.5235600471,,,
4.2031250000,0,-2.3739008904,,,
4.2187500000,0,-1.9368900061,,,
4.2343750000,0,-1.3961180449,,,
4.2500000000,0,-0.9204102159,,,
4.2656250000,0,-0.6047363281,,,
4.2812500000,0,-0.4725342095,,,
4.2968750000,0,-0.4908446968,,,
4.3125000000,0,-0.6269531250,,,
4.3281250000,0,-0.8658447266,,,
4.3437500000,0,-1.1831049919,,,
4.3593750000,0,-1.5383299589,,,
4.3750000000,0,-1.8707280159,,,
4.3906250000,0,-2.1370849609,,,
4.4062500000,0,-2.3449709415,,,
4.4218750000,0,-2.5532228947,,,
4.4375000000,0,-2.8465580940,,,
4.4531250000,0,-3.2636721134,,,
4.4687500000,0,-3.7379150391,,,
4.4843750000,0,-4.1348881721,,,
4.5000000000,0,-4.3155522346,,,
4.5156250000,0,-4.2230219841,,,
4.5312500000,0,-3.9240720272,,,
4.5468750000,0,-3.5924069881,,,
4.5625000000,0,-3.4024660587,,,
4.5781250000,0,-3.4293210506,,,
4.5937500000,0,-3.6108400822,,,
4.6093750000,0,-3.7752690315,,,
4.6250000000,0,-3.7374269962,,,
4.6406250000,0,-3.4019780159,,,
4.6562500000,0,-2.7929689884,,,
4.6718750000,0,-2.0557858944,,,
4.6875000000,0,-1.3717039824,,,
4.7031250000,0,-0.8894042969,,,
4.7187500000,0,-0.6604003906,,,
4.7343750000,0,-0.6357421875,,,
4.7500000000,0,-0.7174072266,,,
4.7656250000,0,-0.8137207031,,,
4.7812500000,0,-0.9135742188,,,
4.7968750000,0,-1.0520019531,,,
4.8125000000,0,-1.2768549919,,,
4.8281250000,0,-1.5698239803,,,
4.8437500000,0,-1.8277590275,,,
4.8593750000,0,-1.9094239473,,,
4.8750000000,0,-1.6964110136,,,
4.8906250000,0,-1.1669919491,,,
4.9062500000,0,-0.4031982124,,,
4.9218750000,0,0.4597167969,,,
4.9375000000,0,1.2924799919,,,
4.9531250000,0,1.9936519861,,,
4.9687500000,0,2.4952390194,,,
4.9843750000,0,2.7279050350,,,
5.0000000000,0,2.6358640194,,,
5.0156250000,0,2.1854250431,,,
5.0312500000,0,1.4262700081,,,
5.0468750000,0,0.5063477159,,,
5.0625000000,0,-0.3519287109,,,
5.0781250000,0,-0.9223632813,,,
5.0937500000,0,-1.0621340275,,,
5.1093750000,0,-0.7756348252,,,
5.1250000000,0,-0.2004394978,,,
5.1406250000,0,0.4490967095,,,
5.1562500000,0,0.9727783203,,,
5.1718750000,0,1.2669680119,,,
5.1875000000,0,1.3291020393,,,
5.2031250000,0,1.2166750431,,,
5.2187500000,0,0.9953613281,,,
5.2343750000,0,0.6848145127,,,
5.2500000000,0,0.2607421875,,,
5.2656250000,0,-0.3006592095,,,
5.2812500000,0,-0.9763184190,,,
5.2968750000,0,-1.6630860567,,,
5.3125000000,0,-2.1975100040,,,
5.3281250000,0,-2.4267580509,,,
5.3437500000,0,-2.2851560116,,,
5.3593750000,0,-1.8277590275,,,
5.3750000000,0,-1.2088619471,,,
5.3906250000,0,-0.5996093750,,,
5.4062500000,0,-0.1043701023,,,
5.4218750000,0,0.2592773139,,,
5.4375000000,0,0.5399169922,,,
5.4531250000,0,0.8126220703,,,
5.4687500000,0,1.1109620333,,,
5.4843750000,0,1.4245610237,,,
5.5000000000,0,1.7340090275,,,
5.5156250000,0,2.0030519962,,,
5.5312500000,0,2.2175290585,,,
5.5468750000,0,2.3682858944,,,
5.5625000000,0,2.4238278866,,,
5.5781250000,0,2.3602290154,,,
5.5937500000,0,2.1627199650,,,
5.6093750000,0,1.8430180550,,,
5.6250000000,0,1.4473880529,,,
5.6406250000,0,1.0220949650,,,
5.6562500000,0,0.5902100205,,,
5.6718750000,0,0.1549071968,,,
5.6875000000,0,-0.2800292969,,,
5.7031250000,0,-0.6972656250,,,
5.7187500000,0,-1.0468750000,,,
5.7343750000,0,-1.2746579647,,,
5.7500000000,0,-1.3568120003,,,
5.7656250000,0,-1.3222659826,,,
5.7812500000,0,-1.2515870333,,,
5.7968750000,0,-1.2496340275,,,
5.8125000000,0,-1.3991700411,,,
5.8281250000,0,-1.7176510096,,,
5.8437500000,0,-2.1464838982,,,
5.8593750000,0,-2.5598139763,,,
5.8750000000,0,-2.8149409294,,,
5.8906250000,0,-2.8161621094,,,
5.9062500000,0,-2.5299069881,,,
5.9218750000,0,-2.0161130428,,,
5.9375000000,0,-1.3974610567,,,
5.9531250000,0,-0.7857666016,,,
5.9687500000,0,-0.2467041016,,,
5.9843750000,0,0.2275391072,,,
6.0000000000,0,0.7092285156,,,
6.0156250000,0,1.2187500000,,,
6.0312500000,0,1.6990970373,,,
6.0468750000,0,2.0073239803,,,
6.0625000000,0,1.9809570313,,,
6.0781250000,0,1.5664060116,,,
6.0937500000,0,0.8663330078,,,
6.1093750000,0,0.1125487983,,,
6.1250000000,0,-0.4570313096,,,
6.1406250000,0,-0.7176514268,,,
6.1562500000,0,-0.7103270888,,,
6.1718750000,0,-0.5948485732,,,
6.1875000000,0,-0.5338134766,,,
6.2031250000,0,-0.5970458984,,,
6.2187500000,0,-0.7220458984,,,
6.2343750000,0,-0.7709960938,,,
6.2500000000,0,-0.6325684190,,,
6.2656250000,0,-0.2905273139,,,
6.2812500000,0,0.1718750000,,,
6.2968750000,0,0.6373291016,,,
6.3125000000,0,1.0426030159,,,
6.3281250000,0,1.4016109705,,,
6.3437500000,0,1.7814940214,,,
6.3593750000,0,2.2517089844,,,
6.3750000000,0,2.8038330078,,,
6.3906250000,0,3.3494870663,,,
6.4062500000,0,3.7690429688,,,
6.4218750000,0,3.9689939022,,,
6.4375000000,0,3.8990480900,,,
6.4531250000,0,3.5761721134,,,
6.4687500000,0,3.0642089844,,,
6.4843750000,0,2.4256589413,,,
6.5000000000,0,1.7158199549,,,
6.5156250000,0,0.9774169922,,,
6.5312500000,0,0.2370605022,,,
6.5468750000,0,-0.4698486030,,,
6.5625000000,0,-1.1119379997,,,
6.5781250000,0,-1.6694339514,,,
6.5937500000,0,-2.1395258904,,,
6.6093750000,0,-2.5113530159,,,
6.6250000000,0,-2.7756350040,,,
6.6406250000,0,-2.9168701172,,,
6.6562500000,0,-2.9262700081,,,
6.6718750000,0,-2.8186039925,,,
6.6875000000,0,-2.6270749569,,,
6.7031250000,0,-2.3687739372,,,
6.7187500000,0,-2.0469970703,,,
6.7343750000,0,-1.6330569983,,,
6.7500000000,0,-1.1130369902,,,
6.7656250000,0,-0.5325927734,,,
6.7812500000,0,0.0030517580,,,
6.7968750000,0,0.3728027046,,,
6.8125000000,0,0.5021973252,,,
6.8281250000,0,0.3988037109,,,
6.8437500000,0,0.1634521037,,,
6.8593750000,0,-0.0622558594,,,
6.8750000000,0,-0.1928710938,,,
6.8906250000,0,-0.2314452976,,,
6.9062500000,0,-0.2414550930,,,
6.9218750000,0,-0.2982178032,,,
6.9375000000,0,-0.4083251953,,,
6.9531250000,0,-0.5253906250,,,
6.9687500000,0,-0.5439453125,,,
6.9843750000,0,-0.3978270888,,,
7.0000000000,0,-0.0905761719,,,
7.0156250000,0,0.2960205078,,,
7.0312500000,0,0.6253662109,,,
7.0468750000,0,0.7993164063,,,
7.0625000000,0,0.7812500000,,,
7.0781250000,0,0.6218261719,,,
7.0937500000,0,0.4404296875,,,
7.1093750000,0,0.3671875000,,,
7.1250000000,0,0.4649657905,,,
7.1406250000,0,0.7141113281,,,
7.1562500000,0,0.9997559190,,,
7.1718750000,0,1.1842039824,,,
7.1875000000,0,1.1684570313,,,
7.2031250000,0,0.9455565810,,,
7.2187500000,0,0.6112061143,,,
7.2343750000,0,0.3167724907,,,
7.2500000000,0,0.1973876953,,,
7.2656250000,0,0.2862549126,,,
7.2812500000,0,0.4873046875,,,
7.2968750000,0,0.6379395127,,,
7.3125000000,0,0.5675048828,,,
7.3281250000,0,0.2034911960,,,
7.3437500000,0,-0.4013671875,,,
7.3593750000,0,-1.0814210176,,,
7.3750000000,0,-1.6354980469,,,
7.3906250000,0,-1.9436039925,,,
7.4062500000,0,-1.9739990234,,,
7.4218750000,0,-1.8166500330,,,
7.4375000000,0,-1.5986330509,,,
7.4531250000,0,-1.4344480038,,,
7.4687500000,0,-1.3530269861,,,
7.4843750000,0,-1.3280030489,,,
7.5000000000,0,-1.2890629768,,,
7.5156250000,0,-1.1794430017,,,
7.5312500000,0,-0.9827880859,,,
7.5468750000,0,-0.7084960938,,,
7.5625000000,0,-0.3974609077,,,
7.5781250000,0,-0.0980224609,,,
7.5937500000,0,0.1374512017,,,
7.6093750000,0,0.2784424126,,,
7.6250000000,0,0.3089599907,,,
7.6406250000,0,0.2447510064,,,
7.6562500000,0,0.0964355469,,,
7.6718750000,0,-0.1094971001,,,
7.6875000000,0,-0.3269042969,,,
7.7031250000,0,-0.5120850205,,,
7.7187500000,0,-0.5955811143,,,
7.7343750000,0,-0.5147705078,,,
7.7500000000,0,-0.2426757962,,,
7.7656250000,0,0.1936035007,,,
7.7812500000,0,0.6977539063,,,
7.7968750000,0,1.1550290585,,,
7.8125000000,0,1.4577640295,,,
7.8281250000,0,1.5839840174,,,
7.8437500000,0,1.5876460075,,,
7.8593750000,0,1.5625000000,,,
7.8750000000,0,1.5902099609,,,
7.8906250000,0,1.6772459745,,,
7.9062500000,0,1.7613530159,,,
7.9218750000,0,1.7500000000,,,
7.9375000000,0,1.5684809685,,,
7.9531250000,0,1.1934809685,,,
7.9687500000,0,0.6391602159,,,
7.9843750000,0,-0.0689697266,,,
8.0000000000,1,-0.9013671875,,,
8.0156250000,1,-1.8214110136,,,
8.0312500000,1,-2.7514650822,,,
8.0468750000,1,-3.5731201172,,,
8.0625000000,1,-4.1517329216,,,
8.0781250000,1,-4.3880620003,,,
8.0937500000,1,-4.2680659294,,,
8.1093750000,1,-3.8748779297,,,
8.1250000000,1,-3.3846440315,,,
8.1406250000,1,-2.9919428825,,,
8.1562500000,1,-2.8322749138,,,
8.1718750000,1,-2.9320070744,,,
8.1875000000,1,-3.1777338982,,,
8.2031250000,1,-3.3548579216,,,
8.2187500000,1,-3.2258300781,,,
8.2343750000,1,-2.6044919491,,,
8.2500000000,1,-1.4248050451,,,
8.2656250000,1,0.2415771037,,,
8.2812500000,1,2.1741940975,,,
8.2968750000,1,4.0631098747,,,
8.3125000000,1,5.5708007813,,,
8.3281250000,1,6.4372558594,,,
8.3437500000,1,6.5634770393,,,
8.3593750000,1,6.0582280159,,,
8.3750000000,1,5.2016601563,,,
8.3906250000,1,4.3570561409,,,
8.4062500000,1,3.8283689022,,,
8.4218750000,1,3.7353520393,,,
8.4375000000,1,3.9858400822,,,
8.4531250000,1,4.3151860237,,,
8.4687500000,1,4.4251708984,,,
8.4843750000,1,4.1408691406,,,
8.5000000000,1,3.4787600040,,,
8.5156250000,1,2.6041259766,,,
8.5312500000,1,1.7127690315,,,
8.5468750000,1,0.9080811143,,,
8.5625000000,1,0.1639403999,,,
8.5781250000,1,-0.6336669922,,,
8.5937500000,1,-1.5510250330,,,
8.6093750000,1,-2.4997560978,,,
8.6250000000,1,-3.2427980900,,,
8.6406250000,1,-3.5195310116,,,
8.6562500000,1,-3.1772460938,,,
8.6718750000,1,-2.3034670353,,,
8.6875000000,1,-1.1944580078,,,
8.7031250000,1,-0.2424315959,,,
8.7187500000,1,0.2625732124,,,
8.7343750000,1,0.2280272990,,,
8.7500000000,1,-0.2397460938,,,
8.7656250000,1,-0.9355468750,,,
8.7812500000,1,-1.6778559685,,,
8.7968750000,1,-2.3532710075,,,
8.8125000000,1,-2.8947749138,,,
8.8281250000,1,-3.2143549919,,,
8.8437500000,1,-3.1949460506,,,
8.8593750000,1,-2.7276608944,,,
8.8750000000,1,-1.8201899529,,,
8.8906250000,1,-0.6665039063,,,
8.9062500000,1,0.4222412109,,,
8.9218750000,1,1.1447750330,,,
8.9375000000,1,1.3765870333,,,
8.9531250000,1,1.2377929688,,,
8.9687500000,1,1.0460209846,,,
8.9843750000,1,1.1203609705,,,
9.0000000000,1,1.6140140295,,,
9.0156250000,1,2.4489750862,,,
9.0312500000,1,3.3455810547,,,
9.0468750000,1,3.9881589413,,,
9.0625000000,1,4.1595458984,,,
9.0781250000,1,3.8376460075,,,
9.0937500000,1,3.1547849178,,,
9.1093750000,1,2.3225100040,,,
9.1250000000,1,1.5256350040,,,
9.1406250000,1,0.8576660156,,,
9.1562500000,1,0.3330078125,,,
9.1718750000,1,-0.1008301005,,,
9.1875000000,1,-0.4953612983,,,
9.2031250000,1,-0.8836669922,,,
9.2187500000,1,-1.2337650061,,,
9.2343750000,1,-1.4815670252,,,
9.2500000000,1,-1.5544430017,,,
9.2656250000,1,-1.4260250330,,,
9.2812500000,1,-1.1508790255,,,
9.2968750000,1,-0.8314208984,,,
9.3125000000,1,-0.5952147841,,,
9.3281250000,1,-0.5063477159,,,
9.3437500000,1,-0.5447998047,,,
9.3593750000,1,-0.6163330078,,,
9.3750000000,1,-0.6180419922,,,
9.3906250000,1,-0.5156250000,,,
9.4062500000,1,-0.3615722954,,,
9.4218750000,1,-0.2591553032,,,
9.4375000000,1,-0.2659912109,,,
9.4531250000,1,-0.3509520888,,,
9.4687500000,1,-0.3732909858,,,
9.4843750000,1,-0.2009277046,,,
9.5000000000,1,0.2014160007,,,
9.5156250000,1,0.7131348252,,,
9.5312500000,1,1.0960689783,,,
9.5468750000,1,1.1353759766,,,
9.5625000000,1,0.7490233779,,,
9.5781250000,1,0.0656738281,,,
9.5937500000,1,-0.6602783203,,,
9.6093750000,1,-1.1612550020,,,
9.6250000000,1,-1.2977290154,,,
9.6406250000,1,-1.1062010527,,,
9.6562500000,1,-0.7631835938,,,
9.6718750000,1,-0.4541015923,,,
9.6875000000,1,-0.3002929986,,,
9.7031250000,1,-0.3083496094,,,
9.7187500000,1,-0.4189453125,,,
9.7343750000,1,-0.5704345703,,,
9.7500000000,1,-0.7429199219,,,
9.7656250000,1,-0.9691162109,,,
9.7812500000,1,-1.3197020292,,,
9.7968750000,1,-1.8419189453,,,
9.8125000000,1,-2.5224609375,,,
9.8281250000,1,-3.2751460075,,,
9.8437500000,1,-3.9495849609,,,
9.8593750000,1,-4.3670649529,,,
9.8750000000,1,-4.3769531250,,,
9.8906250000,1,-3.9152829647,,,
9.9062500000,1,-3.0271000862,,,
9.9218750000,1,-1.8839110136,,,
9.9375000000,1,-0.7235106826,,,
9.9531250000,1,0.2347411960,,,
9.9687500000,1,0.8778076172,,,
9.9843750000,1,1.2115479708,,,
10.0000000000,1,1.3327640295,,,
10.0156250000,1,1.3562010527,,,
10.0312500000,1,1.3270260096,,,
10.0468750000,1,1.2183840275,,,
10.0625000000,1,0.9877930284,,,
10.0781250000,1,0.6330565810,,,
10.0937500000,1,0.2492675930,,,
10.1093750000,1,-0.0197753906,,,
10.1250000000,1,-0.0723877028,,,
10.1406250000,1,0.0998535231,,,
10.1562500000,1,0.3885498047,,,
10.1718750000,1,0.6584473252,,,
10.1875000000,1,0.8217772841,,,
10.2031250000,1,0.9104003906,,,
10.2187500000,1,1.0280760527,,,
10.2343750000,1,1.2718509436,,,
10.2500000000,1,1.6197509766,,,
10.2656250000,1,1.9277340174,,,
10.2812500000,1,1.9934079647,,,
10.2968750000,1,1.6716309786,,,
10.3125000000,1,0.9622802734,,,
10.3281250000,1,0.0384521484,,,
10.3437500000,1,-0.8204345703,,,
10.3593750000,1,-1.3480219841,,,
10.3750000000,1,-1.3723139763,,,
10.3906250000,1,-0.8879395127,,,
10.4062500000,1,-0.0419921912,,,
10.4218750000,1,0.9396973252,,,
10.4375000000,1,1.8059079647,,,
10.4531250000,1,2.3889160156,,,
10.4687500000,1,2.6223139763,,,
10.4843750000,1,2.5434570313,,,
10.5000000000,1,2.2365720272,,,
10.5156250000,1,1.8023680449,,,
10.5312500000,1,1.3135989904,,,
10.5468750000,1,0.7924805284,,,
10.5625000000,1,0.2692871094,,,
10.5781250000,1,-0.2349853963,,,
10.5937500000,1,-0.6997069716,,,
10.6093750000,1,-1.1032710075,,,
10.6250000000,1,-1.4422609806,,,
10.6406250000,1,-1.7174069881,,,
10.6562500000,1,-1.9158940315,,,
10.6718750000,1,-2.0150148869,,,
10.6875000000,1,-1.9703370333,,,
10.7031250000,1,-1.7524410486,,,
10.7187500000,1,-1.3687740564,,,
10.7343750000,1,-0.8709716797,,,
10.7500000000,1,-0.3485107124,,,
10.7656250000,1,0.1016846001,,,
10.7812500000,1,0.4195556939,,,
10.7968750000,1,0.5930175781,,,
10.8125000000,1,0.6550292969,,,
10.8281250000,1,0.6722412109,,,
10.8437500000,1,0.7264404297,,,
10.8593750000,1,0.8790283203,,,
10.8750000000,1,1.1430660486,,,
10.8906250000,1,1.4776610136,,,
10.9062500000,1,1.7932130098,,,
10.9218750000,1,1.9986569881,,,
10.9375000000,1,2.0239260197,,,
10.9531250000,1,1.8536380529,,,
10.9687500000,1,1.5207519531,,,
10.9843750000,1,1.0668950081,,,
11.0000000000,1,0.5111083984,,,
11.0156250000,1,-0.1445312947,,,
11.0312500000,1,-0.8815917969,,,
11.0468750000,1,-1.6811519861,,,
11.0625000000,1,-2.4814450741,,,
11.0781250000,1,-3.1898190975,,,
11.0937500000,1,-3.7207028866,,,
11.1093750000,1,-3.9909670353,,,
11.1250000000,1,-3.9838869572,,,
11.1406250000,1,-3.7209470272,,,
11.1562500000,1,-3.2597661018,,,
11.1718750000,1,-2.6892089844,,,
11.1875000000,1,-2.0959470272,,,
11.2031250000,1,-1.5656739473,,,
11.2187500000,1,-1.1673580408,,,
11.2343750000,1,-0.9432373047,,,
11.2500000000,1,-0.8894042969,,,
11.2656250000,1,-0.9597167969,,,
11.2812500000,1,-1.0494379997,,,
11.2968750000,1,-1.0323489904,,,
11.3125000000,1,-0.8024901748,,,
11.3281250000,1,-0.3397217095,,,
11.3437500000,1,0.2459716946,,,
11.3593750000,1,0.7427979112,,,
11.3750000000,1,0.9116210938,,,
11.3906250000,1,0.5911865234,,,
11.4062500000,1,-0.1916504055,,,
11.4218750000,1,-1.2126460075,,,
11.4375000000,1,-2.1196289063,,,
11.4531250000,1,-2.6181640625,,,
11.4687500000,1,-2.5780029297,,,
11.4843750000,1,-2.1259770393,,,
11.5000000000,1,-1.5749510527,,,
11.5156250000,1,-1.2895510197,,,
11.5312500000,1,-1.4880369902,,,
11.5468750000,1,-2.1832280159,,,
11.5625000000,1,-3.1896970272,,,
11.5781250000,1,-4.2457280159,,,
11.5937500000,1,-5.1477050781,,,
11.6093750000,1,-5.7947998047,,,
11.6250000000,1,-6.2413330078,,,
11.6406250000,1,-6.6217041016,,,
11.6562500000,1,-7.1145019531,,,
11.6718750000,1,-7.9388427734,,,
11.6875000000,1,-9.2991943359,,,
11.7031250000,1,-11.3083496094,,,
11.7187500000,1,-13.8094501495,,,
11.7343750000,1,-16.2093505859,,,
11.7500000000,1,-17.5064697266,,,
11.7656250000,1,-16.5997295380,,,
11.7812500000,1,-12.7546396255,,,
11.7968750000,1,-6.0865478516,,,
11.8125000000,1,2.2868649960,,,
11.8281250000,1,10.5053701401,,,
11.8437500000,1,16.6166992188,,,
11.8593750000,1,19.3087196350,,,
11.8750000000,1,18.4361591339,,,
11.8906250000,1,15.0445604324,,,
11.9062500000,1,10.9029502869,,,
11.9218750000,1,7.7412109375,,,
11.9375000000,1,6.5296630859,,,
11.9531250000,1,7.1694340706,,,
11.9687500000,1,8.7086181641,,,
11.9843750000,1,9.9659423828,,,
12.0000000000,1,10.1541700363,,,
12.0156250000,1,9.1964111328,,,
12.0312500000,1,7.6091308594,,,
12.0468750000,1,6.0111079216,,,
12.0625000000,1,4.7575678825,,,
12.0781250000,1,3.8968510628,,,
12.0937500000,1,3.4609379768,,,
12.1093750000,1,3.7629389763,,,
12.1250000000,1,5.3398442268,,,
12.1406250000,1,8.5270996094,,,
12.1562500000,1,12.9559297562,,,
12.1718750000,1,17.4492206573,,,
12.1875000000,1,20.4517803192,,,
12.2031250000,1,20.8212890625,,,
12.2187500000,1,18.4359092712,,,
12.2343750000,1,14.2631797791,,,
12.2500000000,1,9.7689208984,,,
12.2656250000,1,6.1035161018,,,
12.2812500000,1,3.5860600471,,,
12.2968750000,1,1.7719730139,,,
12.3125000000,1,-0.0371093787,,,
12.3281250000,1,-2.2137451172,,,
12.3437500000,1,-4.5219731331,,,
12.3593750000,1,-6.3260498047,,,
12.3750000000,1,-7.0294189453,,,
12.3906250000,1,-6.4558110237,,,
12.4062500000,1,-4.9552001953,,,
12.4218750000,1,-3.1859130859,,,
12.4375000000,1,-1.7751460075,,,
12.4531250000,1,-1.0461430550,,,
12.4687500000,1,-0.9468994141,,,
12.4843750000,1,-1.1613769531,,,
12.5000000000,1,-1.3729250431,,,
12.5156250000,1,-1.4842530489,,,
12.5312500000,1,-1.6190190315,,,
12.5468750000,1,-2.0101320744,,,
12.5625000000,1,-2.7869870663,,,
12.5781250000,1,-3.8312990665,,,
12.5937500000,1,-4.8135991096,,,
12.6093750000,1,-5.3717041016,,,
12.6250000000,1,-5.2885742188,,,
12.6406250000,1,-4.6070561409,,,
12.6562500000,1,-3.6107180119,,,
12.6718750000,1,-2.6403810978,,,
12.6875000000,1,-1.9459229708,,,
12.7031250000,1,-1.6092530489,,,
12.7187500000,1,-1.5560300350,,,
12.7343750000,1,-1.6226810217,,,
12.7500000000,1,-1.6496579647,,,
12.7656250000,1,-1.5396729708,,,
12.7812500000,1,-1.2980959415,,,
12.7968750000,1,-0.9890136719,,,
12.8125000000,1,-0.7280272841,,,
12.8281250000,1,-0.6322020888,,,
12.8437500000,1,-0.7829589844,,,
12.8593750000,1,-1.1950680017,,,
12.8750000000,1,-1.8100589514,,,
12.8906250000,1,-2.5087890625,,,
12.9062500000,1,-3.1398930550,,,
12.9218750000,1,-3.5708010197,,,
12.9375000000,1,-3.6986079216,,,
12.9531250000,1,-3.4940190315,,,
12.9687500000,1,-2.9964599609,,,
12.9843750000,1,-2.3070070744,,,
13.0000000000,1,-1.5698239803,,,
13.0156250000,1,-0.9600830078,,,
13.0312500000,1,-0.6145020127,,,
13.0468750000,1,-0.6055908203,,,
13.0625000000,1,-0.8962401748,,,
13.0781250000,1,-1.3435059786,,,
13.0937500000,1,-1.7246090174,,,
13.1093750000,1,-1.8474119902,,,
13.1250000000,1,-1.6285400391,,,
13.1406250000,1,-1.1187740564,,,
13.1562500000,1,-0.4860840142,,,
13.1718750000,1,0.0648193434,,,
13.1875000000,1,0.3903808892,,,
13.2031250000,1,0.4525145888,,,
13.2187500000,1,0.2807616889,,,
13.2343750000,1,-0.0655517578,,,
13.2500000000,1,-0.5288085938,,,
13.2656250000,1,-1.0615229607,,,
13.2812500000,1,-1.6022950411,,,
13.2968750000,1,-2.0482180119,,,
13.3125000000,1,-2.2989499569,,,
13.3281250000,1,-2.2689208984,,,
13.3437500000,1,-1.9702149630,,,
13.3593750000,1,-1.4858399630,,,
13.3750000000,1,-0.9481201172,,,
13.3906250000,1,-0.4849854112,,,
13.4062500000,1,-0.1783446968,,,
13.4218750000,1,-0.0699462891,,,
13.4375000000,1,-0.1684570014,,,
13.4531250000,1,-0.4467773139,,,
13.4687500000,1,-0.8405761719,,,
13.4843750000,1,-1.2270510197,,,
13.5000000000,1,-1.4537349939,,,
13.5156250000,1,-1.4205319881,,,
13.5312500000,1,-1.1408690214,,,
13.5468750000,1,-0.7662354112,,,
13.5625000000,1,-0.5511475205,,,
13.5781250000,1,-0.7559813857,,,
13.5937500000,1,-1.5297850370,,,
13.6093750000,1,-2.8369140625,,,
13.6250000000,1,-4.4638671875,,,
13.6406250000,1,-6.0898442268,,,
13.6562500000,1,-7.3819580078,,,
13.6718750000,1,-8.1450195313,,,
13.6875000000,1,-8.3538818359,,,
13.7031250000,1,-8.1562500000,,,
13.7187500000,1,-7.7954101563,,,
13.7343750000,1,-7.5137939453,,,
13.7500000000,1,-7.4600830078,,,
13.7656250000,1,-7.6666259766,,,
13.7812500000,1,-8.0274658203,,,
13.7968750000,1,-8.3709716797,,,
13.8125000000,1,-8.5065917969,,,
13.8281250000,1,-8.2829589844,,,
13.8437500000,1,-7.6484379768,,,
13.8593750000,1,-6.6477050781,,,
13.8750000000,1,-5.4160161018,,,
13.8906250000,1,-4.1525878906,,,
13.9062500000,1,-3.0732419491,,,
13.9218750000,1,-2.3240969181,,,
13.9375000000,1,-1.9444580078,,,
13.9531250000,1,-1.8448489904,,,
13.9687500000,1,-1.8549799919,,,
13.9843750000,1,-1.8222659826,,,
14.0000000000,1,-1.7113039494,,,
14.0156250000,1,-1.6760250330,,,
14.0312500000,1,-2.0120849609,,,
14.0468750000,1,-2.9609379768,,,
14.0625000000,1,-4.4252929688,,,
14.0781250000,1,-5.8038330078,,,
14.0937500000,1,-6.1621088982,,,
14.1093750000,1,-4.6475830078,,,
14.1250000000,1,-1.0424799919,,,
14.1406250000,1,3.9465329647,,,
14.1562500000,1,8.8884277344,,,
14.1718750000,1,12.2398700714,,,
14.1875000000,1,13.0549297333,,,
14.2031250000,1,11.3959999084,,,
14.2187500000,1,8.2349853516,,,
14.2343750000,1,4.8455810547,,,
14.2500000000,1,2.1722409725,,,
14.2656250000,1,0.4479979873,,,
14.2812500000,1,-0.6975098252,,,
14.2968750000,1,-1.8393549919,,,
14.3125000000,1,-3.3061521053,,,
14.3281250000,1,-4.9881591797,,,
14.3437500000,1,-6.4610600471,,,
14.3593750000,1,-7.2630620003,,,
14.3750000000,1,-7.1550288200,,,
14.3906250000,1,-6.1928710938,,,
14.4062500000,1,-4.6534419060,,,
14.4218750000,1,-2.9055180550,,,
14.4375000000,1,-1.2641600370,,,
14.4531250000,1,0.0416259803,,,
14.4687500000,1,0.8802490234,,,
14.4843750000,1,1.1696779728,,,
14.5000000000,1,0.8714600205,,,
14.5156250000,1,-0.0175781306,,,
14.5312500000,1,-1.4187010527,,,
14.5468750000,1,-3.1904299259,,,
14.5625000000,1,-5.1585688591,,,
14.5781250000,1,-7.1445307732,,,
14.5937500000,1,-9.0831298828,,,
14.6093750000,1,-11.0157499313,,,
14.6250000000,1,-13.0539598465,,,
14.6406250000,1,-15.1855497360,,,
14.6562500000,1,-17.0876502991,,,
14.6718750000,1,-18.0404090881,,,
14.6875000000,1,-17.1270809174,,,
14.7031250000,1,-13.6486797333,,,
14.7187500000,1,-7.4848628044,,,
14.7343750000,1,0.6695557237,,,
14.7500000000,1,9.5059814453,,,
14.7656250000,1,17.5389404297,,,
14.7812500000,1,23.6466102600,,,
14.7968750000,1,27.4332294464,,,
14.8125000000,1,29.1760292053,,,
14.8281250000,1,29.4753398895,,,
14.8437500000,1,28.8561992645,,,
14.8593750000,1,27.5262508392,,,
14.8750000000,1,25.4544696808,,,
14.8906250000,1,22.5967998505,,,
14.9062500000,1,19.1644306183,,,
14.9218750000,1,15.6106004715,,,
14.9375000000,1,12.4814500809,,,
14.9531250000,1,10.1585702896,,,
14.9687500000,1,8.7215576172,,,
14.9843750000,1,7.9697270393,,,
15.0000000000,1,7.5622558594,,,
15.0156250000,1,7.1451420784,,,
15.0312500000,1,6.4837651253,,,
15.0468750000,1,5.5070800781,,,
15.0625000000,1,4.2921137810,,,
15.0781250000,1,3.0493159294,,,
15.0937500000,1,2.0448000431,,,
15.1093750000,1,1.5557860136,,,
15.1250000000,1,1.7525629997,,,
15.1406250000,1,2.5969240665,,,
15.1562500000,1,3.7860109806,,,
15.1718750000,1,4.8327641487,,,
15.1875000000,1,5.2951660156,,,
15.2031250000,1,4.9879150391,,,
15.2187500000,1,4.0808110237,,,
15.2343750000,1,2.9902338982,,,
15.2500000000,1,2.1252439022,,,
15.2656250000,1,1.6538089514,,,
15.2812500000,1,1.3907469511,,,
15.2968750000,1,0.9656981826,,,
15.3125000000,1,0.1016846001,,,
15.3281250000,1,-1.1719969511,,,
15.3437500000,1,-2.4787600040,,,
15.3593750000,1,-3.3048100471,,,
15.3750000000,1,-3.3328859806,,,
15.3906250000,1,-2.6879880428,,,
15.4062500000,1,-1.8624269962,,,
15.4218750000,1,-1.3797609806,,,
15.4375000000,1,-1.4082030058,,,
15.4531250000,1,-1.6152340174,,,
15.4687500000,1,-1.3785400391,,,
15.4843750000,1,-0.2419434041,,,
15.5000000000,1,1.7756350040,,,
15.5156250000,1,4.1429438591,,,
15.5312500000,1,6.1152338982,,,
15.5468750000,1,7.1182861328,,,
15.5625000000,1,6.9685058594,,,
15.5781250000,1,5.8498539925,,,
15.5937500000,1,4.1116938591,,,
15.6093750000,1,2.0692141056,,,
15.6250000000,1,-0.0474853516,,,
15.6406250000,1,-2.0139160156,,,
15.6562500000,1,-3.5296630859,,,
15.6718750000,1,-4.2463378906,,,
15.6875000000,1,-3.9144289494,,,
15.7031250000,1,-2.5615229607,,,
15.7187500000,1,-0.5522460938,,,
15.7343750000,1,1.5352779627,,,
15.7500000000,1,3.1212160587,,,
15.7656250000,1,3.9246830940,,,
15.7812500000,1,4.0469970703,,,
15.7968750000,1,3.9248049259,,,
15.8125000000,1,4.0989990234,,,
15.8281250000,1,4.9256591797,,,
15.8437500000,1,6.3917241096,,,
15.8593750000,1,8.1593017578,,,
15.8750000000,1,9.8103027344,,,
15.8906250000,1,11.1286602020,,,
15.9062500000,1,12.2462196350,,,
15.9218750000,1,13.5023202896,,,
15.9375000000,1,15.0886201859,,,
15.9531250000,1,16.7445106506,,,
15.9687500000,1,17.7587890625,,,
15.9843750000,1,17.3051795959,,,
16.0000000000,2,14.9344501495,,,
16.0156250000,2,10.8557100296,,,
16.0312500000,2,5.8759770393,,,
16.0468750000,2,1.0101319551,,,
16.0625000000,2,-2.9603269100,,,
16.0781250000,2,-5.7292480469,,,
16.0937500000,2,-7.3966059685,,,
16.1093750000,2,-8.2670898438,,,
16.1250000000,2,-8.6246337891,,,
16.1406250000,2,-8.6625976563,,,
16.1562500000,2,-8.5289306641,,,
16.1718750000,2,-8.4477539063,,,
16.1875000000,2,-8.7302246094,,,
16.2031250000,2,-9.6668701172,,,
16.2187500000,2,-11.3460702896,,,
16.2343750000,2,-13.5114698410,,,
16.2500000000,2,-15.6481895447,,,
16.2656250000,2,-17.1873798370,,,
16.2812500000,2,-17.7872295380,,,
16.2968750000,2,-17.4615497589,,,
16.3125000000,2,-16.5039100647,,,
16.3281250000,2,-15.2832002640,,,
16.3437500000,2,-14.0690898895,,,
16.3593750000,2,-12.9881601334,,,
16.3750000000,2,-12.1077899933,,,
16.3906250000,2,-11.5418701172,,,
16.4062500000,2,-11.4691200256,,,
16.4218750000,2,-11.9901103973,,,
16.4375000000,2,-12.9905996323,,,
16.4531250000,2,-14.0697002411,,,
16.4687500000,2,-14.6663799286,,,
16.4843750000,2,-14.2872295380,,,
16.5000000000,2,-12.7453603745,,,
16.5156250000,2,-10.2823495865,,,
16.5312500000,2,-7.4647221565,,,
16.5468750000,2,-5.0307621956,,,
16.5625000000,2,-3.6892089844,,,
16.5781250000,2,-3.9892580509,,,
16.5937500000,2,-6.2130131721,,,
16.6093750000,2,-10.2827100754,,,
16.6250000000,2,-15.6055898666,,,
16.6406250000,2,-21.0435791016,,,
16.6562500000,2,-24.9115009308,,,
16.6718750000,2,-25.3869590759,,,
16.6875000000,2,-21.1518592834,,,
16.7031250000,2,-12.1031503677,,,
16.7187500000,2,0.2572020888,,,
16.7343750000,2,13.1027803421,,,
16.7500000000,2,23.2270507813,,,
16.7656250000,2,28.3261699677,,,
16.7812500000,2,27.9522705078,,,
16.7968750000,2,23.5882606506,,,
16.8125000000,2,17.7795391083,,,
16.8281250000,2,12.8250703812,,,
16.8437500000,2,9.7979736328,,,
16.8593750000,2,8.4091796875,,,
16.8750000000,2,7.7037348747,,,
16.8906250000,2,6.9879150391,,,
16.9062500000,2,6.3266601563,,,
16.9218750000,2,6.3382568359,,,
16.9375000000,2,7.5393071175,,,
16.9531250000,2,9.7827148438,,,
16.9687500000,2,12.2725801468,,,
16.9843750000,2,14.0389404297,,,
17.0000000000,2,14.5631103516,,,
17.0156250000,2,14.0140399933,,,
17.0312500000,2,13.0352802277,,,
17.0468750000,2,12.2321796417,,,
17.0625000000,2,11.7794198990,,,
17.0781250000,2,11.3869600296,,,
17.0937500000,2,10.6093797684,,,
17.1093750000,2,9.2149658203,,,
17.1250000000,2,7.3906250000,,,
17.1406250000,2,5.5521240234,,,
17.1562500000,2,4.1002202034,,,
17.1718750000,2,3.1634519100,,,
17.1875000000,2,2.5978999138,,,
17.2031250000,2,2.1263430119,,,
17.2187500000,2,1.5675050020,,,
17.2343750000,2,0.9400634766,,,
17.2500000000,2,0.4191895127,,,
17.2656250000,2,0.1802978963,,,
17.2812500000,2,0.2742919922,,,
17.2968750000,2,0.5881348252,,,
17.3125000000,2,0.9038085938,,,
17.3281250000,2,1.0081789494,,,
17.3437500000,2,0.7858886719,,,
17.3593750000,2,0.2004394978,,,
17.3750000000,2,-0.6933593750,,,
17.3906250000,2,-1.8149410486,,,
17.4062500000,2,-3.0423579216,,,
17.4218750000,2,-4.2374272346,,,
17.4375000000,2,-5.2307128906,,,
17.4531250000,2,-5.9063720703,,,
17.4687500000,2,-6.2260742188,,,
17.4843750000,2,-6.2551269531,,,
17.5000000000,2,-6.1502690315,,,
17.5156250000,2,-6.0650629997,,,
17.5312500000,2,-6.1031489372,,,
17.5468750000,2,-6.2910161018,,,
17.5625000000,2,-6.5766601563,,,
17.5781250000,2,-6.8669428825,,,
17.5937500000,2,-7.0631098747,,,
17.6093750000,2,-7.0808110237,,,
17.6250000000,2,-6.8637700081,,,
17.6406250000,2,-6.4100341797,,,
17.6562500000,2,-5.7873539925,,,
17.6718750000,2,-5.1303710938,,,
17.6875000000,2,-4.5871582031,,,
17.7031250000,2,-4.2523188591,,,
17.7187500000,2,-4.1036381721,,,
17.7343750000,2,-4.0314941406,,,
17.7500000000,2,-3.9071040154,,,
17.7656250000,2,-3.6848139763,,,
17.7812500000,2,-3.4395749569,,,
17.7968750000,2,-3.2916259766,,,
17.8125000000,2,-3.3060300350,,,
17.8281250000,2,-3.3908689022,,,
17.8437500000,2,-3.3333740234,,,
17.8593750000,2,-2.9449460506,,,
17.8750000000,2,-2.1647949219,,,
17.8906250000,2,-1.1273189783,,,
17.9062500000,2,-0.0906982422,,,
17.9218750000,2,0.7000731826,,,
17.9375000000,2,1.1855469942,,,
17.9531250000,2,1.4998780489,,,
17.9687500000,2,1.8951419592,,,
17.9843750000,2,2.5957028866,,,
18.0000000000,2,3.6348879337,,,
18.0156250000,2,4.8470458984,,,
18.0312500000,2,5.9550781250,,,
18.0468750000,2,6.7034912109,,,
18.0625000000,2,6.9841308594,,,
18.0781250000,2,6.8504638672,,,
18.0937500000,2,6.4404301643,,,
18.1093750000,2,5.8779301643,,,
18.1250000000,2,5.2052001953,,,
18.1406250000,2,4.3908691406,,,
18.1562500000,2,3.3874509335,,,
18.1718750000,2,2.1988530159,,,
18.1875000000,2,0.9075927734,,,
18.2031250000,2,-0.3784179986,,,
18.2187500000,2,-1.5653079748,,,
18.2343750000,2,-2.6364750862,,,
18.2500000000,2,-3.6110839844,,,
18.2656250000,2,-4.4937739372,,,
18.2812500000,2,-5.2150878906,,,
18.2968750000,2,-5.6506347656,,,
18.3125000000,2,-5.6844477654,,,
18.3281250000,2,-5.2615971565,,,
18.3437500000,2,-4.4572749138,,,
18.3593750000,2,-3.4536130428,,,
18.3750000000,2,-2.4643549919,,,
18.3906250000,2,-1.6671140194,,,
18.4062500000,2,-1.1512449980,,,
18.4218750000,2,-0.9012451172,,,
18.4375000000,2,-0.8363037109,,,
18.4531250000,2,-0.8543701172,,,
18.4687500000,2,-0.8861083984,,,
18.4843750000,2,-0.8853759766,,,
18.5000000000,2,-0.8416748047,,,
18.5156250000,2,-0.7623291016,,,
18.5312500000,2,-0.6497802734,,,
18.5468750000,2,-0.4974364936,,,
18.5625000000,2,-0.2690429986,,,
18.5781250000,2,0.0878906325,,,
18.5937500000,2,0.6328125000,,,
18.6093750000,2,1.4074709415,,,
18.6250000000,2,2.3843989372,,,
18.6406250000,2,3.4801030159,,,
18.6562500000,2,4.5471191406,,,
18.6718750000,2,5.4281010628,,,
18.6875000000,2,6.0020751953,,,
18.7031250000,2,6.2117919922,,,
18.7187500000,2,6.0704350471,,,
18.7343750000,2,5.6304931641,,,
18.7500000000,2,4.9792480469,,,
18.7656250000,2,4.2004389763,,,
18.7812500000,2,3.3867189884,,,
18.7968750000,2,2.6253659725,,,
18.8125000000,2,1.9830319881,,,
18.8281250000,2,1.5136719942,,,
18.8437500000,2,1.2397459745,,,
18.8593750000,2,1.1440429688,,,
18.8750000000,2,1.1651610136,,,
18.8906250000,2,1.2082519531,,,
18.9062500000,2,1.1468509436,,,
18.9218750000,2,0.8934326172,,,
18.9375000000,2,0.4027099907,,,
18.9531250000,2,-0.2674561143,,,
18.9687500000,2,-0.9898682237,,,
18.9843750000,2,-1.5935059786,,,
19.0000000000,2,-1.9375000000,,,
19.0156250000,2,-1.9761960506,,,
19.0312500000,2,-1.7789310217,,,
19.0468750000,2,-1.4761960506,,,
19.0625000000,2,-1.1820069551,,,
19.0781250000,2,-0.9345703125,,,
19.0937500000,2,-0.6701660156,,,
19.1093750000,2,-0.2764892876,,,
19.1250000000,2,0.3148193061,,,
19.1406250000,2,1.0844730139,,,
19.1562500000,2,1.8902590275,,,
19.1718750000,2,2.5440669060,,,
19.1875000000,2,2.8894040585,,,
19.2031250000,2,2.8666989803,,,
19.2187500000,2,2.5083010197,,,
19.2343750000,2,1.9182130098,,,
19.2500000000,2,1.2160639763,,,
19.2656250000,2,0.4946289063,,,
19.2812500000,2,-0.1901855022,,,
19.2968750000,2,-0.8135985732,,,
19.3125000000,2,-1.3657230139,,,
19.3281250000,2,-1.8634029627,,,
19.3437500000,2,-2.3203129768,,,
19.3593750000,2,-2.7363278866,,,
19.3750000000,2,-3.0701899529,,,
19.3906250000,2,-3.2473139763,,,
19.4062500000,2,-3.2027590275,,,
19.4218750000,2,-2.9118649960,,,
19.4375000000,2,-2.4448239803,,,
19.4531250000,2,-1.9276119471,,,
19.4687500000,2,-1.4833979607,,,
19.4843750000,2,-1.1785889864,,,
19.5000000000,2,-0.9798583984,,,
19.5156250000,2,-0.7965087891,,,
19.5312500000,2,-0.5756835938,,,
19.5468750000,2,-0.3415527046,,,
19.5625000000,2,-0.1940917969,,,
19.5781250000,2,-0.2416992038,,,
19.5937500000,2,-0.5227050781,,,
19.6093750000,2,-0.9761962891,,,
19.6250000000,2,-1.4930419922,,,
19.6406250000,2,-1.9757080078,,,
19.6562500000,2,-2.3952639103,,,
19.6718750000,2,-2.7869870663,,,
19.6875000000,2,-3.1829829216,,,
19.7031250000,2,-3.5710449219,,,
19.7187500000,2,-3.8746340275,,,
19.7343750000,2,-4.0034179688,,,
19.7500000000,2,-3.9366459846,,,
19.7656250000,2,-3.7409670353,,,
19.7812500000,2,-3.5343019962,,,
19.7968750000,2,-3.4283449650,,,
19.8125000000,2,-3.4201660156,,,
19.8281250000,2,-3.3790280819,,,
19.8437500000,2,-3.0981450081,,,
19.8593750000,2,-2.4056398869,,,
19.8750000000,2,-1.2974849939,,,
19.8906250000,2,0.0544433594,,,
19.9062500000,2,1.3514399529,,,
19.9218750000,2,2.3217771053,,,
19.9375000000,2,2.8383789063,,,
19.9531250000,2,2.9448239803,,,
19.9687500000,2,2.8038330078,,,
19.9843750000,2,2.5607910156,,,
20.0000000000,2,2.2687990665,,,
20.0156250000,2,1.8909909725,,,
20.0312500000,2,1.3588869572,,,
20.0468750000,2,0.6755371094,,,
20.0625000000,2,-0.0526123010,,,
20.0781250000,2,-0.6784667969,,,
20.0937500000,2,-1.0870360136,,,
20.1093750000,2,-1.2498780489,,,
20.1250000000,2,-1.2080080509,,,
20.1406250000,2,-1.0019530058,,,
20.1562500000,2,-0.6158447266,,,
20.1718750000,2,-0.0098876953,,,
20.1875000000,2,0.8449707031,,,
20.2031250000,2,1.8991700411,,,
20.2187500000,2,3.0057370663,,,
20.2343750000,2,3.9997560978,,,
20.2500000000,2,4.7419428825,,,
20.2656250000,2,5.1372070313,,,
20.2812500000,2,5.1420898438,,,
20.2968750000,2,4.7438960075,,,
20.3125000000,2,3.9937739372,,,
20.3281250000,2,3.0332028866,,,
20.3437500000,2,2.0943601131,,,
20.3593750000,2,1.4252929688,,,
20.3750000000,2,1.1517330408,,,
20.3906250000,2,1.2087399960,,,
20.4062500000,2,1.3347170353,,,
20.4218750000,2,1.2174069881,,,
20.4375000000,2,0.6844481826,,,
20.4531250000,2,-0.1986083984,,,
20.4687500000,2,-1.1463619471,,,
20.4843750000,2,-1.8128659725,,,
20.5000000000,2,-1.9729000330,,,
20.5156250000,2,-1.6302490234,,,
20.5312500000,2,-0.9875488281,,,
20.5468750000,2,-0.3258056939,,,
20.5625000000,2,0.1419678032,,,
20.5781250000,2,0.3157958984,,,
20.5937500000,2,0.2103271037,,,
20.6093750000,2,-0.1250000000,,,
20.6250000000,2,-0.6527100205,,,
20.6406250000,2,-1.3449709415,,,
20.6562500000,2,-2.1453859806,,,
20.6718750000,2,-2.9344480038,,,
20.6875000000,2,-3.5605471134,,,
20.7031250000,2,-3.8402099609,,,
20.7187500000,2,-3.6728520393,,,
20.7343750000,2,-3.0623779297,,,
20.7500000000,2,-2.1562500000,,,
20.7656250000,2,-1.1812740564,,,
20.7812500000,2,-0.3735351861,,,
20.7968750000,2,0.1082763970,,,
20.8125000000,2,0.2321777046,,,
20.8281250000,2,0.0722656325,,,
20.8437500000,2,-0.2110596001,,,
20.8593750000,2,-0.4637450874,,,
20.8750000000,2,-0.5893555284,,,
20.8906250000,2,-0.5646973252,,,
20.9062500000,2,-0.4462890923,,,
20.9218750000,2,-0.3471679986,,,
20.9375000000,2,-0.3941650093,,,
20.9531250000,2,-0.7030029297,,,
20.9687500000,2,-1.3212889433,,,
20.9843750000,2,-2.2047119141,,,
21.0000000000,2,-3.2055659294,,,
21.0156250000,2,-4.1080322266,,,
21.0312500000,2,-4.6770019531,,,
21.0468750000,2,-4.7484130859,,,
21.0625000000,2,-4.2714838982,,,
21.0781250000,2,-3.3372800350,,,
21.0937500000,2,-2.1066889763,,,
21.1093750000,2,-0.7595214844,,,
21.1250000000,2,0.5682373047,,,
21.1406250000,2,1.7896729708,,,
21.1562500000,2,2.8437500000,,,
21.1718750000,2,3.6723630428,,,
21.1875000000,2,4.2006840706,,,
21.2031250000,2,4.3884282112,,,
21.2187500000,2,4.2423100471,,,
21.2343750000,2,3.8364260197,,,
21.2500000000,2,3.2830810547,,,
21.2656250000,2,2.6895749569,,,
21.2812500000,2,2.1137700081,,,
21.2968750000,2,1.5666500330,,,
21.3125000000,2,1.0500489473,,,
21.3281250000,2,0.5726317763,,,
21.3437500000,2,0.2042236030,,,
21.3593750000,2,0.0325927697,,,
21.3750000000,2,0.1213378981,,,
21.3906250000,2,0.4680176079,,,
21.4062500000,2,1.0009770393,,,
21.4218750000,2,1.6083979607,,,
21.4375000000,2,2.2023930550,,,
21.4531250000,2,2.7391359806,,,
21.4687500000,2,3.2215580940,,,
21.4843750000,2,3.6614990234,,,
21.5000000000,2,4.0639648438,,,
21.5156250000,2,4.4321289063,,,
21.5312500000,2,4.7957758904,,,
21.5468750000,2,5.2246088982,,,
21.5625000000,2,5.7947998047,,,
21.5781250000,2,6.5020751953,,,
21.5937500000,2,7.2391362190,,,
21.6093750000,2,7.7869868279,,,
21.6250000000,2,7.9128417969,,,
21.6406250000,2,7.4678959846,,,
21.6562500000,2,6.4508061409,,,
21.6718750000,2,4.9860839844,,,
21.6875000000,2,3.2377929688,,,
21.7031250000,2,1.3559570313,,,
21.7187500000,2,-0.5535889268,,,
21.7343750000,2,-2.3920900822,,,
21.7500000000,2,-4.0102539063,,,
21.7656250000,2,-5.2163090706,,,
21.7812500000,2,-5.8450927734,,,
21.7968750000,2,-5.8627929688,,,
21.8125000000,2,-5.3839111328,,,
21.8281250000,2,-4.6317138672,,,
21.8437500000,2,-3.8297119141,,,
21.8593750000,2,-3.1270749569,,,
21.8750000000,2,-2.5605471134,,,
21.8906250000,2,-2.1213378906,,,
21.9062500000,2,-1.8055419922,,,
21.9218750000,2,-1.6206049919,,,
21.9375000000,2,-1.5684809685,,,
21.9531250000,2,-1.6055910587,,,
21.9687500000,2,-1.6577149630,,,
21.9843750000,2,-1.6655269861,,,
22.0000000000,2,-1.6441650391,,,
22.0156250000,2,-1.6812740564,,,
22.0312500000,2,-1.8615720272,,,
22.0468750000,2,-2.1788330078,,,
22.0625000000,2,-2.4808349609,,,
22.0781250000,2,-2.5317380428,,,
22.0937500000,2,-2.1569819450,,,
22.1093750000,2,-1.3745119572,,,
22.1250000000,2,-0.4085693061,,,
22.1406250000,2,0.4095458984,,,
22.1562500000,2,0.8143311143,,,
22.1718750000,2,0.7631835938,,,
22.1875000000,2,0.4158936143,,,
22.2031250000,2,0.0485839806,,,
22.2187500000,2,-0.1246337965,,,
22.2343750000,2,-0.0751953125,,,
22.2500000000,2,0.0570068397,,,
22.2656250000,2,0.0457763709,,,
22.2812500000,2,-0.2460937947,,,
22.2968750000,2,-0.8016356826,,,
22.3125000000,2,-1.4692380428,,,
22.3281250000,2,-2.0571289063,,,
22.3437500000,2,-2.4539790154,,,
22.3593750000,2,-2.6872560978,,,
22.3750000000,2,-2.8615720272,,,
22.3906250000,2,-3.0698239803,,,
22.4062500000,2,-3.3304440975,,,
22.4218750000,2,-3.5646970272,,,
22.4375000000,2,-3.6707758904,,,
22.4531250000,2,-3.5731201172,,,
22.4687500000,2,-3.2852780819,,,
22.4843750000,2,-2.8841550350,,,
22.5000000000,2,-2.4641110897,,,
22.5156250000,2,-2.0837399960,,,
22.5312500000,2,-1.7253420353,,,
22.5468750000,2,-1.3232419491,,,
22.5625000000,2,-0.8090819716,,,
22.5781250000,2,-0.1644286960,,,
22.5937500000,2,0.5396729112,,,
22.6093750000,2,1.1745610237,,,
22.6250000000,2,1.5632319450,,,
22.6406250000,2,1.5797120333,,,
22.6562500000,2,1.1770019531,,,
22.6718750000,2,0.4357909858,,,
22.6875000000,2,-0.4688721001,,,
22.7031250000,2,-1.3161619902,,,
22.7187500000,2,-1.9169919491,,,
22.7343750000,2,-2.1794428825,,,
22.7500000000,2,-2.1036379337,,,
22.7656250000,2,-1.7578129768,,,
22.7812500000,2,-1.2291259766,,,
22.7968750000,2,-0.6097412109,,,
22.8125000000,2,0.0093994141,,,
22.8281250000,2,0.5354003906,,,
22.8437500000,2,0.8894042969,,,
22.8593750000,2,1.0305180550,,,
22.8750000000,2,0.9855957031,,,
22.8906250000,2,0.8238524795,,,
22.9062500000,2,0.6125488281,,,
22.9218750000,2,0.3698729873,,,
22.9375000000,2,0.0640869066,,,
22.9531250000,2,-0.3481445014,,,
22.9687500000,2,-0.8670654297,,,
22.9843750000,2,-1.4086910486,,,
23.0000000000,2,-1.8132319450,,,
23.0156250000,2,-1.9482419491,,,
23.0312500000,2,-1.7647709846,,,
23.0468750000,2,-1.3012700081,,,
23.0625000000,2,-0.6627197266,,,
23.0781250000,2,0.0489501990,,,
23.0937500000,2,0.7651367188,,,
23.1093750000,2,1.4605710506,,,
23.1250000000,2,2.0977780819,,,
23.1406250000,2,2.6243898869,,,
23.1562500000,2,2.9581298828,,,
23.1718750000,2,3.0518798828,,,
23.1875000000,2,2.9023439884,,,
23.2031250000,2,2.5731201172,,,
23.2187500000,2,2.1677250862,,,
23.2343750000,2,1.7954100370,,,
23.2500000000,2,1.5396729708,,,
23.2656250000,2,1.4405519962,,,
23.2812500000,2,1.4835209846,,,
23.2968750000,2,1.5914310217,,,
23.3125000000,2,1.6507569551,,,
23.3281250000,2,1.5676269531,,,
23.3437500000,2,1.3126219511,,,
23.3593750000,2,0.9482421875,,,
23.3750000000,2,0.6010742188,,,
23.3906250000,2,0.3857421875,,,
23.4062500000,2,0.3376465142,,,
23.4218750000,2,0.3706054986,,,
23.4375000000,2,0.3453369141,,,
23.4531250000,2,0.1657714993,,,
23.4687500000,2,-0.1456298977,,,
23.4843750000,2,-0.4680176079,,,
23.5000000000,2,-0.6478270888,,,
23.5156250000,2,-0.6147460938,,,
23.5312500000,2,-0.4182128906,,,
23.5468750000,2,-0.1815185994,,,
23.5625000000,2,-0.0112304697,,,
23.5781250000,2,0.0716552734,,,
23.5937500000,2,0.1234131008,,,
23.6093750000,2,0.1995850056,,,
23.6250000000,2,0.2834472954,,,
23.6406250000,2,0.3035888970,,,
23.6562500000,2,0.1621094048,,,
23.6718750000,2,-0.1510010064,,,
23.6875000000,2,-0.5539550781,,,
23.7031250000,2,-0.9049072266,,,
23.7187500000,2,-1.0944819450,,,
23.7343750000,2,-1.0977779627,,,
23.7500000000,2,-0.9675292969,,,
23.7656250000,2,-0.7803955078,,,
23.7812500000,2,-0.5688477159,,,
23.7968750000,2,-0.3493652046,,,
23.8125000000,2,-0.1461181939,,,
23.8281250000,2,-0.0477294885,,,
23.8437500000,2,-0.1413574070,,,
23.8593750000,2,-0.4616698921,,,
23.8750000000,2,-0.9089354873,,,
23.8906250000,2,-1.2854000330,,,
23.9062500000,2,-1.4019780159,,,
23.9218750000,2,-1.1948239803,,,
23.9375000000,2,-0.7849121094,,,
23.9531250000,2,-0.4019775093,,,
23.9687500000,2,-0.2630614936,,,
23.9843750000,2,-0.4359130859,,,
24.0000000000,3,-0.8115233779,,,
24.0156250000,3,-1.1962889433,,,
24.0312500000,3,-1.4232180119,,,
24.0468750000,3,-1.4470210075,,,
24.0625000000,3,-1.3238530159,,,
24.0781250000,3,-1.1778559685,,,
24.0937500000,3,-1.0880130529,,,
24.1093750000,3,-1.0863039494,,,
24.1250000000,3,-1.1472170353,,,
24.1406250000,3,-1.2462160587,,,
24.1562500000,3,-1.3579100370,,,
24.1718750000,3,-1.4703370333,,,
24.1875000000,3,-1.5622559786,,,
24.2031250000,3,-1.6013180017,,,
24.2187500000,3,-1.5581049919,,,
24.2343750000,3,-1.3920899630,,,
24.2500000000,3,-1.0777590275,,,
24.2656250000,3,-0.5867919922,,,
24.2812500000,3,0.1207275018,,,
24.2968750000,3,1.0568850040,,,
24.3125000000,3,2.1743159294,,,
24.3281250000,3,3.3101809025,,,
24.3437500000,3,4.2458500862,,,
24.3593750000,3,4.7399902344,,,
24.3750000000,3,4.6639399529,,,
24.3906250000,3,4.0625000000,,,
24.4062500000,3,3.1455080509,,,
24.4218750000,3,2.1828610897,,,
24.4375000000,3,1.3913569450,,,
24.4531250000,3,0.8629149795,,,
24.4687500000,3,0.5615233779,,,
24.4843750000,3,0.3934325874,,,
24.5000000000,3,0.2830811143,,,
24.5156250000,3,0.2152100056,,,
24.5312500000,3,0.1914062947,,,
24.5468750000,3,0.2019042969,,,
24.5625000000,3,0.2161864936,,,
24.5781250000,3,0.1640625000,,,
24.5937500000,3,0.0051269531,,,
24.6093750000,3,-0.2613525093,,,
24.6250000000,3,-0.5579833984,,,
24.6406250000,3,-0.7990723252,,,
24.6562500000,3,-0.9157714844,,,
24.6718750000,3,-0.8964843750,,,
24.6875000000,3,-0.7677001953,,,
24.7031250000,3,-0.5838623047,,,
24.7187500000,3,-0.3994140923,,,
24.7343750000,3,-0.2292480022,,,
24.7500000000,3,-0.0769042969,,,
24.7656250000,3,0.0637207031,,,
24.7812500000,3,0.2016602010,,,
24.7968750000,3,0.3518066108,,,
24.8125000000,3,0.5035399795,,,
24.8281250000,3,0.6361083984,,,
24.8437500000,3,0.7225341797,,,
24.8593750000,3,0.7557373047,,,
24.8750000000,3,0.7512207031,,,
24.8906250000,3,0.7329102159,,,
24.9062500000,3,0.7299805284,,,
24.9218750000,3,0.7408447266,,,
24.9375000000,3,0.7429199219,,,
24.9531250000,3,0.7076416016,,,
24.9687500000,3,0.6248779297,,,
24.9843750000,3,0.5300292969,,,
25.0000000000,3,0.4753417969,,,
25.0156250000,3,0.5257567763,,,
25.0312500000,3,0.6641845703,,,
25.0468750000,3,0.8044434190,,,
25.0625000000,3,0.8045654297,,,
25.0781250000,3,0.5393065810,,,
25.0937500000,3,-0.0051269531,,,
25.1093750000,3,-0.7232666016,,,
25.1250000000,3,-1.4102779627,,,
25.1406250000,3,-1.8581540585,,,
25.1562500000,3,-1.9664310217,,,
25.1718750000,3,-1.7868649960,,,
25.1875000000,3,-1.4624019861,,,
25.2031250000,3,-1.1665040255,,,
25.2187500000,3,-0.9949951172,,,
25.2343750000,3,-0.9291992188,,,
25.2500000000,3,-0.8808593750,,,
25.2656250000,3,-0.7797852159,,,
25.2812500000,3,-0.6132813096,,,
25.2968750000,3,-0.4427489936,,,
25.3125000000,3,-0.3685303032,,,
25.3281250000,3,-0.4362792969,,,
25.3437500000,3,-0.6143798828,,,
25.3593750000,3,-0.7966309190,,,
25.3750000000,3,-0.8618164063,,,
25.3906250000,3,-0.7508544922,,,
25.4062500000,3,-0.4829101861,,,
25.4218750000,3,-0.1589355022,,,
25.4375000000,3,0.0888671875,,,
25.4531250000,3,0.1835937947,,,
25.4687500000,3,0.1193848029,,,
25.4843750000,3,-0.0266113300,,,
25.5000000000,3,-0.1511230022,,,
25.5156250000,3,-0.1599120945,,,
25.5312500000,3,-0.0399169885,,,
25.5468750000,3,0.1496582031,,,
25.5625000000,3,0.2874755859,,,
25.5781250000,3,0.2623291016,,,
25.5937500000,3,0.0212402306,,,
25.6093750000,3,-0.4000244141,,,
25.6250000000,3,-0.8907470703,,,
25.6406250000,3,-1.3221440315,,,
25.6562500000,3,-1.5992430449,,,
25.6718750000,3,-1.7077640295,,,
25.6875000000,3,-1.6864010096,,,
25.7031250000,3,-1.6246340275,,,
25.7187500000,3,-1.5897220373,,,
25.7343750000,3,-1.6147459745,,,
25.7500000000,3,-1.6616209745,,,
25.7656250000,3,-1.6738280058,,,
25.7812500000,3,-1.5822750330,,,
25.7968750000,3,-1.3312989473,,,
25.8125000000,3,-0.9138184190,,,
25.8281250000,3,-0.3752441108,,,
25.8437500000,3,0.1954346001,,,
25.8593750000,3,0.7034912109,,,
25.8750000000,3,1.0590820313,,,
25.8906250000,3,1.2188719511,,,
25.9062500000,3,1.2117919922,,,
25.9218750000,3,1.1301269531,,,
25.9375000000,3,1.0681149960,,,
25.9531250000,3,1.0914310217,,,
25.9687500000,3,1.1822509766,,,
25.9843750000,3,1.2487790585,,,
26.0000000000,3,1.1882319450,,,
26.0156250000,3,0.9396973252,,,
26.0312500000,3,0.5343018174,,,
26.0468750000,3,0.0703125000,,,
26.0625000000,3,-0.3262938857,,,
26.0781250000,3,-0.5688477159,,,
26.0937500000,3,-0.6405029297,,,
26.1093750000,3,-0.5921630859,,,
26.1250000000,3,-0.4875487983,,,
26.1406250000,3,-0.3843994141,,,
26.1562500000,3,-0.2841796875,,,
26.1718750000,3,-0.1580810994,,,
26.1875000000,3,0.0191650409,,,
26.2031250000,3,0.2401123047,,,
26.2187500000,3,0.4530028999,,,
26.2343750000,3,0.5694580078,,,
26.2500000000,3,0.5274658203,,,
26.2656250000,3,0.3465575874,,,
26.2812500000,3,0.1224365011,,,
26.2968750000,3,0.0148925800,,,
26.3125000000,3,0.1553954929,,,
26.3281250000,3,0.5769042969,,,
26.3437500000,3,1.1728520393,,,
26.3593750000,3,1.7447509766,,,
26.3750000000,3,2.1159670353,,,
26.3906250000,3,2.2175290585,,,
26.4062500000,3,2.1192629337,,,
26.4218750000,3,1.9565429688,,,
26.4375000000,3,1.8433840275,,,
26.4531250000,3,1.7774660587,,,
26.4687500000,3,1.6853029728,,,
26.4843750000,3,1.4774169922,,,
26.5000000000,3,1.1572270393,,,
26.5156250000,3,0.8007813096,,,
26.5312500000,3,0.5272216797,,,
26.5468750000,3,0.4033203125,,,
26.5625000000,3,0.4007568061,,,
26.5781250000,3,0.4130859077,,,
26.5937500000,3,0.3258056939,,,
26.6093750000,3,0.0911865234,,,
26.6250000000,3,-0.2259521037,,,
26.6406250000,3,-0.5119628906,,,
26.6562500000,3,-0.6497802734,,,
26.6718750000,3,-0.5787354112,,,
26.6875000000,3,-0.3359375000,,,
26.7031250000,3,-0.0159912091,,,
26.7187500000,3,0.2586669922,,,
26.7343750000,3,0.3898926079,,,
26.7500000000,3,0.3304443061,,,
26.7656250000,3,0.1003417969,,,
26.7812500000,3,-0.2235106975,,,
26.7968750000,3,-0.5357666016,,,
26.8125000000,3,-0.7462158203,,,
26.8281250000,3,-0.7977294922,,,
26.8437500000,3,-0.6868895888,,,
26.8593750000,3,-0.4610596001,,,
26.8750000000,3,-0.1866454929,,,
26.8906250000,3,0.0645752028,,,
26.9062500000,3,0.2214355022,,,
26.9218750000,3,0.2258300930,,,
26.9375000000,3,0.0688476637,,,
26.9531250000,3,-0.2268065959,,,
26.9687500000,3,-0.5808104873,,,
26.9843750000,3,-0.8991699219,,,
27.0000000000,3,-1.0808110237,,,
27.0156250000,3,-1.0827640295,,,
27.0312500000,3,-0.9294434190,,,
27.0468750000,3,-0.7017822266,,,
27.0625000000,3,-0.5134276748,,,
27.0781250000,3,-0.4606933892,,,
27.0937500000,3,-0.5910645127,,,
27.1093750000,3,-0.8575438857,,,
27.1250000000,3,-1.1370849609,,,
27.1406250000,3,-1.2974849939,,,
27.1562500000,3,-1.2495119572,,,
27.1718750000,3,-1.0052490234,,,
27.1875000000,3,-0.6794434190,,,
27.2031250000,3,-0.4030762017,,,
27.2187500000,3,-0.2575683892,,,
27.2343750000,3,-0.2307129055,,,
27.2500000000,3,-0.2452393025,,,
27.2656250000,3,-0.2302245945,,,
27.2812500000,3,-0.1756591946,,,
27.2968750000,3,-0.1281737983,,,
27.3125000000,3,-0.1588135064,,,
27.3281250000,3,-0.2695313096,,,
27.3437500000,3,-0.3854979873,,,
27.3593750000,3,-0.3848876953,,,
27.3750000000,3,-0.1956786960,,,
27.3906250000,3,0.1607666016,,,
27.4062500000,3,0.5506591797,,,
27.4218750000,3,0.8322753906,,,
27.4375000000,3,0.9302979112,,,
27.4531250000,3,0.8670654297,,,
27.4687500000,3,0.7288817763,,,
27.4843750000,3,0.5946044922,,,
27.5000000000,3,0.4852294922,,,
27.5156250000,3,0.3594971001,,,
27.5312500000,3,0.1522216946,,,
27.5468750000,3,-0.1619873047,,,
27.5625000000,3,-0.5522460938,,,
27.5781250000,3,-0.9426270127,,,
27.5937500000,3,-1.2501219511,,,
27.6093750000,3,-1.4327390194,,,
27.6250000000,3,-1.4970699549,,,
27.6406250000,3,-1.4924319983,,,
27.6562500000,3,-1.4440920353,,,
27.6718750000,3,-1.3352049589,,,
27.6875000000,3,-1.1169430017,,,
27.7031250000,3,-0.7596436143,,,
27.7187500000,3,-0.2924804986,,,
27.7343750000,3,0.1784667969,,,
27.7500000000,3,0.5440673828,,,
27.7656250000,3,0.7249755859,,,
27.7812500000,3,0.7283936143,,,
27.7968750000,3,0.6350098252,,,
27.8125000000,3,0.5465087891,,,
27.8281250000,3,0.5164794922,,,
27.8437500000,3,0.5375977159,,,
27.8593750000,3,0.5653076172,,,
27.8750000000,3,0.5716552734,,,
27.8906250000,3,0.5646973252,,,
27.9062500000,3,0.5640869141,,,
27.9218750000,3,0.5762938857,,,
27.9375000000,3,0.5692139268,,,
27.9531250000,3,0.5009766221,,,
27.9687500000,3,0.3656005859,,,
27.9843750000,3,0.2113036960,,,
28.0000000000,3,0.1232910007,,,
28.0156250000,3,0.1591797024,,,
28.0312500000,3,0.3118895888,,,
28.0468750000,3,0.5036621094,,,
28.0625000000,3,0.6318358779,,,
28.0781250000,3,0.6158447266,,,
28.0937500000,3,0.4405517876,,,
28.1093750000,3,0.1428222954,,,
28.1250000000,3,-0.2113036960,,,
28.1406250000,3,-0.5866699219,,,
28.1562500000,3,-0.9791259766,,,
28.1718750000,3,-1.3831789494,,,
28.1875000000,3,-1.7515870333,,,
28.2031250000,3,-1.9846190214,,,
28.2187500000,3,-1.9686280489,,,
28.2343750000,3,-1.6590579748,,,
28.2500000000,3,-1.1176760197,,,
28.2656250000,3,-0.5092772841,,,
28.2812500000,3,-0.0367431603,,,
28.2968750000,3,0.1600341946,,,
28.3125000000,3,0.0843505934,,,
28.3281250000,3,-0.1525879055,,,
28.3437500000,3,-0.3823241889,,,
28.3593750000,3,-0.4808349907,,,
28.3750000000,3,-0.4265137017,,,
28.3906250000,3,-0.3117676079,,,
28.4062500000,3,-0.2534179986,,,
28.4218750000,3,-0.3344726861,,,
28.4375000000,3,-0.5451660156,,,
28.4531250000,3,-0.7927246094,,,
28.4687500000,3,-0.9423828125,,,
28.4843750000,3,-0.8984375000,,,
28.5000000000,3,-0.6506348252,,,
28.5156250000,3,-0.2711181939,,,
28.5312500000,3,0.1158446968,,,
28.5468750000,3,0.3975830078,,,
28.5625000000,3,0.5034180284,,,
28.5781250000,3,0.4489746094,,,
28.5937500000,3,0.3039551079,,,
28.6093750000,3,0.1446533054,,,
28.6250000000,3,0.0223388709,,,
28.6406250000,3,-0.0621337891,,,
28.6562500000,3,-0.1381835938,,,
28.6718750000,3,-0.2332763970,,,
28.6875000000,3,-0.3510741889,,,
28.7031250000,3,-0.4844971001,,,
28.7187500000,3,-0.6241455078,,,
28.7343750000,3,-0.7930908203,,,
28.7500000000,3,-1.0118410587,,,
28.7656250000,3,-1.2884520292,,,
28.7812500000,3,-1.5872800350,,,
28.7968750000,3,-1.8266600370,,,
28.8125000000,3,-1.9101560116,,,
28.8281250000,3,-1.7647709846,,,
28.8437500000,3,-1.3719480038,,,
28.8593750000,3,-0.7812500000,,,
28.8750000000,3,-0.0776367188,,,
28.8906250000,3,0.6173095703,,,
28.9062500000,3,1.2032469511,,,
28.9218750000,3,1.5941159725,,,
28.9375000000,3,1.7619630098,,,
28.9531250000,3,1.6994630098,,,
28.9687500000,3,1.4553220272,,,
28.9843750000,3,1.1085209846,,,
29.0000000000,3,0.7553710938,,,
29.0156250000,3,0.4968262017,,,
29.0312500000,3,0.3978270888,,,
29.0468750000,3,0.4864501953,,,
29.0625000000,3,0.7261962891,,,
29.0781250000,3,1.0406490564,,,
29.0937500000,3,1.3129880428,,,
29.1093750000,3,1.4396970272,,,
29.1250000000,3,1.3851319551,,,
29.1406250000,3,1.1726069450,,,
29.1562500000,3,0.8935546875,,,
29.1718750000,3,0.6431884766,,,
29.1875000000,3,0.4669188857,,,
29.2031250000,3,0.3242188096,,,
29.2187500000,3,0.1348876953,,,
29.2343750000,3,-0.1577147990,,,
29.2500000000,3,-0.5236815810,,,
29.2656250000,3,-0.8395996094,,,
29.2812500000,3,-0.9714354873,,,
29.2968750000,3,-0.8577880859,,,
29.3125000000,3,-0.5828856826,,,
29.3281250000,3,-0.3212890923,,,
29.3437500000,3,-0.2331542969,,,
29.3593750000,3,-0.3746337891,,,
29.3750000000,3,-0.6336669922,,,
29.3906250000,3,-0.8236083984,,,
29.4062500000,3,-0.7822266221,,,
29.4218750000,3,-0.4809570014,,,
29.4375000000,3,-0.0031738279,,,
29.4531250000,3,0.4786376953,,,
29.4687500000,3,0.8331298828,,,
29.4843750000,3,1.0076899529,,,
29.5000000000,3,1.0290529728,,,
29.5156250000,3,0.9666748047,,,
29.5312500000,3,0.8656005859,,,
29.5468750000,3,0.7366942763,,,
29.5625000000,3,0.5795897841,,,
29.5781250000,3,0.4055176079,,,
29.5937500000,3,0.2526854873,,,
29.6093750000,3,0.1584472954,,,
29.6250000000,3,0.1470946968,,,
29.6406250000,3,0.1966553032,,,
29.6562500000,3,0.2597655952,,,
29.6718750000,3,0.2850342095,,,
29.6875000000,3,0.2379149944,,,
29.7031250000,3,0.1105957031,,,
29.7187500000,3,-0.0888671875,,,
29.7343750000,3,-0.3297119141,,,
29.7500000000,3,-0.5762938857,,,
29.7656250000,3,-0.7786865234,,,
29.7812500000,3,-0.8857421875,,,
29.7968750000,3,-0.8524169922,,,
29.8125000000,3,-0.6779785156,,,
29.8281250000,3,-0.4030762017,,,
29.8437500000,3,-0.1141356975,,,
29.8593750000,3,0.0858154297,,,
29.8750000000,3,0.1520995945,,,
29.8906250000,3,0.1141356975,,,
29.9062500000,3,0.0698242188,,,
29.9218750000,3,0.1187743992,,,
29.9375000000,3,0.3052979112,,,
29.9531250000,3,0.5799561143,,,
29.9687500000,3,0.8332520127,,,
29.9843750000,3,0.9747313857,,,
30.0000000000,3,0.9750977159,,,
30.0156250000,3,0.9019774795,,,
30.0312500000,3,0.8529052734,,,
30.0468750000,3,0.8892822266,,,
30.0625000000,3,1.0042719841,,,
30.0781250000,3,1.1295169592,,,
30.0937500000,3,1.1999510527,,,
30.1093750000,3,1.1787110567,,,
30.1250000000,3,1.1062010527,,,
30.1406250000,3,1.0340579748,,,
30.1562500000,3,0.9907227159,,,
30.1718750000,3,0.9650878906,,,
30.1875000000,3,0.9101563096,,,
30.2031250000,3,0.7872313857,,,
30.2187500000,3,0.5856934190,,,
30.2343750000,3,0.3422851861,,,
30.2500000000,3,0.0964355469,,,
30.2656250000,3,-0.1295166016,,,
30.2812500000,3,-0.3416748047,,,
30.2968750000,3,-0.5599365234,,,
30.3125000000,3,-0.7980957031,,,
30.3281250000,3,-1.0573730469,,,
30.3437500000,3,-1.3251949549,,,
30.3593750000,3,-1.5747070313,,,
30.3750000000,3,-1.7792969942,,,
30.3906250000,3,-1.8856199980,,,
30.4062500000,3,-1.8331300020,,,
30.4218750000,3,-1.5833740234,,,
30.4375000000,3,-1.1492919922,,,
30.4531250000,3,-0.6048583984,,,
30.4687500000,3,-0.0921630934,,,
30.4843750000,3,0.2377929986,,,
30.5000000000,3,0.2758789063,,,
30.5156250000,3,0.0223388709,,,
30.5312500000,3,-0.4234619141,,,
30.5468750000,3,-0.8889160156,,,
30.5625000000,3,-1.2059329748,,,
30.5781250000,3,-1.2941889763,,,
30.5937500000,3,-1.1627199650,,,
30.6093750000,3,-0.9117432237,,,
30.6250000000,3,-0.6475830078,,,
30.6406250000,3,-0.4423828125,,,
30.6562500000,3,-0.3039551079,,,
30.6718750000,3,-0.1890868992,,,
30.6875000000,3,-0.0579833984,,,
30.7031250000,3,0.0855712891,,,
30.7187500000,3,0.1890868992,,,
30.7343750000,3,0.1894530952,,,
30.7500000000,3,0.0701904297,,,
30.7656250000,3,-0.1236571968,,,
30.7812500000,3,-0.2828369141,,,
30.7968750000,3,-0.2832030952,,,
30.8125000000,3,-0.0725097731,,,
30.8281250000,3,0.3089599907,,,
30.8437500000,3,0.7567139268,,,
30.8593750000,3,1.1516109705,,,
30.8750000000,3,1.4307860136,,,
30.8906250000,3,1.6070560217,,,
30.9062500000,3,1.7208249569,,,
30.9218750000,3,1.7800290585,,,
30.9375000000,3,1.7426760197,,,
30.9531250000,3,1.5278320313,,,
30.9687500000,3,1.1003420353,,,
30.9843750000,3,0.5262451172,,,
31.0000000000,3,-0.0395507813,,,
31.0156250000,3,-0.4176025093,,,
31.0312500000,3,-0.5273438096,,,
31.0468750000,3,-0.4139403999,,,
31.0625000000,3,-0.2225341946,,,
31.0781250000,3,-0.1008301005,,,
31.0937500000,3,-0.1113281026,,,
31.1093750000,3,-0.1824951023,,,
31.1250000000,3,-0.1845702976,,,
31.1406250000,3,-0.0361328088,,,
31.1562500000,3,0.2246094048,,,
31.1718750000,3,0.4433594048,,,
31.1875000000,3,0.4624023139,,,
31.2031250000,3,0.2255858928,,,
31.2187500000,3,-0.1600341946,,,
31.2343750000,3,-0.5024414063,,,
31.2500000000,3,-0.6182860732,,,
31.2656250000,3,-0.4696044922,,,
31.2812500000,3,-0.1771239936,,,
31.2968750000,3,0.0723877028,,,
31.3125000000,3,0.1229247972,,,
31.3281250000,3,-0.0576171912,,,
31.3437500000,3,-0.3637695014,,,
31.3593750000,3,-0.6405029297,,,
31.3750000000,3,-0.7491455078,,,
31.3906250000,3,-0.6500244141,,,
31.4062500000,3,-0.3852539063,,,
31.4218750000,3,-0.0493164100,,,
31.4375000000,3,0.2795409858,,,
31.4531250000,3,0.5488281250,,,
31.4687500000,3,0.7609863281,,,
31.4843750000,3,0.9067382813,,,
31.5000000000,3,0.9769287109,,,
31.5156250000,3,0.9467772841,,,
31.5312500000,3,0.7717285156,,,
31.5468750000,3,0.4407958984,,,
31.5625000000,3,-0.0319824181,,,
31.5781250000,3,-0.5670166016,,,
31.5937500000,3,-1.0731199980,,,
31.6093750000,3,-1.4493410587,,,
31.6250000000,3,-1.6455080509,,,
31.6406250000,3,-1.6640629768,,,
31.6562500000,3,-1.5430910587,,,
31.6718750000,3,-1.3332519531,,,
31.6875000000,3,-1.0661619902,,,
31.7031250000,3,-0.7601317763,,,
31.7187500000,3,-0.4519042969,,,
31.7343750000,3,-0.1912841946,,,
31.7500000000,3,-0.0395507813,,,
31.7656250000,3,-0.0169677697,,,
31.7812500000,3,-0.1090087965,,,
31.7968750000,3,-0.2631835938,,,
31.8125000000,3,-0.4256592095,,,
31.8281250000,3,-0.5638427734,,,
31.8437500000,3,-0.6561279297,,,
31.8593750000,3,-0.6801757813,,,
31.8750000000,3,-0.5924072266,,,
31.8906250000,3,-0.3786621094,,,
31.9062500000,3,-0.0565185510,,,
31.9218750000,3,0.2999267876,,,
31.9375000000,3,0.5666503906,,,
31.9531250000,3,0.6291503906,,,
31.9687500000,3,0.4468994141,,,
31.9843750000,3,0.0511474609,,,
32.0000000000,4,-0.4375000000,,,
32.0156250000,4,-0.8718261719,,,
32.0312500000,4,-1.1342769861,,,
32.0468750000,4,-1.1623539925,,,
32.0625000000,4,-0.9808350205,,,
32.0781250000,4,-0.6651610732,,,
32.0937500000,4,-0.3233642876,,,
32.1093750000,4,-0.0358886681,,,
32.1250000000,4,0.1563721001,,,
32.1406250000,4,0.2849121094,,,
32.1562500000,4,0.4134520888,,,
32.1718750000,4,0.5891113281,,,
32.1875000000,4,0.8245850205,,,
32.2031250000,4,1.1022950411,,,
32.2187500000,4,1.3911130428,,,
32.2343750000,4,1.7059329748,,,
32.2500000000,4,2.0670170784,,,
32.2656250000,4,2.4827880859,,,
32.2812500000,4,2.9085690975,,,
32.2968750000,4,3.2537839413,,,
32.3125000000,4,3.4296879768,,,
32.3281250000,4,3.4080810547,,,
32.3437500000,4,3.2296140194,,,
32.3593750000,4,2.9985349178,,,
32.3750000000,4,2.7946779728,,,
32.3906250000,4,2.6326899529,,,
32.4062500000,4,2.4556879997,,,
32.4218750000,4,2.1855471134,,,
32.4375000000,4,1.7602540255,,,
32.4531250000,4,1.1588129997,,,
32.4687500000,4,0.3857421875,,,
32.4843750000,4,-0.5959473252,,,
32.5000000000,4,-1.8330080509,,,
32.5156250000,4,-3.3433840275,,,
32.5312500000,4,-5.0385742188,,,
32.5468750000,4,-6.6936039925,,,
32.5625000000,4,-8.0012207031,,,
32.5781250000,4,-8.7014160156,,,
32.5937500000,4,-8.7202148438,,,
32.6093750000,4,-8.1784667969,,,
32.6250000000,4,-7.2905268669,,,
32.6406250000,4,-6.1915278435,,,
32.6562500000,4,-4.8801269531,,,
32.6718750000,4,-3.3098139763,,,
32.6875000000,4,-1.5446779728,,,
32.7031250000,4,0.0585937500,,,
32.7187500000,4,0.9078369141,,,
32.7343750000,4,0.4033203125,,,
32.7500000000,4,-1.7457280159,,,
32.7656250000,4,-5.3165278435,,,
32.7812500000,4,-9.6163330078,,,
32.7968750000,4,-13.7104501724,,,
32.8125000000,4,-16.7779502869,,,
32.8281250000,4,-18.3441200256,,,
32.8437500000,4,-18.3618202209,,,
32.8593750000,4,-17.0583496094,,,
32.8750000000,4,-14.8420400620,,,
32.8906250000,4,-12.1814002991,,,
32.9062500000,4,-9.5579833984,,,
32.9218750000,4,-7.4042968750,,,
32.9375000000,4,-6.0028080940,,,
32.9531250000,4,-5.3474121094,,,
32.9687500000,4,-5.0642089844,,,
32.9843750000,4,-4.5513920784,,,
33.0000000000,4,-3.2114260197,,,
33.0156250000,4,-0.7463378906,,,
33.0312500000,4,2.6463620663,,,
33.0468750000,4,6.3089599609,,,
33.0625000000,4,9.3554687500,,,
33.0781250000,4,11.0292997360,,,
33.0937500000,4,10.9558095932,,,
33.1093750000,4,9.2642822266,,,
33.1250000000,4,6.4444580078,,,
33.1406250000,4,3.1525878906,,,
33.1562500000,4,-0.0294189509,,,
33.1718750000,4,-2.7003169060,,,
33.1875000000,4,-4.6065669060,,,
33.2031250000,4,-5.5628662109,,,
33.2187500000,4,-5.4196782112,,,
33.2343750000,4,-4.0797119141,,,
33.2500000000,4,-1.6085209846,,,
33.2656250000,4,1.6931149960,,,
33.2812500000,4,5.2818598747,,,
33.2968750000,4,8.5451660156,,,
33.3125000000,4,11.0158700943,,,
33.3281250000,4,12.5270996094,,,
33.3437500000,4,13.2352304459,,,
33.3593750000,4,13.4818096161,,,
33.3750000000,4,13.5687303543,,,
33.3906250000,4,13.5850801468,,,
33.4062500000,4,13.3942899704,,,
33.4218750000,4,12.7939500809,,,
33.4375000000,4,11.6414804459,,,
33.4531250000,4,9.9978027344,,,
33.4687500000,4,8.1003417969,,,
33.4843750000,4,6.2449951172,,,
33.5000000000,4,4.6674799919,,,
33.5156250000,4,3.4969480038,,,
33.5312500000,4,2.7348630428,,,
33.5468750000,4,2.3077390194,,,
33.5625000000,4,2.1181640625,,,
33.5781250000,4,2.0651860237,,,
33.5937500000,4,2.0438230038,,,
33.6093750000,4,1.9656980038,,,
33.6250000000,4,1.7451169491,,,
33.6406250000,4,1.3452149630,,,
33.6562500000,4,0.7808837891,,,
33.6718750000,4,0.1468506008,,,
33.6875000000,4,-0.3946532905,,,
33.7031250000,4,-0.6289063096,,,
33.7187500000,4,-0.4011229873,,,
33.7343750000,4,0.3560791016,,,
33.7500000000,4,1.5521240234,,,
33.7656250000,4,2.9525148869,,,
33.7812500000,4,4.2515869141,,,
33.7968750000,4,5.1783452034,,,
33.8125000000,4,5.6042480469,,,
33.8281250000,4,5.5637211800,,,
33.8437500000,4,5.2318120003,,,
33.8593750000,4,4.8083500862,,,
33.8750000000,4,4.4226069450,,,
33.8906250000,4,4.0676269531,,,
33.9062500000,4,3.5971679688,,,
33.9218750000,4,2.8192141056,,,
33.9375000000,4,1.5747070313,,,
33.9531250000,4,-0.1728516072,,,
33.9687500000,4,-2.2934570313,,,
33.9843750000,4,-4.5184330940,,,
34.0000000000,4,-6.5059809685,,,
34.0156250000,4,-7.9240717888,,,
34.0312500000,4,-8.5344238281,,,
34.0468750000,4,-8.2271728516,,,
34.0625000000,4,-7.0507807732,,,
34.0781250000,4,-5.1861572266,,,
34.0937500000,4,-2.9399409294,,,
34.1093750000,4,-0.6848145127,,,
34.1250000000,4,1.2139890194,,,
34.1406250000,4,2.4901120663,,,
34.1562500000,4,3.0410161018,,,
34.1718750000,4,2.9468989372,,,
34.1875000000,4,2.4405519962,,,
34.2031250000,4,1.8319089413,,,
34.2187500000,4,1.3734129667,,,
34.2343750000,4,1.1956789494,,,
34.2500000000,4,1.2785639763,,,
34.2656250000,4,1.4575200081,,,
34.2812500000,4,1.5086669922,,,
34.2968750000,4,1.2299799919,,,
34.3125000000,4,0.5031738281,,,
34.3281250000,4,-0.6573485732,,,
34.3437500000,4,-2.1203610897,,,
34.3593750000,4,-3.6641850471,,,
34.3750000000,4,-5.0231928825,,,
34.3906250000,4,-5.9598388672,,,
34.4062500000,4,-6.3015141487,,,
34.4218750000,4,-5.9870610237,,,
34.4375000000,4,-5.0675048828,,,
34.4531250000,4,-3.7135009766,,,
34.4687500000,4,-2.1579589844,,,
34.4843750000,4,-0.6492919922,,,
34.5000000000,4,0.6159667969,,,
34.5156250000,4,1.5352779627,,,
34.5312500000,4,2.0773930550,,,
34.5468750000,4,2.3000490665,,,
34.5625000000,4,2.2976069450,,,
34.5781250000,4,2.1961669922,,,
34.5937500000,4,2.1027829647,,,
34.6093750000,4,2.0709230900,,,
34.6250000000,4,2.0670170784,,,
34.6406250000,4,1.9665529728,,,
34.6562500000,4,1.5997309685,,,
34.6718750000,4,0.8452147841,,,
34.6875000000,4,-0.2871094048,,,
34.7031250000,4,-1.6308590174,,,
34.7187500000,4,-2.9088129997,,,
34.7343750000,4,-3.8546140194,,,
34.7500000000,4,-4.2927250862,,,
34.7656250000,4,-4.1885991096,,,
34.7812500000,4,-3.6176760197,,,
34.7968750000,4,-2.6965329647,,,
34.8125000000,4,-1.5407710075,,,
34.8281250000,4,-0.2508544922,,,
34.8437500000,4,1.0577390194,,,
34.8593750000,4,2.2404789925,,,
34.8750000000,4,3.1652829647,,,
34.8906250000,4,3.7374269962,,,
34.9062500000,4,3.9600830078,,,
34.9218750000,4,3.8983149529,,,
34.9375000000,4,3.6646730900,,,
34.9531250000,4,3.3303220272,,,
34.9687500000,4,2.9135739803,,,
34.9843750000,4,2.3791499138,,,
35.0000000000,4,1.6654050350,,,
35.0156250000,4,0.7369384766,,,
35.0312500000,4,-0.3881835938,,,
35.0468750000,4,-1.6049799919,,,
35.0625000000,4,-2.7509770393,,,
35.0781250000,4,-3.6363530159,,,
35.0937500000,4,-4.1083979607,,,
35.1093750000,4,-4.1170649529,,,
35.1250000000,4,-3.7226560116,,,
35.1406250000,4,-3.0686039925,,,
35.1562500000,4,-2.3164060116,,,
35.1718750000,4,-1.5931400061,,,
35.1875000000,4,-0.9562988281,,,
35.2031250000,4,-0.4193114936,,,
35.2187500000,4,0.0440673791,,,
35.2343750000,4,0.4538573921,,,
35.2500000000,4,0.8056641221,,,
35.2656250000,4,1.0958249569,,,
35.2812500000,4,1.2998050451,,,
35.2968750000,4,1.3725589514,,,
35.3125000000,4,1.2479250431,,,
35.3281250000,4,0.8551024795,,,
35.3437500000,4,0.1437987983,,,
35.3593750000,4,-0.8715819716,,,
35.3750000000,4,-2.0845949650,,,
35.3906250000,4,-3.3182370663,,,
35.4062500000,4,-4.3520507813,,,
35.4218750000,4,-5.0009770393,,,
35.4375000000,4,-5.1564941406,,,
35.4531250000,4,-4.8353271484,,,
35.4687500000,4,-4.1663818359,,,
35.4843750000,4,-3.3641359806,,,
35.5000000000,4,-2.6507570744,,,
35.5156250000,4,-2.2003169060,,,
35.5312500000,4,-2.0754389763,,,
35.5468750000,4,-2.1925048828,,,
35.5625000000,4,-2.3138430119,,,
35.5781250000,4,-2.1262209415,,,
35.5937500000,4,-1.3189699650,,,
35.6093750000,4,0.2796630859,,,
35.6250000000,4,2.6217041016,,,
35.6406250000,4,5.4136958122,,,
35.6562500000,4,8.1888427734,,,
35.6718750000,4,10.4465303421,,,
35.6875000000,4,11.8249502182,,,
35.7031250000,4,12.1701698303,,,
35.7187500000,4,11.5609102249,,,
35.7343750000,4,10.2226600647,,,
35.7500000000,4,8.4278564453,,,
35.7656250000,4,6.4364008904,,,
35.7812500000,4,4.4577641487,,,
35.7968750000,4,2.6788330078,,,
35.8125000000,4,1.2490229607,,,
35.8281250000,4,0.2565917969,,,
35.8437500000,4,-0.2988280952,,,
35.8593750000,4,-0.5097656250,,,
35.8750000000,4,-0.5196533203,,,
35.8906250000,4,-0.4603270888,,,
35.9062500000,4,-0.3989258111,,,
35.9218750000,4,-0.3382568061,,,
35.9375000000,4,-0.2625732124,,,
35.9531250000,4,-0.1699219048,,,
35.9687500000,4,-0.0831298828,,,
35.9843750000,4,-0.0334472694,,,
36.0000000000,4,-0.0424804688,,,
36.0156250000,4,-0.1101073995,,,
36.0312500000,4,-0.2276611030,,,
36.0468750000,4,-0.4075928032,,,
36.0625000000,4,-0.6777343750,,,
36.0781250000,4,-1.0688480139,,,
36.0937500000,4,-1.5675050020,,,
36.1093750000,4,-2.1221919060,,,
36.1250000000,4,-2.6295170784,,,
36.1406250000,4,-2.9576420784,,,
36.1562500000,4,-3.0050048828,,,
36.1718750000,4,-2.7327880859,,,
36.1875000000,4,-2.1791989803,,,
36.2031250000,4,-1.4785159826,,,
36.2187500000,4,-0.7930908203,,,
36.2343750000,4,-0.3010253906,,,
36.2500000000,4,-0.1116942987,,,
36.2656250000,4,-0.2525635064,,,
36.2812500000,4,-0.6687011719,,,
36.2968750000,4,-1.2287600040,,,
36.3125000000,4,-1.7958979607,,,
36.3281250000,4,-2.2642819881,,,
36.3437500000,4,-2.5911870003,,,
36.3593750000,4,-2.7750239372,,,
36.3750000000,4,-2.8179929256,,,
36.3906250000,4,-2.7059330940,,,
36.4062500000,4,-2.4073491096,,,
36.4218750000,4,-1.8723139763,,,
36.4375000000,4,-1.1042480469,,,
36.4531250000,4,-0.1689452976,,,
36.4687500000,4,0.8032227159,,,
36.4843750000,4,1.6512449980,,,
36.5000000000,4,2.2506101131,,,
36.5156250000,4,2.5512700081,,,
36.5312500000,4,2.5839838982,,,
36.5468750000,4,2.4179689884,,,
36.5625000000,4,2.1136469841,,,
36.5781250000,4,1.7047120333,,,
36.5937500000,4,1.2037349939,,,
36.6093750000,4,0.6289063096,,,
36.6250000000,4,0.0373535194,,,
36.6406250000,4,-0.4843750000,,,
36.6562500000,4,-0.8764647841,,,
36.6718750000,4,-1.1276860237,,,
36.6875000000,4,-1.2811280489,,,
36.7031250000,4,-1.3940429688,,,
36.7187500000,4,-1.4930419922,,,
36.7343750000,4,-1.5521240234,,,
36.7500000000,4,-1.4995119572,,,
36.7656250000,4,-1.2778320313,,,
36.7812500000,4,-0.8939208984,,,
36.7968750000,4,-0.4099121094,,,
36.8125000000,4,0.0594482385,,,
36.8281250000,4,0.3991698921,,,
36.8437500000,4,0.5424805284,,,
36.8593750000,4,0.4554443061,,,
36.8750000000,4,0.1564940959,,,
36.8906250000,4,-0.3236083984,,,
36.9062500000,4,-0.9305419922,,,
36.9218750000,4,-1.5567630529,,,
36.9375000000,4,-2.0812990665,,,
36.9531250000,4,-2.3780519962,,,
36.9687500000,4,-2.3930659294,,,
36.9843750000,4,-2.1928710938,,,
37.0000000000,4,-1.9619139433,,,
37.0156250000,4,-1.9254150391,,,
37.0312500000,4,-2.2574460506,,,
37.0468750000,4,-2.9525148869,,,
37.0625000000,4,-3.8310549259,,,
37.0781250000,4,-4.5904541016,,,
37.0937500000,4,-4.9465332031,,,
37.1093750000,4,-4.7922358513,,,
37.1250000000,4,-4.2663569450,,,
37.1406250000,4,-3.7072749138,,,
37.1562500000,4,-3.4987790585,,,
37.1718750000,4,-3.9045410156,,,
37.1875000000,4,-4.9396967888,,,
37.2031250000,4,-6.3602290154,,,
37.2187500000,4,-7.7678217888,,,
37.2343750000,4,-8.7520751953,,,
37.2500000000,4,-9.0616464615,,,
37.2656250000,4,-8.6875000000,,,
37.2812500000,4,-7.8994140625,,,
37.2968750000,4,-7.1391601563,,,
37.3125000000,4,-6.9810791016,,,
37.3281250000,4,-7.9791259766,,,
37.3437500000,4,-10.5087900162,,,
37.3593750000,4,-14.5822801590,,,
37.3750000000,4,-19.6547908783,,,
37.3906250000,4,-24.6063194275,,,
37.4062500000,4,-27.9777793884,,,
37.4218750000,4,-28.4442100525,,,
37.4375000000,4,-25.4498291016,,,
37.4531250000,4,-19.6204795837,,,
37.4687500000,4,-12.7399902344,,,
37.4843750000,4,-7.1542968750,,,
37.5000000000,4,-4.8048100471,,,
37.5156250000,4,-6.3646240234,,,
37.5312500000,4,-10.9200401306,,,
37.5468750000,4,-16.3765907288,,,
37.5625000000,4,-20.4007606506,,,
37.5781250000,4,-21.3404502869,,,
37.5937500000,4,-18.7050800323,,,
37.6093750000,4,-13.0158700943,,,
37.6250000000,4,-5.2510991096,,,
37.6406250000,4,3.7194819450,,,
37.6562500000,4,13.3421602249,,,
37.6718750000,4,23.1904296875,,,
37.6875000000,4,32.6318397522,,,
37.7031250000,4,40.6541709900,,,
37.7187500000,4,46.0595703125,,,
37.7343750000,4,47.9709510803,,,
37.7500000000,4,46.3143310547,,,
37.7656250000,4,41.9614295959,,,
37.7812500000,4,36.4542198181,,,
37.7968750000,4,31.4659404755,,,
37.8125000000,4,28.2216796875,,,
37.8281250000,4,27.2338905334,,,
37.8437500000,4,28.3315391541,,,
37.8593750000,4,30.8992900848,,,
37.8750000000,4,34.1633300781,,,
37.8906250000,4,37.3900108337,,,
37.9062500000,4,39.9553184509,,,
37.9218750000,4,41.4030799866,,,
37.9375000000,4,41.4982910156,,,
37.9531250000,4,40.3245811462,,,
37.9687500000,4,38.3566894531,,,
37.9843750000,4,36.3924598694,,,
38.0000000000,4,35.3765907288,,,
38.0156250000,4,36.1245117188,,,
38.0312500000,4,39.0247802734,,,
38.0468750000,4,43.7357215881,,,
38.0625000000,4,49.0009803772,,,
38.0781250000,4,52.8455810547,,,
38.0937500000,4,52.9945106506,,,
38.1093750000,4,47.6909217834,,,
38.1250000000,4,36.4959716797,,,
38.1406250000,4,20.6768798828,,,
38.1562500000,4,2.8917241096,,,
38.1718750000,4,-13.7723398209,,,
38.1875000000,4,-26.9350605011,,,
38.2031250000,4,-35.6378211975,,,
38.2187500000,4,-40.3356895447,,,
38.2343750000,4,-42.2359580994,,,
38.2500000000,4,-42.4989013672,,,
38.2656250000,4,-41.7995605469,,,
38.2812500000,4,-40.4114990234,,,
38.2968750000,4,-38.5745811462,,,
38.3125000000,4,-36.7828407288,,,
38.3281250000,4,-35.6158409119,,,
38.3437500000,4,-35.3227500916,,,
38.3593750000,4,-35.5090293884,,,
38.3750000000,4,-35.2416992188,,,
38.3906250000,4,-33.5551795959,,,
38.4062500000,4,-30.0103797913,,,
38.4218750000,4,-25.0185508728,,,
38.4375000000,4,-19.6112098694,,,
38.4531250000,4,-14.9383497238,,,
38.4687500000,4,-11.7220497131,,,
38.4843750000,4,-10.0129404068,,,
38.5000000000,4,-9.2962646484,,,
38.5156250000,4,-8.7990722656,,,
38.5312500000,4,-7.7641601563,,,
38.5468750000,4,-5.6739501953,,,
38.5625000000,4,-2.4360349178,,,
38.5781250000,4,1.6655269861,,,
38.5937500000,4,5.9455571175,,,
38.6093750000,4,9.4636230469,,,
38.6250000000,4,11.2940702438,,,
38.6406250000,4,10.8153095245,,,
38.6562500000,4,7.9423828125,,,
38.6718750000,4,3.1931149960,,,
38.6875000000,4,-2.5239260197,,,
38.7031250000,4,-8.2478027344,,,
38.7187500000,4,-13.2695302963,,,
38.7343750000,4,-17.2930908203,,,
38.7500000000,4,-20.3624305725,,,
38.7656250000,4,-22.6428203583,,,
38.7812500000,4,-24.2182598114,,,
38.7968750000,4,-24.9794902802,,,
38.8125000000,4,-24.7106895447,,,
38.8281250000,4,-23.2353496552,,,
38.8437500000,4,-20.5699501038,,,
38.8593750000,4,-16.9473896027,,,
38.8750000000,4,-12.7597703934,,,
38.8906250000,4,-8.4407958984,,,
38.9062500000,4,-4.3356928825,,,
38.9218750000,4,-0.6976317763,,,
38.9375000000,4,2.2878420353,,,
38.9531250000,4,4.4743652344,,,
38.9687500000,4,5.7359619141,,,
38.9843750000,4,6.0272221565,,,
39.0000000000,4,5.4412841797,,,
39.0156250000,4,4.2120361328,,,
39.0312500000,4,2.6744379997,,,
39.0468750000,4,1.1926269531,,,
39.0625000000,4,0.0599365197,,,
39.0781250000,4,-0.5410156250,,,
39.0937500000,4,-0.5527343750,,,
39.1093750000,4,-0.0565185510,,,
39.1250000000,4,0.7736815810,,,
39.1406250000,4,1.7078859806,,,
39.1562500000,4,2.5262451172,,,
39.1718750000,4,3.0834960938,,,
39.1875000000,4,3.3581540585,,,
39.2031250000,4,3.3969728947,,,
39.2187500000,4,3.2989499569,,,
39.2343750000,4,3.1391599178,,,
39.2500000000,4,2.9353029728,,,
39.2656250000,4,2.6698000431,,,
39.2812500000,4,2.3192141056,,,
39.2968750000,4,1.9008790255,,,
39.3125000000,4,1.4713129997,,,
39.3281250000,4,1.1240229607,,,
39.3437500000,4,0.9243164063,,,
39.3593750000,4,0.9001464844,,,
39.3750000000,4,1.0142819881,,,
39.3906250000,4,1.1867680550,,,
39.4062500000,4,1.3427729607,,,
39.4218750000,4,1.4549560547,,,
39.4375000000,4,1.5357669592,,,
39.4531250000,4,1.6110839844,,,
39.4687500000,4,1.6916500330,,,
39.4843750000,4,1.7764890194,,,
39.5000000000,4,1.8438719511,,,
39.5156250000,4,1.8908690214,,,
39.5312500000,4,1.9189449549,,,
39.5468750000,4,1.9616700411,,,
39.5625000000,4,2.0280759335,,,
39.5781250000,4,2.0946040154,,,
39.5937500000,4,2.1151120663,,,
39.6093750000,4,2.0454099178,,,
39.6250000000,4,1.8768310547,,,
39.6406250000,4,1.6564940214,,,
39.6562500000,4,1.4614260197,,,
39.6718750000,4,1.3383790255,,,
39.6875000000,4,1.2747800350,,,
39.7031250000,4,1.1932369471,,,
39.7187500000,4,0.9995117188,,,
39.7343750000,4,0.6351317763,,,
39.7500000000,4,0.1153564006,,,
39.7656250000,4,-0.4582520127,,,
39.7812500000,4,-0.9404296875,,,
39.7968750000,4,-1.1983640194,,,
39.8125000000,4,-1.1575930119,,,
39.8281250000,4,-0.8447266221,,,
39.8437500000,4,-0.4107666016,,,
39.8593750000,4,-0.0544433594,,,
39.8750000000,4,0.0540771484,,,
39.8906250000,4,-0.1606445014,,,
39.9062500000,4,-0.6542968750,,,
39.9218750000,4,-1.2639160156,,,
39.9375000000,4,-1.7911380529,,,
39.9531250000,4,-2.0599370003,,,
39.9687500000,4,-1.9829100370,,,
39.9843750000,4,-1.5590820313,,,
40.0000000000,5,-0.8851317763,,,
40.0156250000,5,-0.0952148363,,,
40.0312500000,5,0.6614990234,,,
40.0468750000,5,1.2587889433,,,
40.0625000000,5,1.6036380529,,,
40.0781250000,5,1.6567380428,,,
40.0937500000,5,1.4448239803,,,
40.1093750000,5,1.0493160486,,,
40.1250000000,5,0.5772705078,,,
40.1406250000,5,0.1171875000,,,
40.1562500000,5,-0.2730712891,,,
40.1718750000,5,-0.5693358779,,,
40.1875000000,5,-0.7572020888,,,
40.2031250000,5,-0.8123779297,,,
40.2187500000,5,-0.7222899795,,,
40.2343750000,5,-0.4975585938,,,
40.2500000000,5,-0.2226562947,,,
40.2656250000,5,-0.0136718797,,,
40.2812500000,5,0.0183105506,,,
40.2968750000,5,-0.1848144978,,,
40.3125000000,5,-0.5921630859,,,
40.3281250000,5,-1.0803220272,,,
40.3437500000,5,-1.5030519962,,,
40.3593750000,5,-1.7583010197,,,
40.3750000000,5,-1.8167719841,,,
40.3906250000,5,-1.7431639433,,,
40.4062500000,5,-1.6387939453,,,
40.4218750000,5,-1.5704350471,,,
40.4375000000,5,-1.5509029627,,,
40.4531250000,5,-1.5347900391,,,
40.4687500000,5,-1.4732669592,,,
40.4843750000,5,-1.3471679688,,,
40.5000000000,5,-1.1832280159,,,
40.5156250000,5,-1.0383299589,,,
40.5312500000,5,-0.9664307237,,,
40.5468750000,5,-0.9626464844,,,
40.5625000000,5,-0.9653319716,,,
40.5781250000,5,-0.8804932237,,,
40.5937500000,5,-0.6296386719,,,
40.6093750000,5,-0.2060547024,,,
40.6250000000,5,0.3211669922,,,
40.6406250000,5,0.8085938096,,,
40.6562500000,5,1.1242680550,,,
40.6718750000,5,1.1838380098,,,
40.6875000000,5,1.0048830509,,,
40.7031250000,5,0.6905518174,,,
40.7187500000,5,0.3969726861,,,
40.7343750000,5,0.2550049126,,,
40.7500000000,5,0.3018799126,,,
40.7656250000,5,0.4851073921,,,
40.7812500000,5,0.6699218750,,,
40.7968750000,5,0.7335205078,,,
40.8125000000,5,0.6029052734,,,
40.8281250000,5,0.3085938096,,,
40.8437500000,5,-0.0635986328,,,
40.8593750000,5,-0.4156494141,,,
40.8750000000,5,-0.6645507813,,,
40.8906250000,5,-0.7683104873,,,
40.9062500000,5,-0.6911621094,,,
40.9218750000,5,-0.4108887017,,,
40.9375000000,5,0.0837402269,,,
40.9531250000,5,0.7589110732,,,
40.9687500000,5,1.5207519531,,,
40.9843750000,5,2.2108149529,,,
41.0000000000,5,2.6611330509,,,
41.0156250000,5,2.7753911018,,,
41.0312500000,5,2.5775148869,,,
41.0468750000,5,2.2398679256,,,
41.0625000000,5,2.0021970272,,,
41.0781250000,5,2.0640869141,,,
41.0937500000,5,2.4766850471,,,
41.1093750000,5,3.0996088982,,,
41.1250000000,5,3.6667480469,,,
41.1406250000,5,3.9321289063,,,
41.1562500000,5,3.8172609806,,,
41.1718750000,5,3.4737548828,,,
41.1875000000,5,3.2298579216,,,
41.2031250000,5,3.4138178825,,,
41.2187500000,5,4.1496582031,,,
41.2343750000,5,5.2402338982,,,
41.2500000000,5,6.1986079216,,,
41.2656250000,5,6.4847412109,,,
41.2812500000,5,5.7930908203,,,
41.2968750000,5,4.3176269531,,,
41.3125000000,5,2.7370610237,,,
41.3281250000,5,1.9991459846,,,
41.3437500000,5,2.8778080940,,,
41.3593750000,5,5.5388178825,,,
41.3750000000,5,9.3687744141,,,
41.3906250000,5,13.1434297562,,,
41.4062500000,5,15.5560302734,,,
41.4218750000,5,15.8299598694,,,
41.4375000000,5,14.1545400620,,,
41.4531250000,5,11.6331796646,,,
41.4687500000,5,9.8491210938,,,
41.4843750000,5,10.1487998962,,,
41.5000000000,5,13.0069599152,,,
41.5156250000,5,17.7978496552,,,
41.5312500000,5,23.1069297791,,,
41.5468750000,5,27.3028602600,,,
41.5625000000,5,29.2429199219,,,
41.5781250000,5,28.7386493683,,,
41.5937500000,5,26.5732402802,,,
41.6093750000,5,24.2500000000,,,
41.6250000000,5,23.6804199219,,,
41.6406250000,5,26.8341102600,,,
41.6562500000,5,35.2778282166,,,
41.6718750000,5,49.4989013672,,,
41.6875000000,5,68.0632934570,,,
41.7031250000,5,87.1344604492,,,
41.7187500000,5,100.9096984863,,,
41.7343750000,5,103.2854003906,,,
41.7500000000,5,90.3068771362,,,
41.7656250000,5,62.2690391541,,,
41.7812500000,5,24.2005004883,,,
41.7968750000,5,-15.6776103973,,,
41.8125000000,5,-49.0197105408,,,
41.8281250000,5,-70.3815917969,,,
41.8437500000,5,-78.7563476563,,,
41.8593750000,5,-77.0008468628,,,
41.8750000000,5,-69.7012329102,,,
41.8906250000,5,-60.8588294983,,,
41.9062500000,5,-52.6367797852,,,
41.9218750000,5,-45.5200195313,,,
41.9375000000,5,-39.3496704102,,,
41.9531250000,5,-34.2525596619,,,
41.9687500000,5,-30.8367290497,,,
41.9843750000,5,-29.6534404755,,,
42.0000000000,5,-30.5447406769,,,
42.0156250000,5,-32.4158287048,,,
42.0312500000,5,-33.5660400391,,,
42.0468750000,5,-32.5855712891,,,
42.0625000000,5,-29.0600605011,,,
42.0781250000,5,-23.7502403259,,,
42.0937500000,5,-18.2356605530,,,
42.1093750000,5,-14.1561899185,,,
42.1250000000,5,-12.4500703812,,,
42.1406250000,5,-13.0064096451,,,
42.1562500000,5,-14.7611703873,,,
42.1718750000,5,-16.2144203186,,,
42.1875000000,5,-16.0938701630,,,
42.2031250000,5,-13.8584604263,,,
42.2187500000,5,-9.8502807617,,,
42.2343750000,5,-5.0900268555,,,
42.2500000000,5,-0.8313599229,,,
42.2656250000,5,1.9381710291,,,
42.2812500000,5,2.8285520077,,,
42.2968750000,5,2.1064450741,,,
42.3125000000,5,0.5299683213,,,
42.3281250000,5,-0.9705811143,,,
42.3437500000,5,-1.6282960176,,,
42.3593750000,5,-1.0811769962,,,
42.3750000000,5,0.5259398818,,,
42.3906250000,5,2.6531369686,,,
42.4062500000,5,4.5701289177,,,
42.4218750000,5,5.6746220589,,,
42.4375000000,5,5.6961669922,,,
42.4531250000,5,4.8083500862,,,
42.4687500000,5,3.5618898869,,,
42.4843750000,5,2.6907958984,,,
42.5000000000,5,2.8663940430,,,
42.5156250000,5,4.5570678711,,,
42.5312500000,5,7.9273071289,,,
42.5468750000,5,12.7080698013,,,
42.5625000000,5,18.0472393036,,,
42.5781250000,5,22.4999408722,,,
42.5937500000,5,24.2977905273,,,
42.6093750000,5,21.9598407745,,,
42.6250000000,5,15.0264902115,,,
42.6406250000,5,4.4805908203,,,
42.6562500000,5,-7.4223628044,,,
42.6718750000,5,-17.9364604950,,,
42.6875000000,5,-24.8909301758,,,
42.7031250000,5,-27.4649696350,,,
42.7187500000,5,-26.3004798889,,,
42.7343750000,5,-22.9382305145,,,
42.7500000000,5,-18.9650306702,,,
42.7656250000,5,-15.3977098465,,,
42.7812500000,5,-12.5078697205,,,
42.7968750000,5,-10.1623497009,,,
42.8125000000,5,-8.2250976563,,,
42.8281250000,5,-6.7747797966,,,
42.8437500000,5,-6.0174560547,,,
42.8593750000,5,-6.0161128044,,,
42.8750000000,5,-6.5355219841,,,
42.8906250000,5,-7.0808720589,,,
42.9062500000,5,-7.1171879768,,,
42.9218750000,5,-6.2810058594,,,
42.9375000000,5,-4.5664057732,,,
42.9531250000,5,-2.3195190430,,,
42.9687500000,5,-0.1030272990,,,
42.9843750000,5,1.5347900391,,,
43.0000000000,5,2.2702639103,,,
43.0156250000,5,2.1192629337,,,
43.0312500000,5,1.4011230469,,,
43.0468750000,5,0.5708007813,,,
43.0625000000,5,-0.0339355506,,,
43.0781250000,5,-0.3485718071,,,
43.0937500000,5,-0.5652465820,,,
43.1093750000,5,-0.9672241211,,,
43.1250000000,5,-1.7139890194,,,
43.1406250000,5,-2.7385249138,,,
43.1562500000,5,-3.8110349178,,,
43.1718750000,5,-4.6351318359,,,
43.1875000000,5,-5.0323491096,,,
43.2031250000,5,-4.9776000977,,,
43.2187500000,5,-4.5490717888,,,
43.2343750000,5,-3.8624880314,,,
43.2500000000,5,-2.9973750114,,,
43.2656250000,5,-2.0158081055,,,
43.2812500000,5,-0.9818726182,,,
43.2968750000,5,-0.0176391602,,,
43.3125000000,5,0.7455443740,,,
43.3281250000,5,1.2124019861,,,
43.3437500000,5,1.3796390295,,,
43.3593750000,5,1.3274539709,,,
43.3750000000,5,1.1777950525,,,
43.3906250000,5,1.0247189999,,,
43.4062500000,5,0.9022827148,,,
43.4218750000,5,0.7700806260,,,
43.4375000000,5,0.5234375000,,,
43.4531250000,5,0.0845336914,,,
43.4687500000,5,-0.5664063096,,,
43.4843750000,5,-1.3630980253,,,
43.5000000000,5,-2.1730349064,,,
43.5156250000,5,-2.8528439999,,,
43.5312500000,5,-3.3299560547,,,
43.5468750000,5,-3.5999150276,,,
43.5625000000,5,-3.7201540470,,,
43.5781250000,5,-3.7510991096,,,
43.5937500000,5,-3.7227170467,,,
43.6093750000,5,-3.6406250000,,,
43.6250000000,5,-3.5018310547,,,
43.6406250000,5,-3.3236689568,,,
43.6562500000,5,-3.1484379768,,,
43.6718750000,5,-2.9901120663,,,
43.6875000000,5,-2.8557739258,,,
43.7031250000,5,-2.7409670353,,,
43.7187500000,5,-2.6357419491,,,
43.7343750000,5,-2.5618290901,,,
43.7500000000,5,-2.5460820198,,,
43.7656250000,5,-2.6184079647,,,
43.7812500000,5,-2.7612299919,,,
43.7968750000,5,-2.9102170467,,,
43.8125000000,5,-2.9357299805,,,
43.8281250000,5,-2.6731569767,,,
43.8437500000,5,-1.9633179903,,,
43.8593750000,5,-0.7163085938,,,
43.8750000000,5,1.0056149960,,,
43.8906250000,5,2.9803469181,,,
43.9062500000,5,4.8840332031,,,
43.9218750000,5,6.4037480354,,,
43.9375000000,5,7.3475341797,,,
43.9531250000,5,7.7069702148,,,
43.9687500000,5,7.6428828239,,,
43.9843750000,5,7.3640751839,,,
44.0000000000,5,6.9862670898,,,
44.0156250000,5,6.4716801643,,,
44.0312500000,5,5.6523442268,,,
44.0468750000,5,4.3775019646,,,
44.0625000000,5,2.6730959415,,,
44.0781250000,5,0.8420410156,,,
44.0937500000,5,-0.6097412109,,,
44.1093750000,5,-1.1702879667,,,
44.1250000000,5,-0.5700684190,,,
44.1406250000,5,1.0383299589,,,
44.1562500000,5,3.0909419060,,,
44.1718750000,5,4.8428339958,,,
44.1875000000,5,5.6754150391,,,
44.2031250000,5,5.3575439453,,,
44.2187500000,5,4.1256709099,,,
44.2343750000,5,2.5241699219,,,
44.2500000000,5,1.1170040369,,,
44.2656250000,5,0.2379761040,,,
44.2812500000,5,-0.1143188030,,,
44.2968750000,5,-0.2008056939,,,
44.3125000000,5,-0.3388062119,,,
44.3281250000,5,-0.7299193740,,,
44.3437500000,5,-1.3976440430,,,
44.3593750000,5,-2.2042241096,,,
44.3750000000,5,-2.9575200081,,,
44.3906250000,5,-3.5322880745,,,
44.4062500000,5,-3.9119870663,,,
44.4218750000,5,-4.1600341797,,,
44.4375000000,5,-4.3540039063,,,
44.4531250000,5,-4.5314941406,,,
44.4687500000,5,-4.6457519531,,,
44.4843750000,5,-4.6170039177,,,
44.5000000000,5,-4.3731689453,,,
44.5156250000,5,-3.9035029411,,,
44.5312500000,5,-3.2695310116,,,
44.5468750000,5,-2.5902709961,,,
44.5625000000,5,-1.9875489473,,,
44.5781250000,5,-1.5498050451,,,
44.5937500000,5,-1.2998659611,,,
44.6093750000,5,-1.2427979708,,,
44.6250000000,5,-1.3956300020,,,
44.6406250000,5,-1.7966920137,,,
44.6562500000,5,-2.4625849724,,,
44.6718750000,5,-3.3170170784,,,
44.6875000000,5,-4.1472778320,,,
44.7031250000,5,-4.6460571289,,,
44.7187500000,5,-4.5258178711,,,
44.7343750000,5,-3.6531980038,,,
44.7500000000,5,-2.1239619255,,,
44.7656250000,5,-0.2265014946,,,
44.7812500000,5,1.6766359806,,,
44.7968750000,5,3.2741699219,,,
44.8125000000,5,4.3948969841,,,
44.8281250000,5,4.9914550781,,,
44.8437500000,5,5.0917968750,,,
44.8593750000,5,4.7611689568,,,
44.8750000000,5,4.1208500862,,,
44.8906250000,5,3.3458249569,,,
44.9062500000,5,2.6583249569,,,
44.9218750000,5,2.2321779728,,,
44.9375000000,5,2.1008911133,,,
44.9531250000,5,2.1176149845,,,
44.9687500000,5,2.0433959961,,,
44.9843750000,5,1.6738280058,,,
45.0000000000,5,0.9619141221,,,
45.0156250000,5,0.0325927697,,,
45.0312500000,5,-0.9042357802,,,
45.0468750000,5,-1.6828000546,,,
45.0625000000,5,-2.2485959530,,,
45.0781250000,5,-2.6324460506,,,
45.0937500000,5,-2.8378911018,,,
45.1093750000,5,-2.8104250431,,,
45.1250000000,5,-2.4287109375,,,
45.1406250000,5,-1.6481930017,,,
45.1562500000,5,-0.5703734756,,,
45.1718750000,5,0.5430908203,,,
45.1875000000,5,1.3718869686,,,
45.2031250000,5,1.6840820313,,,
45.2187500000,5,1.4340209961,,,
45.2343750000,5,0.7742919922,,,
45.2500000000,5,-0.0418701209,,,
45.2656250000,5,-0.7501831055,,,
45.2812500000,5,-1.1807249784,,,
45.2968750000,5,-1.2931519747,,,
45.3125000000,5,-1.1420290470,,,
45.3281250000,5,-0.8433228135,,,
45.3437500000,5,-0.5202636719,,,
45.3593750000,5,-0.2664184868,,,
45.3750000000,5,-0.1148070991,,,
45.3906250000,5,-0.0811157227,,,
45.4062500000,5,-0.1410522014,,,
45.4218750000,5,-0.2627562881,,,
45.4375000000,5,-0.4013671875,,,
45.4531250000,5,-0.5007324219,,,
45.4687500000,5,-0.4874267876,,,
45.4843750000,5,-0.2957153022,,,
45.5000000000,5,0.0715942383,,,
45.5156250000,5,0.5242919922,,,
45.5312500000,5,0.9044188857,,,
45.5468750000,5,1.0528559685,,,
45.5625000000,5,0.8784790039,,,
45.5781250000,5,0.4271239936,,,
45.5937500000,5,-0.1516723931,,,
45.6093750000,5,-0.6832885742,,,
45.6250000000,5,-1.0289310217,,,
45.6406250000,5,-1.1417239904,,,
45.6562500000,5,-1.0426640511,,,
45.6718750000,5,-0.7885131836,,,
45.6875000000,5,-0.4085693061,,,
45.7031250000,5,0.0653686523,,,
45.7187500000,5,0.5802001953,,,
45.7343750000,5,1.0472409725,,,
45.7500000000,5,1.3381960392,,,
45.7656250000,5,1.3501590490,,,
45.7812500000,5,1.0452270508,,,
45.7968750000,5,0.4665527046,,,
45.8125000000,5,-0.2630614936,,,
45.8281250000,5,-0.9954224229,,,
45.8437500000,5,-1.6202390194,,,
45.8593750000,5,-2.0497438908,,,
45.8750000000,5,-2.2403559685,,,
45.8906250000,5,-2.1762700081,,,
45.9062500000,5,-1.8399660587,,,
45.9218750000,5,-1.2380980253,,,
45.9375000000,5,-0.4086914063,,,
45.9531250000,5,0.5412598252,,,
45.9687500000,5,1.4745479822,,,
45.9843750000,5,2.2456049919,,,
46.0000000000,5,2.7651979923,,,
46.0156250000,5,3.0270390511,,,
46.0312500000,5,3.0995481014,,,
46.0468750000,5,3.0692749023,,,
46.0625000000,5,2.9858400822,,,
46.0781250000,5,2.8609011173,,,
46.0937500000,5,2.6561889648,,,
46.1093750000,5,2.3510739803,,,
46.1250000000,5,1.9310909510,,,
46.1406250000,5,1.4309079647,,,
46.1562500000,5,0.9000244141,,,
46.1718750000,5,0.3640747070,,,
46.1875000000,5,-0.1663208008,,,
46.2031250000,5,-0.7097777724,,,
46.2187500000,5,-1.2666629553,,,
46.2343750000,5,-1.7952270508,,,
46.2500000000,5,-2.2144169807,,,
46.2656250000,5,-2.4118039608,,,
46.2812500000,5,-2.3029170036,,,
46.2968750000,5,-1.8765870333,,,
46.3125000000,5,-1.2118530273,,,
46.3281250000,5,-0.4606933892,,,
46.3437500000,5,0.2046508938,,,
46.3593750000,5,0.6625366211,,,
46.3750000000,5,0.8737792969,,,
46.3906250000,5,0.8729248047,,,
46.4062500000,5,0.7452393174,,,
46.4218750000,5,0.5731812119,,,
46.4375000000,5,0.4066771865,,,
46.4531250000,5,0.2567749023,,,
46.4687500000,5,0.1258545071,,,
46.4843750000,5,0.0146484403,,,
46.5000000000,5,-0.0645752028,,,
46.5156250000,5,-0.1042480022,,,
46.5312500000,5,-0.1179810017,,,
46.5468750000,5,-0.1522216946,,,
46.5625000000,5,-0.2615967095,,,
46.5781250000,5,-0.4694823921,,,
46.5937500000,5,-0.7480468750,,,
46.6093750000,5,-1.0026249886,,,
46.6250000000,5,-1.1364749670,,,
46.6406250000,5,-1.1121829748,,,
46.6562500000,5,-0.9764404297,,,
46.6718750000,5,-0.8272705078,,,
46.6875000000,5,-0.7548828125,,,
46.7031250000,5,-0.7695313096,,,
46.7187500000,5,-0.8189086914,,,
46.7343750000,5,-0.8045654297,,,
46.7500000000,5,-0.6981201172,,,
46.7656250000,5,-0.5602416992,,,
46.7812500000,5,-0.5072020888,,,
46.7968750000,5,-0.6187133789,,,
46.8125000000,5,-0.8615723252,,,
46.8281250000,5,-1.1005250216,,,
46.8437500000,5,-1.1831669807,,,
46.8593750000,5,-1.0458370447,,,
46.8750000000,5,-0.7517700195,,,
46.8906250000,5,-0.4613646865,,,
46.9062500000,5,-0.3041382134,,,
46.9218750000,5,-0.3084106147,,,
46.9375000000,5,-0.4151611030,,,
46.9531250000,5,-0.5166016221,,,
46.9687500000,5,-0.5565186143,,,
46.9843750000,5,-0.5252686143,,,
47.0000000000,5,-0.4340820014,,,
47.0156250000,5,-0.2661133111,,,
47.0312500000,5,0.0079956045,,,
47.0468750000,5,0.4019165039,,,
47.0625000000,5,0.8471068740,,,
47.0781250000,5,1.1957399845,,,
47.0937500000,5,1.2988890409,,,
47.1093750000,5,1.0899050236,,,
47.1250000000,5,0.6657714844,,,
47.1406250000,5,0.2081298977,,,
47.1562500000,5,-0.1216431037,,,
47.1718750000,5,-0.2564086914,,,
47.1875000000,5,-0.2669678032,,,
47.2031250000,5,-0.2709350884,,,
47.2187500000,5,-0.3502196968,,,
47.2343750000,5,-0.4766235054,,,
47.2500000000,5,-0.5371704102,,,
47.2656250000,5,-0.4014281929,,,
47.2812500000,5,-0.0347900391,,,
47.2968750000,5,0.4998168945,,,
47.3125000000,5,1.0411989689,,,
47.3281250000,5,1.4144899845,,,
47.3437500000,5,1.5148320198,,,
47.3593750000,5,1.3389279842,,,
47.3750000000,5,0.9960327148,,,
47.3906250000,5,0.6125488281,,,
47.4062500000,5,0.2766112983,,,
47.4218750000,5,-0.0100707998,,,
47.4375000000,5,-0.3130492866,,,
47.4531250000,5,-0.6802979112,,,
47.4687500000,5,-1.0881960392,,,
47.4843750000,5,-1.4334110022,,,
47.5000000000,5,-1.5742189884,,,
47.5156250000,5,-1.4137569666,,,
47.5312500000,5,-0.9663085938,,,
47.5468750000,5,-0.3482055962,,,
47.5625000000,5,0.2835083008,,,
47.5781250000,5,0.8084105849,,,
47.5937500000,5,1.1693730354,,,
47.6093750000,5,1.3525999784,,,
47.6250000000,5,1.3883060217,,,
47.6406250000,5,1.2982180119,,,
47.6562500000,5,1.1093139648,,,
47.6718750000,5,0.8569946289,,,
47.6875000000,5,0.6001586914,,,
47.7031250000,5,0.4005126953,,,
47.7187500000,5,0.3049927056,,,
47.7343750000,5,0.3209838867,,,
47.7500000000,5,0.4013062119,,,
47.7656250000,5,0.4740600884,,,
47.7812500000,5,0.4487304986,,,
47.7968750000,5,0.2797240913,,,
47.8125000000,5,-0.0267944299,,,
47.8281250000,5,-0.3817138970,,,
47.8437500000,5,-0.6503295898,,,
47.8593750000,5,-0.7025756836,,,
47.8750000000,5,-0.4893187881,,,
47.8906250000,5,-0.0992431566,,,
47.9062500000,5,0.3002929986,,,
47.9218750000,5,0.5378417969,,,
47.9375000000,5,0.5443726182,,,
47.9531250000,5,0.3881225884,,,
47.9687500000,5,0.2173462063,,,
47.9843750000,5,0.1570435017,,,
48.0000000000,6,0.2192382962,,,
48.0156250000,6,0.2965087891,,,
48.0312500000,6,0.2454833984,,,
48.0468750000,6,-0.0021362300,,,
48.0625000000,6,-0.3808594048,,,
48.0781250000,6,-0.7151489258,,,
48.0937500000,6,-0.8388062119,,,
48.1093750000,6,-0.6901245117,,,
48.1250000000,6,-0.3362427056,,,
48.1406250000,6,0.0698242188,,,
48.1562500000,6,0.3963012993,,,
48.1718750000,6,0.5728759766,,,
48.1875000000,6,0.6052246094,,,
48.2031250000,6,0.5310059190,,,
48.2187500000,6,0.3779296875,,,
48.2343750000,6,0.1546631008,,,
48.2500000000,6,-0.1246948019,,,
48.2656250000,6,-0.4412842095,,,
48.2812500000,6,-0.7351685166,,,
48.2968750000,6,-0.9456176758,,,
48.3125000000,6,-1.0415040255,,,
48.3281250000,6,-1.0114749670,,,
48.3437500000,6,-0.8864746094,,,
48.3593750000,6,-0.7089232802,,,
48.3750000000,6,-0.5164794922,,,
48.3906250000,6,-0.3405151069,,,
48.4062500000,6,-0.2198486030,,,
48.4218750000,6,-0.1710814983,,,
48.4375000000,6,-0.1970825046,,,
48.4531250000,6,-0.2581177056,,,
48.4687500000,6,-0.2911376953,,,
48.4843750000,6,-0.2215576023,,,
48.5000000000,6,-0.0043945308,,,
48.5156250000,6,0.3490600884,,,
48.5312500000,6,0.7741699219,,,
48.5468750000,6,1.1603389978,,,
48.5625000000,6,1.3988039494,,,
48.5781250000,6,1.4180300236,,,
48.5937500000,6,1.2188110352,,,
48.6093750000,6,0.8756104112,,,
48.6250000000,6,0.4985961914,,,
48.6406250000,6,0.1894530952,,,
48.6562500000,6,0.0104370099,,,
48.6718750000,6,-0.0428466797,,,
48.6875000000,6,-0.0357055701,,,
48.7031250000,6,-0.0392456092,,,
48.7187500000,6,-0.0971679688,,,
48.7343750000,6,-0.1983643025,,,
48.7500000000,6,-0.2706299126,,,
48.7656250000,6,-0.2684937119,,,
48.7812500000,6,-0.1764526069,,,
48.7968750000,6,-0.0439453088,,,
48.8125000000,6,0.0520629883,,,
48.8281250000,6,0.0684814528,,,
48.8437500000,6,0.0299072303,,,
48.8593750000,6,0.0087280273,,,
48.8750000000,6,0.0712280273,,,
48.8906250000,6,0.2129517049,,,
48.9062500000,6,0.3348999023,,,
48.9218750000,6,0.3013916016,,,
48.9375000000,6,0.0274658203,,,
48.9531250000,6,-0.4577026069,,,
48.9687500000,6,-1.0093990564,,,
48.9843750000,6,-1.4456180334,,,
49.0000000000,6,-1.6212769747,,,
49.0156250000,6,-1.5193480253,,,
49.0312500000,6,-1.2241820097,,,
49.0468750000,6,-0.8733521104,,,
49.0625000000,6,-0.5881958008,,,
49.0781250000,6,-0.4151000977,,,
49.0937500000,6,-0.3488158882,,,
49.1093750000,6,-0.3302001953,,,
49.1250000000,6,-0.2973021865,,,
49.1406250000,6,-0.2127685994,,,
49.1562500000,6,-0.0894164965,,,
49.1718750000,6,0.0430908203,,,
49.1875000000,6,0.1335449070,,,
49.2031250000,6,0.1702881008,,,
49.2187500000,6,0.1851806939,,,
49.2343750000,6,0.2400512993,,,
49.2500000000,6,0.3947143853,,,
49.2656250000,6,0.6672363281,,,
49.2812500000,6,1.0037839413,,,
49.2968750000,6,1.3056030273,,,
49.3125000000,6,1.4597170353,,,
49.3281250000,6,1.4130860567,,,
49.3437500000,6,1.1710209846,,,
49.3593750000,6,0.8011475205,,,
49.3750000000,6,0.4179077148,,,
49.3906250000,6,0.1311035007,,,
49.4062500000,6,0.0007324219,,,
49.4218750000,6,0.0214233398,,,
49.4375000000,6,0.1641235054,,,
49.4531250000,6,0.3761596978,,,
49.4687500000,6,0.6157227159,,,
49.4843750000,6,0.8403319716,,,
49.5000000000,6,1.0183110237,,,
49.5156250000,6,1.0971679688,,,
49.5312500000,6,1.0291140079,,,
49.5468750000,6,0.7748413086,,,
49.5625000000,6,0.3338623047,,,
49.5781250000,6,-0.2369994968,,,
49.5937500000,6,-0.8455200195,,,
49.6093750000,6,-1.3971560001,,,
49.6250000000,6,-1.8358759880,,,
49.6406250000,6,-2.1542360783,,,
49.6562500000,6,-2.4088749886,,,
49.6718750000,6,-2.6462399960,,,
49.6875000000,6,-2.8761599064,,,
49.7031250000,6,-3.0686039925,,,
49.7187500000,6,-3.1639399529,,,
49.7343750000,6,-3.1279299259,,,
49.7500000000,6,-2.9896850586,,,
49.7656250000,6,-2.7913820744,,,
49.7812500000,6,-2.5742800236,,,
49.7968750000,6,-2.3629150391,,,
49.8125000000,6,-2.1465449333,,,
49.8281250000,6,-1.9049069881,,,
49.8437500000,6,-1.6317750216,,,
49.8593750000,6,-1.3430180550,,,
49.8750000000,6,-1.0806269646,,,
49.8906250000,6,-0.8674315810,,,
49.9062500000,6,-0.6958007813,,,
49.9218750000,6,-0.5456542969,,,
49.9375000000,6,-0.3519896865,,,
49.9531250000,6,-0.0554199181,,,
49.9687500000,6,0.3977051079,,,
49.9843750000,6,1.0209350586,,,
50.0000000000,6,1.7592159510,,,
50.0156250000,6,2.5031740665,,,
50.0312500000,6,3.0976560116,,,
50.0468750000,6,3.3925778866,,,
50.0625000000,6,3.3293459415,,,
50.0781250000,6,2.9877929688,,,
50.0937500000,6,2.5699460506,,,
50.1093750000,6,2.2893679142,,,
50.1250000000,6,2.2526249886,,,
50.1406250000,6,2.3702390194,,,
50.1562500000,6,2.3770139217,,,
50.1718750000,6,1.9764399529,,,
50.1875000000,6,1.0233759880,,,
50.2031250000,6,-0.3914794922,,,
50.2187500000,6,-1.9306030273,,,
50.2343750000,6,-3.1587519646,,,
50.2500000000,6,-3.7261350155,,,
50.2656250000,6,-3.4927980900,,,
50.2812500000,6,-2.5579218864,,,
50.2968750000,6,-1.1821290255,,,
50.3125000000,6,0.3333129883,,,
50.3281250000,6,1.7344969511,,,
50.3437500000,6,2.8723750114,,,
50.3593750000,6,3.6915891171,,,
50.3750000000,6,4.1970210075,,,
50.3906250000,6,4.4393920898,,,
50.4062500000,6,4.4885249138,,,
50.4218750000,6,4.3955688477,,,
50.4375000000,6,4.1802978516,,,
50.4531250000,6,3.7977910042,,,
50.4687500000,6,3.1569209099,,,
50.4843750000,6,2.1778559685,,,
50.5000000000,6,0.8764647841,,,
50.5156250000,6,-0.6218261719,,,
50.5312500000,6,-2.0588989258,,,
50.5468750000,6,-3.1394040585,,,
50.5625000000,6,-3.6357419491,,,
50.5781250000,6,-3.4637451172,,,
50.5937500000,6,-2.7234499454,,,
50.6093750000,6,-1.6753540039,,,
50.6250000000,6,-0.6313477159,,,
50.6406250000,6,0.1258545071,,,
50.6562500000,6,0.4462890923,,,
50.6718750000,6,0.3255614936,,,
50.6875000000,6,-0.1057128981,,,
50.7031250000,6,-0.6760864258,,,
50.7187500000,6,-1.2175290585,,,
50.7343750000,6,-1.6651610136,,,
50.7500000000,6,-2.0641479492,,,
50.7656250000,6,-2.5551760197,,,
50.7812500000,6,-3.2968750000,,,
50.7968750000,6,-4.3729248047,,,
50.8125000000,6,-5.7340087891,,,
50.8281250000,6,-7.1951289177,,,
50.8437500000,6,-8.4945678711,,,
50.8593750000,6,-9.4046630859,,,
50.8750000000,6,-9.7952880859,,,
50.8906250000,6,-9.6858520508,,,
50.9062500000,6,-9.1928100586,,,
50.9218750000,6,-8.4776000977,,,
50.9375000000,6,-7.7116699219,,,
50.9531250000,6,-7.0393071175,,,
50.9687500000,6,-6.5966191292,,,
50.9843750000,6,-6.4968261719,,,
51.0000000000,6,-6.7888789177,,,
51.0156250000,6,-7.4708251953,,,
51.0312500000,6,-8.4716186523,,,
51.0468750000,6,-9.6915893555,,,
51.0625000000,6,-11.0780000687,,,
51.0781250000,6,-12.6555204391,,,
51.0937500000,6,-14.5304002762,,,
51.1093750000,6,-16.7849102020,,,
51.1250000000,6,-19.4221801758,,,
51.1406250000,6,-22.3138408661,,,
51.1562500000,6,-25.2831401825,,,
51.1718750000,6,-28.1926898956,,,
51.1875000000,6,-30.9974994659,,,
51.2031250000,6,-33.7969398499,,,
51.2187500000,6,-36.7593994141,,,
51.2343750000,6,-40.0864906311,,,
51.2500000000,6,-43.8636512756,,,
51.2656250000,6,-48.0528602600,,,
51.2812500000,6,-52.4702110291,,,
51.2968750000,6,-56.9453697205,,,
51.3125000000,6,-61.4423217773,,,
51.3281250000,6,-66.0677490234,,,
51.3437500000,6,-71.0766601563,,,
51.3593750000,6,-76.7415771484,,,
51.3750000000,6,-83.2526931763,,,
51.3906250000,6,-90.4852294922,,,
51.4062500000,6,-97.9837036133,,,
51.4218750000,6,-105.1042022705,,,
51.4375000000,6,-111.3655014038,,,
51.4531250000,6,-116.7142028809,,,
51.4687500000,6,-121.5421981812,,,
51.4843750000,6,-126.4676971436,,,
51.5000000000,6,-132.0202941895,,,
51.5156250000,6,-138.4467926025,,,
51.5312500000,6,-145.3363952637,,,
51.5468750000,6,-151.6551971436,,,
51.5625000000,6,-155.7498016357,,,
51.5781250000,6,-155.6528015137,,,
51.5937500000,6,-149.2230072021,,,
51.6093750000,6,-134.2610015869,,,
51.6250000000,6,-109.0605010986,,,
51.6406250000,6,-73.0051879883,,,
51.6562500000,6,-27.2545204163,,,
51.6718750000,6,25.6014404297,,,
51.6875000000,6,82.3292236328,,,
51.7031250000,6,140.3433990479,,,
51.7187500000,6,198.3878936768,,,
51.7343750000,6,255.8699035645,,,
51.7500000000,6,312.7406921387,,,
51.7656250000,6,368.2573852539,,,
51.7812500000,6,422.0371093750,,,
51.7968750000,6,472.2974853516,,,
51.8125000000,6,516.7874755859,,,
51.8281250000,6,552.5811767578,,,
51.8437500000,6,577.9855957031,,,
51.8593750000,6,592.5092773438,,,
51.8750000000,6,596.5310058594,,,
51.8906250000,6,590.9205932617,,,
51.9062500000,6,576.7307739258,,,
51.9218750000,6,555.1785888672,,,
51.9375000000,6,527.5480957031,,,
51.9531250000,6,495.4953918457,,,
51.9687500000,6,460.8735046387,,,
51.9843750000,6,425.6666870117,,,
52.0000000000,6,391.4016113281,,,
52.0156250000,6,358.8980102539,,,
52.0312500000,6,328.3471069336,,,
52.0468750000,6,299.4486999512,,,
52.0625000000,6,271.7897949219,,,
52.0781250000,6,244.9470062256,,,
52.0937500000,6,218.8291015625,,,
52.1093750000,6,193.6427001953,,,
52.1250000000,6,169.8686981201,,,
52.1406250000,6,147.8735046387,,,
52.1562500000,6,127.7649002075,,,
52.1718750000,6,109.3964004517,,,
52.1875000000,6,92.4328613281,,,
52.2031250000,6,76.5386962891,,,
52.2187500000,6,61.4146690369,,,
52.2343750000,6,46.9916992188,,,
52.2500000000,6,33.3828392029,,,
52.2656250000,6,20.8629798889,,,
52.2812500000,6,9.6181945801,,,
52.2968750000,6,-0.3416748047,,,
52.3125000000,6,-9.1743774414,,,
52.3281250000,6,-17.1533203125,,,
52.3437500000,6,-24.5333900452,,,
52.3593750000,6,-31.5018596649,,,
52.3750000000,6,-38.0882415771,,,
52.3906250000,6,-44.1963310242,,,
52.4062500000,6,-49.6475105286,,,
52.4218750000,6,-54.3719482422,,,
52.4375000000,6,-58.4469604492,,,
52.4531250000,6,-62.1077384949,,,
52.4687500000,6,-65.6508331299,,,
52.4843750000,6,-69.3132019043,,,
52.5000000000,6,-73.1747436523,,,
52.5156250000,6,-77.1104888916,,,
52.5312500000,6,-80.8483581543,,,
52.5468750000,6,-84.1140136719,,,
52.5625000000,6,-86.8009567261,,,
52.5781250000,6,-89.0752868652,,,
52.5937500000,6,-91.3462524414,,,
52.6093750000,6,-94.1236572266,,,
52.6250000000,6,-97.7872619629,,,
52.6406250000,6,-102.4104003906,,,
52.6562500000,6,-107.7074966431,,,
52.6718750000,6,-113.1501007080,,,
52.6875000000,6,-118.2220993042,,,
52.7031250000,6,-122.7042999268,,,
52.7187500000,6,-126.8350982666,,,
52.7343750000,6,-131.2554016113,,,
52.7500000000,6,-136.7613983154,,,
52.7656250000,6,-143.9394989014,,,
52.7812500000,6,-152.8916931152,,,
52.7968750000,6,-163.1734924316,,,
52.8125000000,6,-174.0119934082,,,
52.8281250000,6,-184.6268005371,,,
52.8437500000,6,-194.5955963135,,,
52.8593750000,6,-204.0240936279,,,
52.8750000000,6,-213.4918975830,,,
52.8906250000,6,-223.9165039063,,,
52.9062500000,6,-236.4053039551,,,
52.9218750000,6,-252.0760040283,,,
52.9375000000,6,-271.7019042969,,,
52.9531250000,6,-295.1361083984,,,
52.9687500000,6,-320.7300109863,,,
52.9843750000,6,-345.1914062500,,,
53.0000000000,6,-364.1720886230,,,
53.0156250000,6,-373.5974121094,,,
53.0312500000,6,-371.1704101563,,,
53.0468750000,6,-357.2875061035,,,
53.0625000000,6,-334.8464050293,,,
53.0781250000,6,-308.0104064941,,,
53.0937500000,6,-280.5990905762,,,
53.1093750000,6,-254.9640960693,,,
53.1250000000,6,-231.7893066406,,,
53.1406250000,6,-210.8009948730,,,
53.1562500000,6,-191.6459960938,,,
53.1718750000,6,-174.4210968018,,,
53.1875000000,6,-159.5299072266,,,
53.2031250000,6,-147.1450958252,,,
53.2187500000,6,-136.8191070557,,,
53.2343750000,6,-127.4644012451,,,
53.2500000000,6,-117.8377990723,,,
53.2656250000,6,-107.1266021729,,,
53.2812500000,6,-95.3350830078,,,
53.2968750000,6,-83.2258300781,,,
53.3125000000,6,-71.9693603516,,,
53.3281250000,6,-62.5284385681,,,
53.3437500000,6,-55.2098388672,,,
53.3593750000,6,-49.5004882813,,,
53.3750000000,6,-44.3234901428,,,
53.3906250000,6,-38.5786094666,,,
53.4062500000,6,-31.7010498047,,,
53.4218750000,6,-23.9173603058,,,
53.4375000000,6,-16.1138896942,,,
53.4531250000,6,-9.3161621094,,,
53.4687500000,6,-4.2255859375,,,
53.4843750000,6,-0.9372559190,,,
53.5000000000,6,0.9505615234,,,
53.5156250000,6,2.0988769531,,,
53.5312500000,6,3.1737060547,,,
53.5468750000,6,4.7408452034,,,
53.5625000000,6,7.2185058594,,,
53.5781250000,6,10.7900400162,,,
53.5937500000,6,15.2246103287,,,
53.6093750000,6,19.7121601105,,,
53.6250000000,6,23.0250205994,,,
53.6406250000,6,23.8973407745,,,
53.6562500000,6,21.6599102020,,,
53.6718750000,6,16.7583007813,,,
53.6875000000,6,10.8311796188,,,
53.7031250000,6,6.1795649529,,,
53.7187500000,6,4.8132319450,,,
53.7343750000,6,7.4978032112,,,
53.7500000000,6,13.3569297791,,,
53.7656250000,6,20.1995792389,,,
53.7812500000,6,25.4085693359,,,
53.7968750000,6,27.0638408661,,,
53.8125000000,6,24.6728496552,,,
53.8281250000,6,19.2742900848,,,
53.8437500000,6,12.8333702087,,,
53.8593750000,6,7.3010249138,,,
53.8750000000,6,3.7274169922,,,
53.8906250000,6,1.9746090174,,,
53.9062500000,6,1.0139160156,,,
53.9218750000,6,-0.2899169922,,,
53.9375000000,6,-2.4436039925,,,
53.9531250000,6,-5.0196528435,,,
53.9687500000,6,-6.9721679688,,,
53.9843750000,6,-7.2786870003,,,
54.0000000000,6,-5.6413569450,,,
54.0156250000,6,-2.6964108944,,,
54.0312500000,6,0.2358397990,,,
54.0468750000,6,1.8787839413,,,
54.0625000000,6,1.6426999569,,,
54.0781250000,6,-0.0446777306,,,
54.0937500000,6,-2.0550539494,,,
54.1093750000,6,-3.2178959846,,,
54.1250000000,6,-2.9721679688,,,
54.1406250000,6,-1.6094969511,,,
54.1562500000,6,0.0689697266,,,
54.1718750000,6,1.3776860237,,,
54.1875000000,6,2.2531740665,,,
54.2031250000,6,3.2899169922,,,
54.2187500000,6,5.2675781250,,,
54.2343750000,6,8.4533691406,,,
54.2500000000,6,12.2979698181,,,
54.2656250000,6,15.5621299744,,,
54.2812500000,6,16.9951190948,,,
54.2968750000,6,16.0251502991,,,
54.3125000000,6,13.0949697495,,,
54.3281250000,6,9.3782958984,,,
54.3437500000,6,6.1351318359,,,
54.3593750000,6,4.0611572266,,,
54.3750000000,6,3.0633540154,,,
54.3906250000,6,2.5047609806,,,
54.4062500000,6,1.7545169592,,,
54.4218750000,6,0.6374511719,,,
54.4375000000,6,-0.4813232124,,,
54.4531250000,6,-1.0175780058,,,
54.4687500000,6,-0.6386718750,,,
54.4843750000,6,0.5189208984,,,
54.5000000000,6,1.9171140194,,,
54.5156250000,6,3.0438230038,,,
54.5312500000,6,3.7595210075,,,
54.5468750000,6,4.4111328125,,,
54.5625000000,6,5.5681152344,,,
54.5781250000,6,7.5474848747,,,
54.5937500000,6,10.0772695541,,,
54.6093750000,6,12.3785400391,,,
54.6250000000,6,13.6071796417,,,
54.6406250000,6,13.4046602249,,,
54.6562500000,6,12.1093797684,,,
54.6718750000,6,10.5632295609,,,
54.6875000000,6,9.5157470703,,,
54.7031250000,6,9.2135009766,,,
54.7187500000,6,9.2702636719,,,
54.7343750000,6,8.9978027344,,,
54.7500000000,6,7.9058837891,,,
54.7656250000,6,6.0854492188,,,
54.7812500000,6,4.1754150391,,,
54.7968750000,6,2.9774169922,,,
54.8125000000,6,3.0056149960,,,
54.8281250000,6,4.1785888672,,,
54.8437500000,6,5.8500981331,,,
54.8593750000,6,7.1311039925,,,
54.8750000000,6,7.3182368279,,,
54.8906250000,6,6.1760249138,,,
54.9062500000,6,3.9537351131,,,
54.9218750000,6,1.2171629667,,,
54.9375000000,6,-1.3577879667,,,
54.9531250000,6,-3.2171630859,,,
54.9687500000,6,-4.0718989372,,,
54.9843750000,6,-3.9672849178,,,
55.0000000000,6,-3.2733149529,,,
55.0156250000,6,-2.5639650822,,,
55.0312500000,6,-2.4101560116,,,
55.0468750000,6,-3.1315920353,,,
55.0625000000,6,-4.6204829216,,,
55.0781250000,6,-6.3466801643,,,
55.0937500000,6,-7.5191650391,,,
55.1093750000,6,-7.4500727654,,,
55.1250000000,6,-5.8948969841,,,
55.1406250000,6,-3.1914060116,,,
55.1562500000,6,-0.1365966946,,,
55.1718750000,6,2.3957519531,,,
55.1875000000,6,3.8809809685,,,
55.2031250000,6,4.3891601563,,,
55.2187500000,6,4.4512939453,,,
55.2343750000,6,4.7662348747,,,
55.2500000000,6,5.7303471565,,,
55.2656250000,6,7.2694091797,,,
55.2812500000,6,8.8697509766,,,
55.2968750000,6,9.8518066406,,,
55.3125000000,6,9.7518310547,,,
55.3281250000,6,8.5916748047,,,
55.3437500000,6,6.8551030159,,,
55.3593750000,6,5.2384028435,,,
55.3750000000,6,4.3220210075,,,
55.3906250000,6,4.2924799919,,,
55.4062500000,6,4.9249272346,,,
55.4218750000,6,5.7362060547,,,
55.4375000000,6,6.2785639763,,,
55.4531250000,6,6.3487548828,,,
55.4687500000,6,5.9970698357,,,
55.4843750000,6,5.4206538200,,,
55.5000000000,6,4.7926030159,,,
55.5156250000,6,4.2014160156,,,
55.5312500000,6,3.6536870003,,,
55.5468750000,6,3.1542971134,,,
55.5625000000,6,2.7467041016,,,
55.5781250000,6,2.5218510628,,,
55.5937500000,6,2.5473630428,,,
55.6093750000,6,2.8204350471,,,
55.6250000000,6,3.2376708984,,,
55.6406250000,6,3.6123049259,,,
55.6562500000,6,3.7435300350,,,
55.6718750000,6,3.4808349609,,,
55.6875000000,6,2.7968750000,,,
55.7031250000,6,1.8317869902,,,
55.7187500000,6,0.8138427734,,,
55.7343750000,6,0.0339355506,,,
55.7500000000,6,-0.2940674126,,,
55.7656250000,6,-0.0631103516,,,
55.7812500000,6,0.6688231826,,,
55.7968750000,6,1.7205810547,,,
55.8125000000,6,2.8303220272,,,
55.8281250000,6,3.7685549259,,,
55.8437500000,6,4.3619379997,,,
55.8593750000,6,4.5335688591,,,
