Time:64Hz,Epoch,Channel 1,Event Id,Event Date,Event Duration
0.0000000000,0,-49.6679801941,,,
0.0156250000,0,-46.1895217896,,,
0.0312500000,0,-39.2574501038,,,
0.0468750000,0,-29.1883296967,,,
0.0625000000,0,-16.9591903687,,,
0.0781250000,0,-3.9217789173,,,
0.0937500000,0,8.5678319931,,,
0.1093750000,0,19.4279594421,,,
0.1250000000,0,28.1040592194,,,
0.1406250000,0,34.4346885681,,,
0.1562500000,0,38.5533905029,,,
0.1718750000,0,40.6591300964,,,
0.1875000000,0,40.9651412964,,,
0.2031250000,0,39.6837692261,,,
0.2187500000,0,37.1274299622,,,
0.2343750000,0,33.7659988403,,,
0.2500000000,0,30.1471900940,,,
0.2656250000,0,26.8492298126,,,
0.2812500000,0,24.2714099884,,,
0.2968750000,0,22.5670509338,,,
0.3125000000,0,21.6689090729,,,
0.3281250000,0,21.3475799561,,,
0.3437500000,0,21.3573398590,,,
0.3593750000,0,21.5221500397,,,
0.3750000000,0,21.7565307617,,,
0.3906250000,0,22.0263004303,,,
0.4062500000,0,22.3092308044,,,
0.4218750000,0,22.4809093475,,,
0.4375000000,0,22.3376407623,,,
0.4531250000,0,21.6481094360,,,
0.4687500000,0,20.1777801514,,,
0.4843750000,0,17.8351306915,,,
0.5000000000,0,14.6867399216,,,
0.5156250000,0,11.0084400177,,,
0.5312500000,0,7.1305618286,,,
0.5468750000,0,3.4221229553,,,
0.5625000000,0,0.0752449036,,,
0.5781250000,0,-2.9080870152,,,
0.5937500000,0,-5.6836719513,,,
0.6093750000,0,-8.5340728760,,,
0.6250000000,0,-11.6854600906,,,
0.6406250000,0,-15.2601404190,,,
0.6562500000,0,-19.1935291290,,,
0.6718750000,0,-23.3009395599,,,
0.6875000000,0,-27.2861309052,,,
0.7031250000,0,-30.8997192383,,,
0.7187500000,0,-34.0037193298,,,
0.7343750000,0,-36.6414489746,,,
0.7500000000,0,-39.0254898071,,,
0.7656250000,0,-41.4795913696,,,
0.7812500000,0,-44.3382911682,,,
0.7968750000,0,-47.7794418335,,,
0.8125000000,0,-51.7441596985,,,
0.8281250000,0,-55.7487297058,,,
0.8437500000,0,-58.9511718750,,,
0.8593750000,0,-60.2919807434,,,
0.8750000000,0,-58.7652015686,,,
0.8906250000,0,-53.7695617676,,,
0.9062500000,0,-45.2778701782,,,
0.9218750000,0,-33.8847198486,,,
0.9375000000,0,-20.6677207947,,,
0.9531250000,0,-6.8953170776,,,
0.9687500000,0,6.2407989502,,,
0.9843750000,0,17.8443794250,,,
1.0000000000,0,27.3701496124,,,
1.0156250000,0,34.6239089966,,,
1.0312500000,0,39.6418418884,,,
1.0468750000,0,42.6397285461,,,
1.0625000000,0,43.9044189453,,,
1.0781250000,0,43.7501296997,,,
1.0937500000,0,42.5015487671,,,
1.1093750000,0,40.4481887817,,,
1.1250000000,0,37.8805198669,,,
1.1406250000,0,35.1001281738,,,
1.1562500000,0,32.4206199646,,,
1.1718750000,0,30.1087894440,,,
1.1875000000,0,28.3768005371,,,
1.2031250000,0,27.3159294128,,,
1.2187500000,0,26.8850193024,,,
1.2343750000,0,26.9228801727,,,
1.2500000000,0,27.1966400146,,,
1.2656250000,0,27.4435806274,,,
1.2812500000,0,27.4325904846,,,
1.2968750000,0,26.9787807465,,,
1.3125000000,0,25.9169502258,,,
1.3281250000,0,24.1799201965,,,
1.3437500000,0,21.7564105988,,,
1.3593750000,0,18.7230491638,,,
1.3750000000,0,15.2458295822,,,
1.3906250000,0,11.5456399918,,,
1.4062500000,0,7.8269619942,,,
1.4218750000,0,4.2595667839,,,
1.4375000000,0,0.9070702195,,,
1.4531250000,0,-2.2173349857,,,
1.4687500000,0,-5.1440730095,,,
1.4843750000,0,-7.8977508545,,,
1.5000000000,0,-10.5060997009,,,
1.5156250000,0,-12.9984703064,,,
1.5312500000,0,-15.4318199158,,,
1.5468750000,0,-17.9021091461,,,
1.5625000000,0,-20.4526290894,,,
1.5781250000,0,-23.1259593964,,,
1.5937500000,0,-25.8590507507,,,
1.6093750000,0,-28.5771408081,,,
1.6250000000,0,-31.1732597351,,,
1.6406250000,0,-33.5685081482,,,
1.6562500000,0,-35.6793708801,,,
1.6718750000,0,-37.4813995361,,,
1.6875000000,0,-39.0649108887,,,
1.7031250000,0,-40.6413383484,,,
1.7187500000,0,-42.5138206482,,,
1.7343750000,0,-44.9220314026,,,
1.7500000000,0,-47.8076591492,,,
1.7656250000,0,-50.6529006958,,,
1.7812500000,0,-52.4902610779,,,
1.7968750000,0,-52.1141281128,,,
1.8125000000,0,-48.5316314697,,,
1.8281250000,0,-41.3871612549,,,
1.8437500000,0,-31.1187705994,,,
1.8593750000,0,-18.8519191742,,,
1.8750000000,0,-6.0136108398,,,
1.8906250000,0,6.1297907829,,,
1.9062500000,0,16.7239494324,,,
1.9218750000,0,25.4130706787,,,
1.9375000000,0,32.1606788635,,,
1.9531250000,0,37.0792007446,,,
1.9687500000,0,40.2427101135,,,
1.9843750000,0,41.7092781067,,,
2.0000000000,0,41.5415916443,,,
2.0156250000,0,39.9382209778,,,
2.0312500000,0,37.2746391296,,,
2.0468750000,0,33.9709510803,,,
2.0625000000,0,30.4860000610,,,
2.0781250000,0,27.1737308502,,,
2.0937500000,0,24.2944107056,,,
2.1093750000,0,21.9763908386,,,
2.1250000000,0,20.2875900269,,,
2.1406250000,0,19.1930809021,,,
2.1562500000,0,18.5858592987,,,
2.1718750000,0,18.2888603210,,,
2.1875000000,0,18.1092700958,,,
2.2031250000,0,17.8755302429,,,
2.2187500000,0,17.5190391541,,,
2.2343750000,0,17.0117702484,,,
2.2500000000,0,16.3110809326,,,
2.2656250000,0,15.3234901428,,,
2.2812500000,0,13.8968000412,,,
2.2968750000,0,11.8753995895,,,
2.3125000000,0,9.2421951294,,,
2.3281250000,0,6.1504287720,,,
2.3437500000,0,2.8900070190,,,
2.3593750000,0,-0.2404861003,,,
2.3750000000,0,-3.0728991032,,,
2.3906250000,0,-5.6148381233,,,
2.4062500000,0,-8.0404357910,,,
2.4218750000,0,-10.5278701782,,,
2.4375000000,0,-13.1937103271,,,
2.4531250000,0,-16.0070590973,,,
2.4687500000,0,-18.8650798798,,,
2.4843750000,0,-21.6495399475,,,
2.5000000000,0,-24.2724208832,,,
2.5156250000,0,-26.6654090881,,,
2.5312500000,0,-28.7411708832,,,
2.5468750000,0,-30.4139709473,,,
2.5625000000,0,-31.6645698547,,,
2.5781250000,0,-32.6048889160,,,
2.5937500000,0,-33.5318603516,,,
2.6093750000,0,-34.8444709778,,,
2.6250000000,0,-36.8288002014,,,
2.6406250000,0,-39.4032402039,,,
2.6562500000,0,-41.9603385925,,,
2.6718750000,0,-43.4673500061,,,
2.6875000000,0,-42.7657203674,,,
2.7031250000,0,-39.0204811096,,,
2.7187500000,0,-31.9967594147,,,
2.7343750000,0,-22.1912708282,,,
2.7500000000,0,-10.6258497238,,,
2.7656250000,0,1.4717179537,,,
2.7812500000,0,12.9772100449,,,
2.7968750000,0,23.0871791840,,,
2.8125000000,0,31.3327007294,,,
2.8281250000,0,37.5271492004,,,
2.8437500000,0,41.6170616150,,,
2.8593750000,0,43.6414909363,,,
2.8750000000,0,43.6892395020,,,
2.8906250000,0,41.9962081909,,,
2.9062500000,0,38.9848098755,,,
2.9218750000,0,35.2097892761,,,
2.9375000000,0,31.2765502930,,,
2.9531250000,0,27.7059097290,,,
2.9687500000,0,24.8315200806,,,
2.9843750000,0,22.7328300476,,,
3.0000000000,0,21.2995491028,,,
3.0156250000,0,20.3328399658,,,
3.0312500000,0,19.6984100342,,,
3.0468750000,0,19.3620090485,,,
3.0625000000,0,19.2972393036,,,
3.0781250000,0,19.4531993866,,,
3.0937500000,0,19.6447601318,,,
3.1093750000,0,19.6089191437,,,
3.1250000000,0,19.0965003967,,,
3.1406250000,0,17.9473800659,,,
3.1562500000,0,16.1667594910,,,
3.1718750000,0,13.8595399857,,,
3.1875000000,0,11.1745195389,,,
3.2031250000,0,8.1796264648,,,
3.2187500000,0,4.9241938591,,,
3.2343750000,0,1.4327009916,,,
3.2500000000,0,-2.1977689266,,,
3.2656250000,0,-5.7739028931,,,
3.2812500000,0,-9.0734558105,,,
3.2968750000,0,-11.8849201202,,,
3.3125000000,0,-14.1724195480,,,
3.3281250000,0,-16.0504398346,,,
3.3437500000,0,-17.8212203979,,,
3.3593750000,0,-19.8143196106,,,
3.3750000000,0,-22.2794990540,,,
3.3906250000,0,-25.2695693970,,,
3.4062500000,0,-28.6032695770,,,
3.4218750000,0,-31.9661998749,,,
3.4375000000,0,-35.0045509338,,,
3.4531250000,0,-37.5063591003,,,
3.4687500000,0,-39.4258499146,,,
3.4843750000,0,-40.9302291870,,,
3.5000000000,0,-42.3287811279,,,
3.5156250000,0,-44.0075111389,,,
3.5312500000,0,-46.3142700195,,,
3.5468750000,0,-49.3943595886,,,
3.5625000000,0,-53.0716705322,,,
3.5781250000,0,-56.6968612671,,,
3.5937500000,0,-59.2318305969,,,
3.6093750000,0,-59.4410095215,,,
3.6250000000,0,-56.2891807556,,,
3.6406250000,0,-49.2910003662,,,
3.6562500000,0,-38.7602386475,,,
3.6718750000,0,-25.7262001038,,,
3.6875000000,0,-11.6175603867,,,
3.7031250000,0,2.1341021061,,,
3.7187500000,0,14.4489698410,,,
3.7343750000,0,24.6928596497,,,
3.7500000000,0,32.6547317505,,,
3.7656250000,0,38.3876113892,,,
3.7812500000,0,42.0664100647,,,
3.7968750000,0,43.9072418213,,,
3.8125000000,0,44.1496696472,,,
3.8281250000,0,43.1062316895,,,
3.8437500000,0,41.0880088806,,,
3.8593750000,0,38.4553604126,,,
3.8750000000,0,35.4922409058,,,
3.8906250000,0,32.4860115051,,,
3.9062500000,0,29.6752300262,,,
3.9218750000,0,27.2394294739,,,
3.9375000000,0,25.2785606384,,,
3.9531250000,0,23.8015804291,,,
3.9687500000,0,22.7552890778,,,
3.9843750000,0,22.0244808197,,,
4.0000000000,0,21.5157909393,,,
4.0156250000,0,21.1220493317,,,
4.0312500000,0,20.7634201050,,,
4.0468750000,0,20.3748798370,,,
4.0625000000,0,19.8801097870,,,
4.0781250000,0,19.2003707886,,,
4.0937500000,0,18.2570991516,,,
4.1093750000,0,16.9805393219,,,
4.1250000000,0,15.3069801331,,,
4.1406250000,0,13.2016601563,,,
4.1562500000,0,10.6670503616,,,
4.1718750000,0,7.7579498291,,,
4.1875000000,0,4.5888209343,,,
4.2031250000,0,1.2950739861,,,
4.2187500000,0,-1.9650189877,,,
4.2343750000,0,-5.0966567993,,,
4.2500000000,0,-8.0547332764,,,
4.2656250000,0,-10.8919000626,,,
4.2812500000,0,-13.7170896530,,,
4.2968750000,0,-16.6999702454,,,
4.3125000000,0,-19.9795494080,,,
4.3281250000,0,-23.5883808136,,,
4.3437500000,0,-27.4416809082,,,
4.3593750000,0,-31.2700004578,,,
4.3750000000,0,-34.7658882141,,,
4.3906250000,0,-37.6543388367,,,
4.4062500000,0,-39.7927513123,,,
4.4218750000,0,-41.2834205627,,,
4.4375000000,0,-42.4222908020,,,
4.4531250000,0,-43.6787605286,,,
4.4687500000,0,-45.4779396057,,,
4.4843750000,0,-48.0537490845,,,
4.5000000000,0,-51.1676292419,,,
4.5156250000,0,-54.1029090881,,,
4.5312500000,0,-55.7557792664,,,
4.5468750000,0,-54.8760910034,,,
4.5625000000,0,-50.5043296814,,,
4.5781250000,0,-42.3029785156,,,
4.5937500000,0,-30.7180595398,,,
4.6093750000,0,-16.8975105286,,,
4.6250000000,0,-2.3276979923,,,
4.6406250000,0,11.5747098923,,,
4.6562500000,0,23.7219200134,,,
4.6718750000,0,33.5127105713,,,
4.6875000000,0,40.7429885864,,,
4.7031250000,0,45.4436798096,,,
4.7187500000,0,47.7866706848,,,
4.7343750000,0,48.0087699890,,,
4.7500000000,0,46.4584503174,,,
4.7656250000,0,43.5741500854,,,
4.7812500000,0,39.9169616699,,,
4.7968750000,0,36.0205192566,,,
4.8125000000,0,32.3190002441,,,
4.8281250000,0,29.0918407440,,,
4.8437500000,0,26.4275894165,,,
4.8593750000,0,24.3328495026,,,
4.8750000000,0,22.7830905914,,,
4.8906250000,0,21.7881603241,,,
4.9062500000,0,21.3563194275,,,
4.9218750000,0,21.4918594360,,,
4.9375000000,0,22.0921993256,,,
4.9531250000,0,22.9484806061,,,
4.9687500000,0,23.7407703400,,,
4.9843750000,0,24.0984191895,,,
5.0000000000,0,23.6931991577,,,
5.0156250000,0,22.3611202240,,,
5.0312500000,0,20.0839805603,,,
5.0468750000,0,17.0391998291,,,
5.0625000000,0,13.5127601624,,,
5.0781250000,0,9.7902755737,,,
5.0937500000,0,6.0630798340,,,
5.1093750000,0,2.3523859978,,,
5.1250000000,0,-1.4635770321,,,
5.1406250000,0,-5.5449137688,,,
5.1562500000,0,-9.9897842407,,,
5.1718750000,0,-14.7442998886,,,
5.1875000000,0,-19.5597000122,,,
5.2031250000,0,-24.1397705078,,,
5.2187500000,0,-28.2026596069,,,
5.2343750000,0,-31.6096496582,,,
5.2500000000,0,-34.3798904419,,,
5.2656250000,0,-36.7139587402,,,
5.2812500000,0,-38.9132690430,,,
5.2968750000,0,-41.3529396057,,,
5.3125000000,0,-44.3723182678,,,
5.3281250000,0,-48.0801200867,,,
5.3437500000,0,-52.2098693848,,,
5.3593750000,0,-55.9635391235,,,
5.3750000000,0,-58.1160583496,,,
5.3906250000,0,-57.3027000427,,,
5.4062500000,0,-52.5455818176,,,
5.4218750000,0,-43.6319999695,,,
5.4375000000,0,-31.2725696564,,,
5.4531250000,0,-16.8539791107,,,
5.4687500000,0,-1.9788019657,,,
5.4843750000,0,11.9687299728,,,
5.5000000000,0,24.0909004211,,,
5.5156250000,0,33.9617004395,,,
5.5312500000,0,41.4288482666,,,
5.5468750000,0,46.4670715332,,,
5.5625000000,0,49.0941314697,,,
5.5781250000,0,49.4764518738,,,
5.5937500000,0,47.9677085876,,,
5.6093750000,0,45.1101112366,,,
5.6250000000,0,41.4776992798,,,
5.6406250000,0,37.5890502930,,,
5.6562500000,0,33.7977714539,,,
5.6718750000,0,30.3105697632,,,
5.6875000000,0,27.2733306885,,,
5.7031250000,0,24.7811393738,,,
5.7187500000,0,22.9363803864,,,
5.7343750000,0,21.7573604584,,,
5.7500000000,0,21.1968307495,,,
5.7656250000,0,21.1267890930,,,
5.7812500000,0,21.3750591278,,,
5.7968750000,0,21.7523708344,,,
5.8125000000,0,22.0545997620,,,
5.8281250000,0,22.0481204987,,,
5.8437500000,0,21.4821701050,,,
5.8593750000,0,20.1390705109,,,
5.8750000000,0,17.8663597107,,,
5.8906250000,0,14.6807403564,,,
5.9062500000,0,10.7627496719,,,
5.9218750000,0,6.4291691780,,,
5.9375000000,0,2.0242919922,,,
5.9531250000,0,-2.1468660831,,,
5.9687500000,0,-5.9413151741,,,
5.9843750000,0,-9.4028625488,,,
6.0000000000,0,-12.7100296021,,,
6.0156250000,0,-16.1196193695,,,
6.0312500000,0,-19.8253993988,,,
6.0468750000,0,-23.8692893982,,,
6.0625000000,0,-28.1272296906,,,
6.0781250000,0,-32.3746185303,,,
6.0937500000,0,-36.3761787415,,,
6.1093750000,0,-39.9956512451,,,
6.1250000000,0,-43.2194709778,,,
6.1406250000,0,-46.1271705627,,,
6.1562500000,0,-48.8462181091,,,
6.1718750000,0,-51.5794906616,,,
6.1875000000,0,-54.5573005676,,,
6.2031250000,0,-57.9210090637,,,
6.2187500000,0,-61.5728111267,,,
6.2343750000,0,-64.9454498291,,,
6.2500000000,0,-66.9701766968,,,
6.2656250000,0,-66.3118362427,,,
6.2812500000,0,-61.7559890747,,,
6.2968750000,0,-52.7742500305,,,
6.3125000000,0,-39.7565193176,,,
6.3281250000,0,-24.0125102997,,,
6.3437500000,0,-7.3162379265,,,
6.3593750000,0,8.5855026245,,,
6.3750000000,0,22.3971099854,,,
6.3906250000,0,33.4917297363,,,
6.4062500000,0,41.7574501038,,,
6.4218750000,0,47.4406013489,,,
6.4375000000,0,50.8481101990,,,
6.4531250000,0,52.3157997131,,,
6.4687500000,0,52.1453285217,,,
6.4843750000,0,50.6685409546,,,
6.5000000000,0,48.2064208984,,,
6.5156250000,0,45.1326217651,,,
6.5312500000,0,41.8239212036,,,
6.5468750000,0,38.6099510193,,,
6.5625000000,0,35.7571105957,,,
6.5781250000,0,33.4225692749,,,
6.5937500000,0,31.6621608734,,,
6.6093750000,0,30.4292907715,,,
6.6250000000,0,29.6432895660,,,
6.6406250000,0,29.1888008118,,,
6.6562500000,0,28.9829406738,,,
6.6718750000,0,28.9395999908,,,
6.6875000000,0,28.9299392700,,,
6.7031250000,0,28.7813301086,,,
6.7187500000,0,28.2892398834,,,
6.7343750000,0,27.2540302277,,,
6.7500000000,0,25.5213603973,,,
6.7656250000,0,23.0298194885,,,
6.7812500000,0,19.7858505249,,,
6.7968750000,0,15.8586597443,,,
6.8125000000,0,11.4192895889,,,
6.8281250000,0,6.6831560135,,,
6.8437500000,0,1.9309380054,,,
6.8593750000,0,-2.5976169109,,,
6.8750000000,0,-6.7283539772,,,
6.8906250000,0,-10.4751100540,,,
6.9062500000,0,-14.0003299713,,,
6.9218750000,0,-17.5376091003,,,
6.9375000000,0,-21.2887802124,,,
6.9531250000,0,-25.2797393799,,,
6.9687500000,0,-29.3441009521,,,
6.9843750000,0,-33.1480598450,,,
7.0000000000,0,-36.3714599609,,,
7.0156250000,0,-38.8342208862,,,
7.0312500000,0,-40.6310386658,,,
7.0468750000,0,-42.1049995422,,,
7.0625000000,0,-43.7919883728,,,
7.0781250000,0,-46.2092399597,,,
7.0937500000,0,-49.6758499146,,,
7.1093750000,0,-54.1220283508,,,
7.1250000000,0,-58.9634208679,,,
7.1406250000,0,-63.1375808716,,,
7.1562500000,0,-65.2751464844,,,
7.1718750000,0,-64.0478134155,,,
7.1875000000,0,-58.5520896912,,,
7.2031250000,0,-48.6333808899,,,
7.2187500000,0,-34.9739608765,,,
7.2343750000,0,-18.9370002747,,,
7.2500000000,0,-2.2086319923,,,
7.2656250000,0,13.6236801147,,,
7.2812500000,0,27.3736991882,,,
7.2968750000,0,38.3996505737,,,
7.3125000000,0,46.5371704102,,,
7.3281250000,0,51.9242095947,,,
7.3437500000,0,54.8404197693,,,
7.3593750000,0,55.5579299927,,,
7.3750000000,0,54.3734283447,,,
7.3906250000,0,51.6201400757,,,
7.4062500000,0,47.7642211914,,,
7.4218750000,0,43.3660011292,,,
7.4375000000,0,39.0339889526,,,
7.4531250000,0,35.2917098999,,,
7.4687500000,0,32.4492683411,,,
7.4843750000,0,30.5700607300,,,
7.5000000000,0,29.4933795929,,,
7.5156250000,0,28.9412193298,,,
7.5312500000,0,28.6425304413,,,
7.5468750000,0,28.4457893372,,,
7.5625000000,0,28.3137207031,,,
7.5781250000,0,28.2258090973,,,
7.5937500000,0,28.1368198395,,,
7.6093750000,0,27.8855991364,,,
7.6250000000,0,27.2057895660,,,
7.6406250000,0,25.8231506348,,,
7.6562500000,0,23.5676002502,,,
7.6718750000,0,20.4590892792,,,
7.6875000000,0,16.7083492279,,,
7.7031250000,0,12.6444396973,,,
7.7187500000,0,8.5996322632,,,
7.7343750000,0,4.7527308464,,,
7.7500000000,0,1.1407150030,,,
7.7656250000,0,-2.3554739952,,,
7.7812500000,0,-5.8786029816,,,
7.7968750000,0,-9.5129995346,,,
7.8125000000,0,-13.2493000031,,,
7.8281250000,0,-17.0135993958,,,
7.8437500000,0,-20.7219791412,,,
7.8593750000,0,-24.3231391907,,,
7.8750000000,0,-27.7656192780,,,
7.8906250000,0,-31.0322704315,,,
7.9062500000,0,-34.0860290527,,,
7.9218750000,0,-36.9029808044,,,
7.9375000000,0,-39.4876594543,,,
7.9531250000,0,-41.9433403015,,,
7.9687500000,0,-44.4696998596,,,
7.9843750000,0,-47.3087310791,,,
8.0000000000,1,-50.5777587891,,,
8.0156250000,1,-54.0701217651,,,
8.0312500000,1,-57.1453399658,,,
8.0468750000,1,-58.7127609253,,,
8.0625000000,1,-57.5376205444,,,
8.0781250000,1,-52.6162986755,,,
8.0937500000,1,-43.5982398987,,,
8.1093750000,1,-30.9749107361,,,
8.1250000000,1,-15.9828395844,,,
8.1406250000,1,-0.2101002038,,,
8.1562500000,1,14.8300104141,,,
8.1718750000,1,27.9964599609,,,
8.1875000000,1,38.6501808167,,,
8.2031250000,1,46.5135993958,,,
8.2187500000,1,51.5514106750,,,
8.2343750000,1,53.8540306091,,,
8.2500000000,1,53.6459312439,,,
8.2656250000,1,51.2750396729,,,
8.2812500000,1,47.2874488831,,,
8.2968750000,1,42.3469200134,,,
8.3125000000,1,37.1360282898,,,
8.3281250000,1,32.2688903809,,,
8.3437500000,1,28.1818008423,,,
8.3593750000,1,25.1121196747,,,
8.3750000000,1,23.0633392334,,,
8.3906250000,1,21.8733501434,,,
8.4062500000,1,21.2631092072,,,
8.4218750000,1,20.9878997803,,,
8.4375000000,1,20.8722705841,,,
8.4531250000,1,20.8062496185,,,
8.4687500000,1,20.7265396118,,,
8.4843750000,1,20.4926109314,,,
8.5000000000,1,19.9042491913,,,
8.5156250000,1,18.7082099915,,,
8.5312500000,1,16.7111301422,,,
8.5468750000,1,13.8808898926,,,
8.5625000000,1,10.4184904099,,,
8.5781250000,1,6.6699519157,,,
8.5937500000,1,2.9782218933,,,
8.6093750000,1,-0.4564552009,,,
8.6250000000,1,-3.6893389225,,,
8.6406250000,1,-6.9266400337,,,
8.6562500000,1,-10.4180603027,,,
8.6718750000,1,-14.2632703781,,,
8.6875000000,1,-18.4060707092,,,
8.7031250000,1,-22.5977096558,,,
8.7187500000,1,-26.5732498169,,,
8.7343750000,1,-30.1438694000,,,
8.7500000000,1,-33.2411918640,,,
8.7656250000,1,-36.0130882263,,,
8.7812500000,1,-38.7215309143,,,
8.7968750000,1,-41.6743087769,,,
8.8125000000,1,-45.0536117554,,,
8.8281250000,1,-48.7735786438,,,
8.8437500000,1,-52.3064308167,,,
8.8593750000,1,-54.6673202515,,,
8.8750000000,1,-54.6522293091,,,
8.8906250000,1,-51.1738204956,,,
8.9062500000,1,-43.6923294067,,,
8.9218750000,1,-32.5177497864,,,
8.9375000000,1,-18.7239208221,,,
8.9531250000,1,-3.8842771053,,,
8.9687500000,1,10.4123001099,,,
8.9843750000,1,22.9204807281,,,
9.0000000000,1,32.9923782349,,,
9.0156250000,1,40.4367218018,,,
9.0312500000,1,45.3709602356,,,
9.0468750000,1,47.9651794434,,,
9.0625000000,1,48.3670501709,,,
9.0781250000,1,46.7982711792,,,
9.0937500000,1,43.5982818604,,,
9.1093750000,1,39.3226013184,,,
9.1250000000,1,34.6509399414,,,
9.1406250000,1,30.2485504150,,,
9.1562500000,1,26.5594806671,,,
9.1718750000,1,23.7843494415,,,
9.1875000000,1,21.8640804291,,,
9.2031250000,1,20.6507701874,,,
9.2187500000,1,19.9736804962,,,
9.2343750000,1,19.9736804962,,,
9.2500000000,1,19.9736804962,,,
9.2656250000,1,19.9736804962,,,
9.2812500000,1,19.9736804962,,,
9.2968750000,1,19.9736804962,,,
9.3125000000,1,19.9736804962,,,
9.3281250000,1,19.9736804962,,,
9.3437500000,1,19.9736804962,,,
9.3593750000,1,19.9736804962,,,
9.3750000000,1,19.9736804962,,,
9.3906250000,1,19.9736804962,,,
9.4062500000,1,19.9736804962,,,
9.4218750000,1,19.9736804962,,,
9.4375000000,1,19.9736804962,,,
9.4531250000,1,19.9736804962,,,
9.4687500000,1,19.9736804962,,,
9.4843750000,1,19.9736804962,,,
9.5000000000,1,19.9736804962,,,
9.5156250000,1,19.9736804962,,,
9.5312500000,1,19.9736804962,,,
9.5468750000,1,19.9736804962,,,
9.5625000000,1,19.9736804962,,,
9.5781250000,1,19.9736804962,,,
9.5937500000,1,19.9736804962,,,
9.6093750000,1,19.9736804962,,,
9.6250000000,1,19.9736804962,,,
9.6406250000,1,19.9736804962,,,
9.6562500000,1,19.9736804962,,,
9.6718750000,1,19.9736804962,,,
9.6875000000,1,19.9736804962,,,
9.7031250000,1,19.9736804962,,,
9.7187500000,1,19.9736804962,,,
9.7343750000,1,19.9736804962,,,
9.7500000000,1,19.9736804962,,,
9.7656250000,1,19.9736804962,,,
9.7812500000,1,19.9736804962,,,
9.7968750000,1,19.9736804962,,,
9.8125000000,1,19.9736804962,,,
9.8281250000,1,19.9736804962,,,
9.8437500000,1,19.9736804962,,,
9.8593750000,1,19.9736804962,,,
9.8750000000,1,19.9736804962,,,
9.8906250000,1,19.9736804962,,,
9.9062500000,1,19.9736804962,,,
9.9218750000,1,19.9736804962,,,
9.9375000000,1,19.9736804962,,,
9.9531250000,1,19.9736804962,,,
9.9687500000,1,19.9736804962,,,
9.9843750000,1,19.9736804962,,,
10.0000000000,1,19.9736804962,,,
10.0156250000,1,19.9736804962,,,
10.0312500000,1,19.9736804962,,,
10.0468750000,1,19.9736804962,,,
10.0625000000,1,19.9736804962,,,
10.0781250000,1,19.9736804962,,,
10.0937500000,1,19.9736804962,,,
10.1093750000,1,19.9736804962,,,
10.1250000000,1,19.9736804962,,,
10.1406250000,1,19.9736804962,,,
10.1562500000,1,19.9736804962,,,
10.1718750000,1,19.9736804962,,,
10.1875000000,1,19.9736804962,,,
10.2031250000,1,19.9736804962,,,
10.2187500000,1,19.9736804962,,,
10.2343750000,1,19.9736804962,,,
10.2500000000,1,19.9736804962,,,
10.2656250000,1,19.9736804962,,,
10.2812500000,1,19.9736804962,,,
10.2968750000,1,19.9736804962,,,
10.3125000000,1,19.9736804962,,,
10.3281250000,1,19.9736804962,,,
10.3437500000,1,19.9736804962,,,
10.3593750000,1,19.9736804962,,,
10.3750000000,1,19.9736804962,,,
10.3906250000,1,19.9736804962,,,
10.4062500000,1,19.9736804962,,,
10.4218750000,1,19.9736804962,,,
10.4375000000,1,19.9736804962,,,
10.4531250000,1,19.9736804962,,,
10.4687500000,1,19.9736804962,,,
10.4843750000,1,19.9736804962,,,
10.5000000000,1,19.9736804962,,,
10.5156250000,1,19.9736804962,,,
10.5312500000,1,19.9736804962,,,
10.5468750000,1,19.9736804962,,,
10.5625000000,1,19.9736804962,,,
10.5781250000,1,19.9736804962,,,
10.5937500000,1,19.9736804962,,,
10.6093750000,1,19.9736804962,,,
10.6250000000,1,19.9736804962,,,
10.6406250000,1,19.9736804962,,,
10.6562500000,1,19.9736804962,,,
10.6718750000,1,19.9736804962,,,
10.6875000000,1,19.9736804962,,,
10.7031250000,1,19.9736804962,,,
10.7187500000,1,19.9736804962,,,
10.7343750000,1,19.9736804962,,,
10.7500000000,1,19.9736804962,,,
10.7656250000,1,19.9736804962,,,
10.7812500000,1,19.9736804962,,,
10.7968750000,1,19.9736804962,,,
10.8125000000,1,19.9736804962,,,
10.8281250000,1,19.9736804962,,,
10.8437500000,1,19.9736804962,,,
10.8593750000,1,19.9736804962,,,
10.8750000000,1,19.9736804962,,,
10.8906250000,1,19.9736804962,,,
10.9062500000,1,19.9736804962,,,
10.9218750000,1,19.9736804962,,,
10.9375000000,1,19.9736804962,,,
10.9531250000,1,19.9736804962,,,
10.9687500000,1,19.9736804962,,,
10.9843750000,1,19.9736804962,,,
11.0000000000,1,19.9736804962,,,
11.0156250000,1,19.9736804962,,,
11.0312500000,1,19.9736804962,,,
11.0468750000,1,19.9736804962,,,
11.0625000000,1,19.9736804962,,,
11.0781250000,1,19.9736804962,,,
11.0937500000,1,19.9736804962,,,
11.1093750000,1,19.9736804962,,,
11.1250000000,1,19.9736804962,,,
11.1406250000,1,19.9736804962,,,
11.1562500000,1,19.9736804962,,,
11.1718750000,1,19.9736804962,,,
11.1875000000,1,19.9736804962,,,
11.2031250000,1,19.9736804962,,,
11.2187500000,1,19.9736804962,,,
11.2343750000,1,19.9736804962,,,
11.2500000000,1,19.9736804962,,,
11.2656250000,1,19.9736804962,,,
11.2812500000,1,19.9736804962,,,
11.2968750000,1,19.9736804962,,,
11.3125000000,1,19.9736804962,,,
11.3281250000,1,19.9736804962,,,
11.3437500000,1,19.9736804962,,,
11.3593750000,1,19.9736804962,,,
11.3750000000,1,19.9736804962,,,
11.3906250000,1,19.9736804962,,,
11.4062500000,1,19.9736804962,,,
11.4218750000,1,19.9736804962,,,
11.4375000000,1,19.9736804962,,,
11.4531250000,1,19.9736804962,,,
11.4687500000,1,19.9736804962,,,
11.4843750000,1,19.9736804962,,,
11.5000000000,1,19.9736804962,,,
11.5156250000,1,19.9736804962,,,
11.5312500000,1,19.9736804962,,,
11.5468750000,1,19.9736804962,,,
11.5625000000,1,19.9736804962,,,
11.5781250000,1,19.9736804962,,,
11.5937500000,1,19.9736804962,,,
11.6093750000,1,19.9736804962,,,
11.6250000000,1,19.9736804962,,,
11.6406250000,1,19.9736804962,,,
11.6562500000,1,19.9736804962,,,
11.6718750000,1,19.9736804962,,,
11.6875000000,1,19.9736804962,,,
11.7031250000,1,19.9736804962,,,
11.7187500000,1,19.9736804962,,,
11.7343750000,1,19.9736804962,,,
11.7500000000,1,19.9736804962,,,
11.7656250000,1,19.9736804962,,,
11.7812500000,1,19.9736804962,,,
11.7968750000,1,19.9736804962,,,
11.8125000000,1,19.9736804962,,,
11.8281250000,1,19.9736804962,,,
11.8437500000,1,19.9736804962,,,
11.8593750000,1,19.9736804962,,,
11.8750000000,1,19.9736804962,,,
11.8906250000,1,19.9736804962,,,
11.9062500000,1,19.9736804962,,,
11.9218750000,1,19.9736804962,,,
11.9375000000,1,19.9736804962,,,
11.9531250000,1,19.9736804962,,,
11.9687500000,1,19.9736804962,,,
11.9843750000,1,19.9736804962,,,
12.0000000000,1,19.9736804962,,,
12.0156250000,1,19.9736804962,,,
12.0312500000,1,19.9736804962,,,
12.0468750000,1,19.9736804962,,,
12.0625000000,1,19.9736804962,,,
12.0781250000,1,19.9736804962,,,
12.0937500000,1,19.9736804962,,,
12.1093750000,1,19.9736804962,,,
12.1250000000,1,19.9736804962,,,
12.1406250000,1,19.9736804962,,,
12.1562500000,1,19.9736804962,,,
12.1718750000,1,19.9736804962,,,
12.1875000000,1,19.9736804962,,,
12.2031250000,1,19.9736804962,,,
12.2187500000,1,19.9736804962,,,
12.2343750000,1,19.9736804962,,,
12.2500000000,1,19.9736804962,,,
12.2656250000,1,19.9736804962,,,
12.2812500000,1,19.9736804962,,,
12.2968750000,1,19.9736804962,,,
12.3125000000,1,19.9736804962,,,
12.3281250000,1,19.9736804962,,,
12.3437500000,1,19.9736804962,,,
12.3593750000,1,19.9736804962,,,
12.3750000000,1,19.9736804962,,,
12.3906250000,1,19.9736804962,,,
12.4062500000,1,19.9736804962,,,
12.4218750000,1,19.9736804962,,,
12.4375000000,1,19.9736804962,,,
12.4531250000,1,19.9736804962,,,
12.4687500000,1,19.9736804962,,,
12.4843750000,1,19.9736804962,,,
12.5000000000,1,19.9736804962,,,
12.5156250000,1,19.9736804962,,,
12.5312500000,1,19.9736804962,,,
12.5468750000,1,19.9736804962,,,
12.5625000000,1,19.9736804962,,,
12.5781250000,1,19.9736804962,,,
12.5937500000,1,19.9736804962,,,
12.6093750000,1,19.9736804962,,,
12.6250000000,1,19.9736804962,,,
12.6406250000,1,19.9736804962,,,
12.6562500000,1,19.9736804962,,,
12.6718750000,1,19.9736804962,,,
12.6875000000,1,19.9736804962,,,
12.7031250000,1,19.9736804962,,,
12.7187500000,1,19.9736804962,,,
12.7343750000,1,19.9736804962,,,
12.7500000000,1,19.9736804962,,,
12.7656250000,1,19.9736804962,,,
12.7812500000,1,19.9736804962,,,
12.7968750000,1,19.9736804962,,,
12.8125000000,1,19.9736804962,,,
12.8281250000,1,19.9736804962,,,
12.8437500000,1,19.9736804962,,,
12.8593750000,1,19.9736804962,,,
12.8750000000,1,19.9736804962,,,
12.8906250000,1,19.9736804962,,,
12.9062500000,1,19.9736804962,,,
12.9218750000,1,19.9736804962,,,
12.9375000000,1,19.9736804962,,,
12.9531250000,1,19.9736804962,,,
12.9687500000,1,19.9736804962,,,
12.9843750000,1,19.9736804962,,,
13.0000000000,1,19.9736804962,,,
13.0156250000,1,19.9736804962,,,
13.0312500000,1,19.9736804962,,,
13.0468750000,1,19.9736804962,,,
13.0625000000,1,19.9736804962,,,
13.0781250000,1,19.9736804962,,,
13.0937500000,1,19.9736804962,,,
13.1093750000,1,19.9736804962,,,
13.1250000000,1,19.9736804962,,,
13.1406250000,1,19.9736804962,,,
13.1562500000,1,19.9736804962,,,
13.1718750000,1,19.9736804962,,,
13.1875000000,1,19.9736804962,,,
13.2031250000,1,19.9736804962,,,
13.2187500000,1,19.9736804962,,,
13.2343750000,1,19.9736804962,,,
13.2500000000,1,19.9736804962,,,
13.2656250000,1,19.9736804962,,,
13.2812500000,1,19.9736804962,,,
13.2968750000,1,19.9736804962,,,
13.3125000000,1,19.9736804962,,,
13.3281250000,1,19.9736804962,,,
13.3437500000,1,19.9736804962,,,
13.3593750000,1,19.9736804962,,,
13.3750000000,1,19.9736804962,,,
13.3906250000,1,19.9736804962,,,
13.4062500000,1,19.9736804962,,,
13.4218750000,1,19.9736804962,,,
13.4375000000,1,19.9736804962,,,
13.4531250000,1,19.9736804962,,,
13.4687500000,1,19.9736804962,,,
13.4843750000,1,19.9736804962,,,
13.5000000000,1,19.9736804962,,,
13.5156250000,1,19.9736804962,,,
13.5312500000,1,19.9736804962,,,
13.5468750000,1,19.9736804962,,,
13.5625000000,1,19.9736804962,,,
13.5781250000,1,19.9736804962,,,
13.5937500000,1,19.9736804962,,,
13.6093750000,1,19.9736804962,,,
13.6250000000,1,19.9736804962,,,
13.6406250000,1,19.9736804962,,,
13.6562500000,1,19.9736804962,,,
13.6718750000,1,19.9736804962,,,
13.6875000000,1,19.9736804962,,,
13.7031250000,1,19.9736804962,,,
13.7187500000,1,19.9736804962,,,
13.7343750000,1,19.9736804962,,,
13.7500000000,1,19.9736804962,,,
13.7656250000,1,19.9736804962,,,
13.7812500000,1,19.9736804962,,,
13.7968750000,1,19.9736804962,,,
13.8125000000,1,19.9736804962,,,
13.8281250000,1,19.9736804962,,,
13.8437500000,1,19.9736804962,,,
13.8593750000,1,19.9736804962,,,
13.8750000000,1,19.9736804962,,,
13.8906250000,1,19.9736804962,,,
13.9062500000,1,19.9736804962,,,
13.9218750000,1,19.9736804962,,,
13.9375000000,1,19.9736804962,,,
13.9531250000,1,19.9736804962,,,
13.9687500000,1,19.9736804962,,,
13.9843750000,1,19.9736804962,,,
14.0000000000,1,19.9736804962,,,
14.0156250000,1,19.9736804962,,,
14.0312500000,1,19.9736804962,,,
14.0468750000,1,19.9736804962,,,
14.0625000000,1,19.9736804962,,,
14.0781250000,1,19.9736804962,,,
14.0937500000,1,19.9736804962,,,
14.1093750000,1,19.9736804962,,,
14.1250000000,1,19.9736804962,,,
14.1406250000,1,19.9736804962,,,
14.1562500000,1,19.9736804962,,,
14.1718750000,1,19.9736804962,,,
14.1875000000,1,19.9736804962,,,
14.2031250000,1,19.9736804962,,,
14.2187500000,1,19.9736804962,,,
14.2343750000,1,19.9736804962,,,
14.2500000000,1,19.9736804962,,,
14.2656250000,1,19.9736804962,,,
14.2812500000,1,19.9736804962,,,
14.2968750000,1,19.9736804962,,,
14.3125000000,1,19.9736804962,,,
14.3281250000,1,19.9736804962,,,
14.3437500000,1,19.9736804962,,,
14.3593750000,1,19.9736804962,,,
14.3750000000,1,19.9736804962,,,
14.3906250000,1,19.9736804962,,,
14.4062500000,1,19.9736804962,,,
14.4218750000,1,19.9736804962,,,
14.4375000000,1,19.9736804962,,,
14.4531250000,1,19.9736804962,,,
14.4687500000,1,19.9736804962,,,
14.4843750000,1,19.9736804962,,,
14.5000000000,1,19.9736804962,,,
14.5156250000,1,19.9736804962,,,
14.5312500000,1,19.9736804962,,,
14.5468750000,1,19.9736804962,,,
14.5625000000,1,19.9736804962,,,
14.5781250000,1,19.9736804962,,,
14.5937500000,1,19.9736804962,,,
14.6093750000,1,19.9736804962,,,
14.6250000000,1,19.9736804962,,,
14.6406250000,1,19.9736804962,,,
14.6562500000,1,19.9736804962,,,
14.6718750000,1,19.9736804962,,,
14.6875000000,1,19.9736804962,,,
14.7031250000,1,19.9736804962,,,
14.7187500000,1,19.9736804962,,,
14.7343750000,1,19.9736804962,,,
14.7500000000,1,19.9736804962,,,
14.7656250000,1,19.9736804962,,,
14.7812500000,1,19.9736804962,,,
14.7968750000,1,19.9736804962,,,
14.8125000000,1,19.9736804962,,,
14.8281250000,1,19.9736804962,,,
14.8437500000,1,19.9736804962,,,
14.8593750000,1,19.9736804962,,,
14.8750000000,1,19.9736804962,,,
14.8906250000,1,19.9736804962,,,
14.9062500000,1,19.9736804962,,,
14.9218750000,1,19.9736804962,,,
14.9375000000,1,19.9736804962,,,
14.9531250000,1,19.9736804962,,,
14.9687500000,1,19.9736804962,,,
14.9843750000,1,19.9736804962,,,
15.0000000000,1,19.9736804962,,,
15.0156250000,1,19.9736804962,,,
15.0312500000,1,19.9736804962,,,
15.0468750000,1,19.9736804962,,,
15.0625000000,1,19.9736804962,,,
15.0781250000,1,19.9736804962,,,
15.0937500000,1,19.9736804962,,,
15.1093750000,1,19.9736804962,,,
15.1250000000,1,19.9736804962,,,
15.1406250000,1,19.9736804962,,,
15.1562500000,1,19.9736804962,,,
15.1718750000,1,19.9736804962,,,
15.1875000000,1,19.9736804962,,,
15.2031250000,1,19.9736804962,,,
15.2187500000,1,19.9736804962,,,
15.2343750000,1,19.9736804962,,,
15.2500000000,1,19.9736804962,,,
15.2656250000,1,19.9736804962,,,
15.2812500000,1,19.9736804962,,,
15.2968750000,1,19.9736804962,,,
15.3125000000,1,19.9736804962,,,
15.3281250000,1,19.9736804962,,,
15.3437500000,1,19.9736804962,,,
15.3593750000,1,19.9736804962,,,
15.3750000000,1,19.9736804962,,,
15.3906250000,1,19.9736804962,,,
15.4062500000,1,19.9736804962,,,
15.4218750000,1,19.9736804962,,,
15.4375000000,1,19.9736804962,,,
15.4531250000,1,19.9736804962,,,
15.4687500000,1,19.9736804962,,,
15.4843750000,1,19.9736804962,,,
15.5000000000,1,19.9736804962,,,
15.5156250000,1,19.9736804962,,,
15.5312500000,1,19.9736804962,,,
15.5468750000,1,19.9736804962,,,
15.5625000000,1,19.9736804962,,,
15.5781250000,1,19.9736804962,,,
15.5937500000,1,19.9736804962,,,
15.6093750000,1,19.9736804962,,,
15.6250000000,1,19.9736804962,,,
15.6406250000,1,19.9736804962,,,
15.6562500000,1,19.9736804962,,,
15.6718750000,1,19.9736804962,,,
15.6875000000,1,19.9736804962,,,
15.7031250000,1,19.9736804962,,,
15.7187500000,1,19.9736804962,,,
15.7343750000,1,19.9736804962,,,
15.7500000000,1,19.9736804962,,,
15.7656250000,1,19.9736804962,,,
15.7812500000,1,19.9736804962,,,
15.7968750000,1,19.9736804962,,,
15.8125000000,1,19.9736804962,,,
15.8281250000,1,19.9736804962,,,
15.8437500000,1,19.9736804962,,,
15.8593750000,1,19.9736804962,,,
15.8750000000,1,19.9736804962,,,
15.8906250000,1,19.9736804962,,,
15.9062500000,1,19.9736804962,,,
15.9218750000,1,19.9736804962,,,
15.9375000000,1,19.9736804962,,,
15.9531250000,1,19.9736804962,,,
15.9687500000,1,19.9736804962,,,
15.9843750000,1,19.9736804962,,,
16.0000000000,2,19.9736804962,,,
16.0156250000,2,19.9736804962,,,
16.0312500000,2,19.9736804962,,,
16.0468750000,2,19.9736804962,,,
16.0625000000,2,19.9736804962,,,
16.0781250000,2,19.9736804962,,,
16.0937500000,2,19.9736804962,,,
16.1093750000,2,19.9736804962,,,
16.1250000000,2,19.9736804962,,,
16.1406250000,2,19.9736804962,,,
16.1562500000,2,19.9736804962,,,
16.1718750000,2,19.9736804962,,,
16.1875000000,2,19.9736804962,,,
16.2031250000,2,19.9736804962,,,
16.2187500000,2,19.9736804962,,,
16.2343750000,2,19.9736804962,,,
16.2500000000,2,19.9736804962,,,
16.2656250000,2,19.9736804962,,,
16.2812500000,2,19.9736804962,,,
16.2968750000,2,19.9736804962,,,
16.3125000000,2,19.9736804962,,,
16.3281250000,2,19.9736804962,,,
16.3437500000,2,19.9736804962,,,
16.3593750000,2,19.9736804962,,,
16.3750000000,2,19.9736804962,,,
16.3906250000,2,19.9736804962,,,
16.4062500000,2,19.9736804962,,,
16.4218750000,2,19.9736804962,,,
16.4375000000,2,19.9736804962,,,
16.4531250000,2,19.9736804962,,,
16.4687500000,2,19.9736804962,,,
16.4843750000,2,19.9736804962,,,
16.5000000000,2,19.9736804962,,,
16.5156250000,2,19.9736804962,,,
16.5312500000,2,19.9736804962,,,
16.5468750000,2,19.9736804962,,,
16.5625000000,2,19.9736804962,,,
16.5781250000,2,19.9736804962,,,
16.5937500000,2,19.9736804962,,,
16.6093750000,2,19.9736804962,,,
16.6250000000,2,19.9736804962,,,
16.6406250000,2,19.9736804962,,,
16.6562500000,2,19.9736804962,,,
16.6718750000,2,19.9736804962,,,
16.6875000000,2,19.9736804962,,,
16.7031250000,2,19.9736804962,,,
16.7187500000,2,19.9736804962,,,
16.7343750000,2,19.9736804962,,,
16.7500000000,2,19.9736804962,,,
16.7656250000,2,19.9736804962,,,
16.7812500000,2,19.9736804962,,,
16.7968750000,2,19.9736804962,,,
16.8125000000,2,19.9736804962,,,
16.8281250000,2,19.9736804962,,,
16.8437500000,2,19.9736804962,,,
16.8593750000,2,19.9736804962,,,
16.8750000000,2,19.9736804962,,,
16.8906250000,2,19.9736804962,,,
16.9062500000,2,19.9736804962,,,
16.9218750000,2,19.9736804962,,,
16.9375000000,2,19.9736804962,,,
16.9531250000,2,19.9736804962,,,
16.9687500000,2,19.9736804962,,,
16.9843750000,2,19.9736804962,,,
17.0000000000,2,19.9736804962,,,
17.0156250000,2,19.9736804962,,,
17.0312500000,2,19.9736804962,,,
17.0468750000,2,19.9736804962,,,
17.0625000000,2,19.9736804962,,,
17.0781250000,2,19.9736804962,,,
17.0937500000,2,19.9736804962,,,
17.1093750000,2,19.9736804962,,,
17.1250000000,2,19.9736804962,,,
17.1406250000,2,19.9736804962,,,
17.1562500000,2,19.9736804962,,,
17.1718750000,2,19.9736804962,,,
17.1875000000,2,19.9736804962,,,
17.2031250000,2,19.9736804962,,,
17.2187500000,2,19.9736804962,,,
17.2343750000,2,19.9736804962,,,
17.2500000000,2,19.9736804962,,,
17.2656250000,2,19.9736804962,,,
17.2812500000,2,19.9736804962,,,
17.2968750000,2,19.9736804962,,,
17.3125000000,2,19.9736804962,,,
17.3281250000,2,19.9736804962,,,
17.3437500000,2,19.9736804962,,,
17.3593750000,2,19.9736804962,,,
17.3750000000,2,19.9736804962,,,
17.3906250000,2,19.9736804962,,,
17.4062500000,2,19.9736804962,,,
17.4218750000,2,19.9736804962,,,
17.4375000000,2,19.9736804962,,,
17.4531250000,2,19.9736804962,,,
17.4687500000,2,19.9736804962,,,
17.4843750000,2,19.9736804962,,,
17.5000000000,2,19.9736804962,,,
17.5156250000,2,19.9736804962,,,
17.5312500000,2,19.9736804962,,,
17.5468750000,2,19.9736804962,,,
17.5625000000,2,19.9736804962,,,
17.5781250000,2,19.9736804962,,,
17.5937500000,2,19.9736804962,,,
17.6093750000,2,19.9736804962,,,
17.6250000000,2,19.9736804962,,,
17.6406250000,2,19.9736804962,,,
17.6562500000,2,19.9736804962,,,
17.6718750000,2,19.9736804962,,,
17.6875000000,2,19.9736804962,,,
17.7031250000,2,19.9736804962,,,
17.7187500000,2,19.9736804962,,,
17.7343750000,2,19.9736804962,,,
17.7500000000,2,19.9736804962,,,
17.7656250000,2,19.9736804962,,,
17.7812500000,2,19.9736804962,,,
17.7968750000,2,19.9736804962,,,
17.8125000000,2,19.9736804962,,,
17.8281250000,2,19.9736804962,,,
17.8437500000,2,19.9736804962,,,
17.8593750000,2,19.9736804962,,,
17.8750000000,2,19.9736804962,,,
17.8906250000,2,19.9736804962,,,
17.9062500000,2,19.9736804962,,,
17.9218750000,2,19.9736804962,,,
17.9375000000,2,19.9736804962,,,
17.9531250000,2,19.9736804962,,,
17.9687500000,2,19.9736804962,,,
17.9843750000,2,19.9736804962,,,
18.0000000000,2,19.9736804962,,,
18.0156250000,2,19.9736804962,,,
18.0312500000,2,19.9736804962,,,
18.0468750000,2,19.9736804962,,,
18.0625000000,2,19.9736804962,,,
18.0781250000,2,19.9736804962,,,
18.0937500000,2,19.9736804962,,,
18.1093750000,2,19.9736804962,,,
18.1250000000,2,19.9736804962,,,
18.1406250000,2,19.9736804962,,,
18.1562500000,2,19.9736804962,,,
18.1718750000,2,19.9736804962,,,
18.1875000000,2,19.9736804962,,,
18.2031250000,2,19.9736804962,,,
18.2187500000,2,19.9736804962,,,
18.2343750000,2,19.9736804962,,,
18.2500000000,2,19.9736804962,,,
18.2656250000,2,19.9736804962,,,
18.2812500000,2,19.9736804962,,,
18.2968750000,2,19.9736804962,,,
18.3125000000,2,19.9736804962,,,
18.3281250000,2,19.9736804962,,,
18.3437500000,2,19.9736804962,,,
18.3593750000,2,19.9736804962,,,
18.3750000000,2,19.9736804962,,,
18.3906250000,2,19.9736804962,,,
18.4062500000,2,19.9736804962,,,
18.4218750000,2,19.9736804962,,,
18.4375000000,2,19.9736804962,,,
18.4531250000,2,19.9736804962,,,
18.4687500000,2,19.9736804962,,,
18.4843750000,2,19.9736804962,,,
18.5000000000,2,19.9736804962,,,
18.5156250000,2,19.9736804962,,,
18.5312500000,2,19.9736804962,,,
18.5468750000,2,19.9736804962,,,
18.5625000000,2,19.9736804962,,,
18.5781250000,2,19.9736804962,,,
18.5937500000,2,19.9736804962,,,
18.6093750000,2,19.9736804962,,,
18.6250000000,2,19.9736804962,,,
18.6406250000,2,19.9736804962,,,
18.6562500000,2,19.9736804962,,,
18.6718750000,2,19.9736804962,,,
18.6875000000,2,19.9736804962,,,
18.7031250000,2,19.9736804962,,,
18.7187500000,2,19.9736804962,,,
18.7343750000,2,19.9736804962,,,
18.7500000000,2,19.9736804962,,,
18.7656250000,2,19.9736804962,,,
18.7812500000,2,19.9736804962,,,
18.7968750000,2,19.9736804962,,,
18.8125000000,2,19.9736804962,,,
18.8281250000,2,19.9736804962,,,
18.8437500000,2,19.9736804962,,,
18.8593750000,2,19.9736804962,,,
18.8750000000,2,19.9736804962,,,
18.8906250000,2,19.9736804962,,,
18.9062500000,2,19.9736804962,,,
18.9218750000,2,19.9736804962,,,
18.9375000000,2,19.9736804962,,,
18.9531250000,2,19.9736804962,,,
18.9687500000,2,19.9736804962,,,
18.9843750000,2,19.9736804962,,,
19.0000000000,2,19.9736804962,,,
19.0156250000,2,19.9736804962,,,
19.0312500000,2,19.9736804962,,,
19.0468750000,2,19.9736804962,,,
19.0625000000,2,19.9736804962,,,
19.0781250000,2,19.9736804962,,,
19.0937500000,2,19.9736804962,,,
19.1093750000,2,19.9736804962,,,
19.1250000000,2,19.9736804962,,,
19.1406250000,2,19.9736804962,,,
19.1562500000,2,19.9736804962,,,
19.1718750000,2,19.9736804962,,,
19.1875000000,2,19.9736804962,,,
19.2031250000,2,19.9736804962,,,
19.2187500000,2,19.9736804962,,,
19.2343750000,2,19.9736804962,,,
19.2500000000,2,19.9736804962,,,
19.2656250000,2,19.9736804962,,,
19.2812500000,2,19.9736804962,,,
19.2968750000,2,19.9736804962,,,
19.3125000000,2,19.9736804962,,,
19.3281250000,2,19.9736804962,,,
19.3437500000,2,19.9736804962,,,
19.3593750000,2,19.9736804962,,,
19.3750000000,2,19.9736804962,,,
19.3906250000,2,19.9736804962,,,
19.4062500000,2,19.9736804962,,,
19.4218750000,2,19.9736804962,,,
19.4375000000,2,19.9736804962,,,
19.4531250000,2,19.9736804962,,,
19.4687500000,2,19.9736804962,,,
19.4843750000,2,19.9736804962,,,
19.5000000000,2,19.9736804962,,,
19.5156250000,2,19.9736804962,,,
19.5312500000,2,19.9736804962,,,
19.5468750000,2,19.9736804962,,,
19.5625000000,2,19.9736804962,,,
19.5781250000,2,19.9736804962,,,
19.5937500000,2,19.9736804962,,,
19.6093750000,2,19.9736804962,,,
19.6250000000,2,19.9736804962,,,
19.6406250000,2,19.9736804962,,,
19.6562500000,2,19.9736804962,,,
19.6718750000,2,19.9736804962,,,
19.6875000000,2,19.9736804962,,,
19.7031250000,2,19.9736804962,,,
19.7187500000,2,19.9736804962,,,
19.7343750000,2,19.9736804962,,,
19.7500000000,2,19.9736804962,,,
19.7656250000,2,19.9736804962,,,
19.7812500000,2,19.9736804962,,,
19.7968750000,2,19.9736804962,,,
19.8125000000,2,19.9736804962,,,
19.8281250000,2,19.9736804962,,,
19.8437500000,2,19.9736804962,,,
19.8593750000,2,19.9736804962,,,
19.8750000000,2,19.9736804962,,,
19.8906250000,2,19.9736804962,,,
19.9062500000,2,19.9736804962,,,
19.9218750000,2,19.9736804962,,,
19.9375000000,2,19.9736804962,,,
19.9531250000,2,19.9736804962,,,
19.9687500000,2,19.9736804962,,,
19.9843750000,2,19.9736804962,,,
20.0000000000,2,19.9736804962,,,
20.0156250000,2,19.9736804962,,,
20.0312500000,2,19.9736804962,,,
20.0468750000,2,19.9736804962,,,
20.0625000000,2,19.9736804962,,,
20.0781250000,2,19.9736804962,,,
20.0937500000,2,19.9736804962,,,
20.1093750000,2,19.9736804962,,,
20.1250000000,2,19.9736804962,,,
20.1406250000,2,19.9736804962,,,
20.1562500000,2,19.9736804962,,,
20.1718750000,2,19.9736804962,,,
20.1875000000,2,19.9736804962,,,
20.2031250000,2,19.9736804962,,,
20.2187500000,2,19.9736804962,,,
20.2343750000,2,19.9736804962,,,
20.2500000000,2,19.9736804962,,,
20.2656250000,2,19.9736804962,,,
20.2812500000,2,19.9736804962,,,
20.2968750000,2,19.9736804962,,,
20.3125000000,2,19.9736804962,,,
20.3281250000,2,19.9736804962,,,
20.3437500000,2,19.9736804962,,,
20.3593750000,2,19.9736804962,,,
20.3750000000,2,19.9736804962,,,
20.3906250000,2,19.9736804962,,,
20.4062500000,2,19.9736804962,,,
20.4218750000,2,19.9736804962,,,
20.4375000000,2,19.9736804962,,,
20.4531250000,2,19.9736804962,,,
20.4687500000,2,19.9736804962,,,
20.4843750000,2,19.9736804962,,,
20.5000000000,2,19.9736804962,,,
20.5156250000,2,19.9736804962,,,
20.5312500000,2,19.9736804962,,,
20.5468750000,2,19.9736804962,,,
20.5625000000,2,19.9736804962,,,
20.5781250000,2,19.9736804962,,,
20.5937500000,2,19.9736804962,,,
20.6093750000,2,19.9736804962,,,
20.6250000000,2,19.9736804962,,,
20.6406250000,2,19.9736804962,,,
20.6562500000,2,19.9736804962,,,
20.6718750000,2,19.9736804962,,,
20.6875000000,2,19.9736804962,,,
20.7031250000,2,19.9736804962,,,
20.7187500000,2,19.9736804962,,,
20.7343750000,2,19.9736804962,,,
20.7500000000,2,19.9736804962,,,
20.7656250000,2,19.9736804962,,,
20.7812500000,2,19.9736804962,,,
20.7968750000,2,19.9736804962,,,
20.8125000000,2,19.9736804962,,,
20.8281250000,2,19.9736804962,,,
20.8437500000,2,19.9736804962,,,
20.8593750000,2,19.9736804962,,,
20.8750000000,2,19.9736804962,,,
20.8906250000,2,19.9736804962,,,
20.9062500000,2,19.9736804962,,,
20.9218750000,2,19.9736804962,,,
20.9375000000,2,19.9736804962,,,
20.9531250000,2,19.9736804962,,,
20.9687500000,2,19.9736804962,,,
20.9843750000,2,19.9736804962,,,
21.0000000000,2,19.9736804962,,,
21.0156250000,2,19.9736804962,,,
21.0312500000,2,19.9736804962,,,
21.0468750000,2,19.9736804962,,,
21.0625000000,2,19.9736804962,,,
21.0781250000,2,19.9736804962,,,
21.0937500000,2,19.9736804962,,,
21.1093750000,2,19.9736804962,,,
21.1250000000,2,19.9736804962,,,
21.1406250000,2,19.9736804962,,,
21.1562500000,2,19.9736804962,,,
21.1718750000,2,19.9736804962,,,
21.1875000000,2,19.9736804962,,,
21.2031250000,2,19.9736804962,,,
21.2187500000,2,19.9736804962,,,
21.2343750000,2,19.9736804962,,,
21.2500000000,2,19.9736804962,,,
21.2656250000,2,19.9736804962,,,
21.2812500000,2,19.9736804962,,,
21.2968750000,2,19.9736804962,,,
21.3125000000,2,19.9736804962,,,
21.3281250000,2,19.9736804962,,,
21.3437500000,2,19.9736804962,,,
21.3593750000,2,19.9736804962,,,
21.3750000000,2,19.9736804962,,,
21.3906250000,2,19.9736804962,,,
21.4062500000,2,19.9736804962,,,
21.4218750000,2,19.9736804962,,,
21.4375000000,2,19.9736804962,,,
21.4531250000,2,19.9736804962,,,
21.4687500000,2,19.9736804962,,,
21.4843750000,2,19.9736804962,,,
21.5000000000,2,19.9736804962,,,
21.5156250000,2,19.9736804962,,,
21.5312500000,2,19.9736804962,,,
21.5468750000,2,19.9736804962,,,
21.5625000000,2,19.9736804962,,,
21.5781250000,2,19.9736804962,,,
21.5937500000,2,19.9736804962,,,
21.6093750000,2,19.9736804962,,,
21.6250000000,2,19.9736804962,,,
21.6406250000,2,19.9736804962,,,
21.6562500000,2,19.9736804962,,,
21.6718750000,2,19.9736804962,,,
21.6875000000,2,19.9736804962,,,
21.7031250000,2,19.9736804962,,,
21.7187500000,2,19.9736804962,,,
21.7343750000,2,19.9736804962,,,
21.7500000000,2,19.9736804962,,,
21.7656250000,2,19.9736804962,,,
21.7812500000,2,19.9736804962,,,
21.7968750000,2,19.9736804962,,,
21.8125000000,2,19.9736804962,,,
21.8281250000,2,19.9736804962,,,
21.8437500000,2,19.9736804962,,,
21.8593750000,2,19.9736804962,,,
21.8750000000,2,19.9736804962,,,
21.8906250000,2,19.9736804962,,,
21.9062500000,2,19.9736804962,,,
21.9218750000,2,19.9736804962,,,
21.9375000000,2,19.9736804962,,,
21.9531250000,2,19.9736804962,,,
21.9687500000,2,19.9736804962,,,
21.9843750000,2,19.9736804962,,,
22.0000000000,2,19.9736804962,,,
22.0156250000,2,19.9736804962,,,
22.0312500000,2,19.9736804962,,,
22.0468750000,2,19.9736804962,,,
22.0625000000,2,19.9736804962,,,
22.0781250000,2,19.9736804962,,,
22.0937500000,2,19.9736804962,,,
22.1093750000,2,19.9736804962,,,
22.1250000000,2,19.9736804962,,,
22.1406250000,2,19.9736804962,,,
22.1562500000,2,19.9736804962,,,
22.1718750000,2,19.9736804962,,,
22.1875000000,2,19.9736804962,,,
22.2031250000,2,19.9736804962,,,
22.2187500000,2,19.9736804962,,,
22.2343750000,2,19.9736804962,,,
22.2500000000,2,19.9736804962,,,
22.2656250000,2,19.9736804962,,,
22.2812500000,2,19.9736804962,,,
22.2968750000,2,19.9736804962,,,
22.3125000000,2,19.9736804962,,,
22.3281250000,2,19.9736804962,,,
22.3437500000,2,19.9736804962,,,
22.3593750000,2,19.9736804962,,,
22.3750000000,2,19.9736804962,,,
22.3906250000,2,19.9736804962,,,
22.4062500000,2,19.9736804962,,,
22.4218750000,2,19.9736804962,,,
22.4375000000,2,19.9736804962,,,
22.4531250000,2,19.9736804962,,,
22.4687500000,2,19.9736804962,,,
22.4843750000,2,19.9736804962,,,
22.5000000000,2,19.9736804962,,,
22.5156250000,2,19.9736804962,,,
22.5312500000,2,19.9736804962,,,
22.5468750000,2,19.9736804962,,,
22.5625000000,2,19.9736804962,,,
22.5781250000,2,19.9736804962,,,
22.5937500000,2,19.9736804962,,,
22.6093750000,2,19.9736804962,,,
22.6250000000,2,19.9736804962,,,
22.6406250000,2,19.9736804962,,,
22.6562500000,2,19.9736804962,,,
22.6718750000,2,19.9736804962,,,
22.6875000000,2,19.9736804962,,,
22.7031250000,2,19.9736804962,,,
22.7187500000,2,19.9736804962,,,
22.7343750000,2,19.9736804962,,,
22.7500000000,2,19.9736804962,,,
22.7656250000,2,19.9736804962,,,
22.7812500000,2,19.9736804962,,,
22.7968750000,2,19.9736804962,,,
22.8125000000,2,19.9736804962,,,
22.8281250000,2,19.9736804962,,,
22.8437500000,2,19.9736804962,,,
22.8593750000,2,19.9736804962,,,
22.8750000000,2,19.9736804962,,,
22.8906250000,2,19.9736804962,,,
22.9062500000,2,19.9736804962,,,
22.9218750000,2,19.9736804962,,,
22.9375000000,2,19.9736804962,,,
22.9531250000,2,19.9736804962,,,
22.9687500000,2,19.9736804962,,,
22.9843750000,2,19.9736804962,,,
23.0000000000,2,19.9736804962,,,
23.0156250000,2,19.9736804962,,,
23.0312500000,2,19.9736804962,,,
23.0468750000,2,19.9736804962,,,
23.0625000000,2,19.9736804962,,,
23.0781250000,2,19.9736804962,,,
23.0937500000,2,19.9736804962,,,
23.1093750000,2,19.9736804962,,,
23.1250000000,2,19.9736804962,,,
23.1406250000,2,19.9736804962,,,
23.1562500000,2,19.9736804962,,,
23.1718750000,2,19.9736804962,,,
23.1875000000,2,19.9736804962,,,
23.2031250000,2,19.9736804962,,,
23.2187500000,2,19.9736804962,,,
23.2343750000,2,19.9736804962,,,
23.2500000000,2,19.9736804962,,,
23.2656250000,2,19.9736804962,,,
23.2812500000,2,19.9736804962,,,
23.2968750000,2,19.9736804962,,,
23.3125000000,2,19.9736804962,,,
23.3281250000,2,19.9736804962,,,
23.3437500000,2,19.9736804962,,,
23.3593750000,2,19.9736804962,,,
23.3750000000,2,19.9736804962,,,
23.3906250000,2,19.9736804962,,,
23.4062500000,2,19.9736804962,,,
23.4218750000,2,19.9736804962,,,
23.4375000000,2,19.9736804962,,,
23.4531250000,2,19.9736804962,,,
23.4687500000,2,19.9736804962,,,
23.4843750000,2,19.7027797699,,,
23.5000000000,2,19.7064208984,,,
23.5156250000,2,19.8121891022,,,
23.5312500000,2,19.8281993866,,,
23.5468750000,2,19.5209407806,,,
23.5625000000,2,18.7123603821,,,
23.5781250000,2,17.2686290741,,,
23.5937500000,2,15.1236495972,,,
23.6093750000,2,12.2718000412,,,
23.6250000000,2,8.7922649384,,,
23.6406250000,2,4.8549327850,,,
23.6562500000,2,0.7230740190,,,
23.6718750000,2,-3.3336238861,,,
23.6875000000,2,-7.1662788391,,,
23.7031250000,2,-10.7912197113,,,
23.7187500000,2,-14.4080495834,,,
23.7343750000,2,-18.2590599060,,,
23.7500000000,2,-22.4590301514,,,
23.7656250000,2,-26.8999996185,,,
23.7812500000,2,-31.2174797058,,,
23.7968750000,2,-34.9954490662,,,
23.8125000000,2,-37.9665298462,,,
23.8281250000,2,-40.1410293579,,,
23.8437500000,2,-41.8882904053,,,
23.8593750000,2,-43.7454681396,,,
23.8750000000,2,-46.2662010193,,,
23.8906250000,2,-49.7279586792,,,
23.9062500000,2,-54.0001296997,,,
23.9218750000,2,-58.3846588135,,,
23.9375000000,2,-61.7714881897,,,
23.9531250000,2,-62.8290596008,,,
23.9687500000,2,-60.3619308472,,,
23.9843750000,2,-53.7018890381,,,
24.0000000000,3,-42.9548912048,,,
24.0156250000,3,-29.0348892212,,,
24.0312500000,3,-13.4466896057,,,
24.0468750000,3,2.1199069023,,,
24.0625000000,3,16.2452697754,,,
24.0781250000,3,28.0011997223,,,
24.0937500000,3,37.0498580933,,,
24.1093750000,3,43.4486999512,,,
24.1250000000,3,47.4561500549,,,
24.1406250000,3,49.3086013794,,,
24.1562500000,3,49.2475814819,,,
24.1718750000,3,47.5509300232,,,
24.1875000000,3,44.6401710510,,,
24.2031250000,3,41.0924491882,,,
24.2187500000,3,37.5032386780,,,
24.2343750000,3,34.3656311035,,,
24.2500000000,3,31.9287300110,,,
24.2656250000,3,30.1647701263,,,
24.2812500000,3,28.8694705963,,,
24.2968750000,3,27.8288192749,,,
24.3125000000,3,26.9164295197,,,
24.3281250000,3,26.1405906677,,,
24.3437500000,3,25.5932807922,,,
24.3593750000,3,25.3118190765,,,
24.3750000000,3,25.1817302704,,,
24.3906250000,3,24.9454097748,,,
24.4062500000,3,24.2189998627,,,
24.4218750000,3,22.6625099182,,,
24.4375000000,3,20.0997200012,,,
24.4531250000,3,16.5704097748,,,
24.4687500000,3,12.3545598984,,,
24.4843750000,3,7.8807888031,,,
24.5000000000,3,3.5484540462,,,
24.5156250000,3,-0.4137192070,,,
24.5312500000,3,-4.0146808624,,,
24.5468750000,3,-7.4989871979,,,
24.5625000000,3,-11.1642503738,,,
24.5781250000,3,-15.2131204605,,,
24.5937500000,3,-19.6568393707,,,
24.6093750000,3,-24.2663307190,,,
24.6250000000,3,-28.6812191010,,,
24.6406250000,3,-32.5712699890,,,
24.6562500000,3,-35.7304000854,,,
24.6718750000,3,-38.2034187317,,,
24.6875000000,3,-40.2257690430,,,
24.7031250000,3,-42.1531791687,,,
24.7187500000,3,-44.3717803955,,,
24.7343750000,3,-47.1686210632,,,
24.7500000000,3,-50.5625190735,,,
24.7656250000,3,-54.1934394836,,,
24.7812500000,3,-57.2644081116,,,
24.7968750000,3,-58.6443595886,,,
24.8125000000,3,-57.1754684448,,,
24.8281250000,3,-52.0432510376,,,
24.8437500000,3,-43.0733718872,,,
24.8593750000,3,-30.8249893188,,,
24.8750000000,3,-16.4605197906,,,
24.8906250000,3,-1.4349770546,,,
24.9062500000,3,12.8579998016,,,
24.9218750000,3,25.3218498230,,,
24.9375000000,3,35.2779006958,,,
24.9531250000,3,42.4593086243,,,
24.9687500000,3,46.9292602539,,,
24.9843750000,3,48.9636497498,,,
25.0000000000,3,48.9612312317,,,
25.0156250000,3,47.3465614319,,,
25.0312500000,3,44.5607299805,,,
25.0468750000,3,41.0446891785,,,
25.0625000000,3,37.2538108826,,,
25.0781250000,3,33.6591491699,,,
25.0937500000,3,30.6748104095,,,
25.1093750000,3,28.5681705475,,,
25.1250000000,3,27.3695297241,,,
25.1406250000,3,26.8817691803,,,
25.1562500000,3,26.8352909088,,,
25.1718750000,3,26.9758491516,,,
25.1875000000,3,27.1665992737,,,
25.2031250000,3,27.3301296234,,,
25.2187500000,3,27.3954792023,,,
25.2343750000,3,27.1944999695,,,
25.2500000000,3,26.5386009216,,,
25.2656250000,3,25.2768192291,,,
25.2812500000,3,23.3883209229,,,
25.2968750000,3,20.9700202942,,,
25.3125000000,3,18.1885395050,,,
25.3281250000,3,15.1935701370,,,
25.3437500000,3,12.0754499435,,,
25.3593750000,3,8.8777008057,,,
25.3750000000,3,5.6489582062,,,
25.3906250000,3,2.4580180645,,,
25.4062500000,3,-0.6188930869,,,
25.4218750000,3,-3.5316460133,,,
25.4375000000,3,-6.2823100090,,,
25.4531250000,3,-8.9008083344,,,
25.4687500000,3,-11.4336004257,,,
25.4843750000,3,-13.8833198547,,,
25.5000000000,3,-16.2484397888,,,
25.5156250000,3,-18.5227909088,,,
25.5312500000,3,-20.6738300323,,,
25.5468750000,3,-22.6374797821,,,
25.5625000000,3,-24.2762393951,,,
25.5781250000,3,-25.3867702484,,,
25.5937500000,3,-25.7690906525,,,
25.6093750000,3,-25.3326206207,,,
25.6250000000,3,-24.1383304596,,,
25.6406250000,3,-22.4106292725,,,
25.6562500000,3,-20.4199008942,,,
25.6718750000,3,-18.4295501709,,,
25.6875000000,3,-16.5766696930,,,
25.7031250000,3,-14.9228296280,,,
25.7187500000,3,-13.4579296112,,,
25.7343750000,3,-12.1622495651,,,
25.7500000000,3,-11.0405998230,,,
25.7656250000,3,-10.0968599319,,,
25.7812500000,3,-9.3185710907,,,
25.7968750000,3,-8.6401863098,,,
25.8125000000,3,-7.9903340340,,,
25.8281250000,3,-7.3070549965,,,
25.8437500000,3,-6.5800299644,,,
25.8593750000,3,-5.8300361633,,,
25.8750000000,3,-5.1151051521,,,
25.8906250000,3,-4.4934329987,,,
25.9062500000,3,-3.9974329472,,,
25.9218750000,3,-3.6194930077,,,
25.9375000000,3,-3.3083019257,,,
25.9531250000,3,-3.0142478943,,,
25.9687500000,3,-2.6963789463,,,
25.9843750000,3,-2.3355059624,,,
26.0000000000,3,-1.9529910088,,,
26.0156250000,3,-1.5857770443,,,
26.0312500000,3,-1.2759690285,,,
26.0468750000,3,-1.0395150185,,,
26.0625000000,3,-0.8767604828,,,
26.0781250000,3,-0.7643833160,,,
26.0937500000,3,-0.6677513123,,,
26.1093750000,3,-0.5608788133,,,
26.1250000000,3,-0.4375782013,,,
26.1406250000,3,-0.3009319007,,,
26.1562500000,3,-0.1656513065,,,
26.1718750000,3,-0.0593929291,,,
26.1875000000,3,0.0126304599,,,
26.2031250000,3,0.0482616387,,,
26.2187500000,3,0.0608711205,,,
26.2343750000,3,0.0652160570,,,
26.2500000000,3,0.0715923309,,,
26.2656250000,3,0.0883560181,,,
26.2812500000,3,0.1132029966,,,
26.2968750000,3,0.1401748955,,,
26.3125000000,3,0.1587315053,,,
26.3281250000,3,0.1660556942,,,
26.3437500000,3,0.1596432030,,,
26.3593750000,3,0.1463547051,,,
26.3750000000,3,0.1303520054,,,
26.3906250000,3,0.1145382002,,,
26.4062500000,3,0.1049880981,,,
26.4218750000,3,0.0980396271,,,
26.4375000000,3,0.0939331129,,,
26.4531250000,3,0.0918044969,,,
26.4687500000,3,0.0901050568,,,
26.4843750000,3,0.0906104967,,,
26.5000000000,3,0.0888175964,,,
26.5156250000,3,0.0893211365,,,
26.5312500000,3,0.0896835327,,,
26.5468750000,3,0.0882892609,,,
26.5625000000,3,0.0888080597,,,
26.5781250000,3,0.0895404816,,,
26.5937500000,3,0.0900039673,,,
26.6093750000,3,0.0902729034,,,
26.6250000000,3,0.0890750885,,,
26.6406250000,3,0.0865955427,,,
26.6562500000,3,0.0867176130,,,
26.6718750000,3,0.0864543915,,,
26.6875000000,3,0.0846214294,,,
26.7031250000,3,0.0831546783,,,
26.7187500000,3,0.0842952728,,,
26.7343750000,3,0.0830707625,,,
26.7500000000,3,0.0821399689,,,
26.7656250000,3,0.0825500488,,,
26.7812500000,3,0.0830764771,,,
26.7968750000,3,0.0837612227,,,
26.8125000000,3,0.0837669373,,,
26.8281250000,3,0.0843486786,,,
26.8437500000,3,0.0848407671,,,
26.8593750000,3,0.0845222473,,,
26.8750000000,3,0.0825462267,,,
26.8906250000,3,0.0827846527,,,
26.9062500000,3,0.0827960968,,,
26.9218750000,3,0.0804557800,,,
26.9375000000,3,0.0815391466,,,
26.9531250000,3,0.0793571472,,,
26.9687500000,3,0.0793190002,,,
26.9843750000,3,0.0792102814,,,
27.0000000000,3,0.0764675066,,,
27.0156250000,3,0.0755252764,,,
27.0312500000,3,0.0772914886,,,
27.0468750000,3,0.0773239136,,,
27.0625000000,3,0.0764560699,,,
27.0781250000,3,0.0758819580,,,
27.0937500000,3,0.0782489777,,,
27.1093750000,3,0.0775089264,,,
27.1250000000,3,0.0791835785,,,
27.1406250000,3,0.0789279863,,,
27.1562500000,3,0.0783367231,,,
27.1718750000,3,0.0790596008,,,
27.1875000000,3,0.0785884932,,,
27.2031250000,3,0.0776214600,,,
27.2187500000,3,0.0748195574,,,
27.2343750000,3,0.0757293701,,,
27.2500000000,3,0.0752067566,,,
27.2656250000,3,0.0732555389,,,
27.2812500000,3,0.0735015869,,,
27.2968750000,3,0.0726528168,,,
27.3125000000,3,0.0712203979,,,
27.3281250000,3,0.0716552734,,,
27.3437500000,3,0.0719928667,,,
27.3593750000,3,0.0698871613,,,
27.3750000000,3,0.0725383833,,,
27.3906250000,3,0.0727748871,,,
27.4062500000,3,0.0715656281,,,
27.4218750000,3,0.0737133026,,,
27.4375000000,3,0.0725193024,,,
27.4531250000,3,0.0727310181,,,
27.4687500000,3,0.0720672607,,,
27.4843750000,3,0.0735817030,,,
27.5000000000,3,0.0731658936,,,
27.5156250000,3,0.0729236603,,,
27.5312500000,3,0.0719871521,,,
27.5468750000,3,0.0695381165,,,
27.5625000000,3,0.0695075989,,,
27.5781250000,3,0.0694198608,,,
27.5937500000,3,0.0682582930,,,
27.6093750000,3,0.0688400269,,,
27.6250000000,3,0.0665702820,,,
27.6406250000,3,0.0668659210,,,
27.6562500000,3,0.0674934387,,,
27.6718750000,3,0.0668392181,,,
27.6875000000,3,0.0655460432,,,
27.7031250000,3,0.0660934374,,,
27.7187500000,3,0.0641918182,,,
27.7343750000,3,0.0655441284,,,
27.7500000000,3,0.0667610168,,,
27.7656250000,3,0.0660114288,,,
27.7812500000,3,0.0669746399,,,
27.7968750000,3,0.0664863586,,,
27.8125000000,3,0.0669994429,,,
27.8281250000,3,0.0677795410,,,
27.8437500000,3,0.0682544708,,,
27.8593750000,3,0.0679397583,,,
27.8750000000,3,0.0664253235,,,
27.8906250000,3,0.0671520233,,,
27.9062500000,3,0.0659236908,,,
27.9218750000,3,0.0650425032,,,
27.9375000000,3,0.0644283295,,,
27.9531250000,3,0.0635948181,,,
27.9687500000,3,0.0624485016,,,
27.9843750000,3,0.0617771111,,,
28.0000000000,3,0.0620470010,,,
28.0156250000,3,0.0610275306,,,
28.0312500000,3,0.0601482391,,,
28.0468750000,3,0.0589084588,,,
28.0625000000,3,0.0614366494,,,
28.0781250000,3,0.0597629510,,,
28.0937500000,3,0.0594148599,,,
28.1093750000,3,0.0591449700,,,
28.1250000000,3,0.0602169000,,,
28.1406250000,3,0.0595397912,,,
28.1562500000,3,0.0594215393,,,
28.1718750000,3,0.0612497292,,,
28.1875000000,3,0.0614585914,,,
28.2031250000,3,0.0604724884,,,
28.2187500000,3,0.0626411363,,,
28.2343750000,3,0.0627088472,,,
28.2500000000,3,0.0631818771,,,
28.2656250000,3,0.0611715317,,,
28.2812500000,3,0.0594873391,,,
28.2968750000,3,0.0606794395,,,
28.3125000000,3,0.0597982407,,,
28.3281250000,3,0.0589942895,,,
28.3437500000,3,0.0583219491,,,
28.3593750000,3,0.0574684106,,,
28.3750000000,3,0.0568990707,,,
28.3906250000,3,0.0560445786,,,
28.4062500000,3,0.0568141900,,,
28.4218750000,3,0.0554962195,,,
28.4375000000,3,0.0560112000,,,
28.4531250000,3,0.0562305488,,,
28.4687500000,3,0.0548429489,,,
28.4843750000,3,0.0554170609,,,
28.5000000000,3,0.0549058914,,,
28.5156250000,3,0.0550966300,,,
28.5312500000,3,0.0542564392,,,
28.5468750000,3,0.0537376404,,,
28.5625000000,3,0.0554399490,,,
28.5781250000,3,0.0554799996,,,
28.5937500000,3,0.0542078018,,,
28.6093750000,3,0.0552005805,,,
28.6250000000,3,0.0569543801,,,
28.6406250000,3,0.0558538400,,,
28.6562500000,3,0.0589609109,,,
28.6718750000,3,0.0575294495,,,
28.6875000000,3,0.0556135215,,,
28.7031250000,3,0.0555887185,,,
28.7187500000,3,0.0572967492,,,
28.7343750000,3,0.0625896528,,,
28.7500000000,3,0.0749931335,,,
28.7656250000,3,0.0944137573,,,
28.7812500000,3,0.1216936037,,,
28.7968750000,3,0.1519889981,,,
28.8125000000,3,0.1805610955,,,
28.8281250000,3,0.2103243023,,,
28.8437500000,3,0.2388401031,,,
28.8593750000,3,0.2697544098,,,
28.8750000000,3,0.3024978936,,,
28.8906250000,3,0.3395414054,,,
28.9062500000,3,0.3827809989,,,
28.9218750000,3,0.4289360046,,,
28.9375000000,3,0.4763602912,,,
28.9531250000,3,0.5207061768,,,
28.9687500000,3,0.5639296174,,,
28.9843750000,3,0.6056336761,,,
29.0000000000,3,0.6589403152,,,
29.0156250000,3,0.7214899063,,,
29.0312500000,3,0.7988110185,,,
29.0468750000,3,0.8852787018,,,
29.0625000000,3,0.9712830186,,,
29.0781250000,3,1.0385839939,,,
29.0937500000,3,1.0800900459,,,
29.1093750000,3,1.0899679661,,,
29.1250000000,3,1.0842369795,,,
29.1406250000,3,1.0873010159,,,
29.1562500000,3,1.1253060102,,,
29.1718750000,3,1.2140469551,,,
29.1875000000,3,1.3597680330,,,
29.2031250000,3,1.5463949442,,,
29.2187500000,3,1.7418580055,,,
29.2343750000,3,1.9244719744,,,
29.2500000000,3,2.0824029446,,,
29.2656250000,3,2.2344079018,,,
29.2812500000,3,2.4093921185,,,
29.2968750000,3,2.6546049118,,,
29.3125000000,3,2.9928519726,,,
29.3281250000,3,3.4208140373,,,
29.3437500000,3,3.8985199928,,,
29.3593750000,3,4.3676919937,,,
29.3750000000,3,4.7798981667,,,
29.3906250000,3,5.1208529472,,,
29.4062500000,3,5.4247422218,,,
29.4218750000,3,5.7573618889,,,
29.4375000000,3,6.1990408897,,,
29.4531250000,3,6.7857527733,,,
29.4687500000,3,7.5072989464,,,
29.4843750000,3,8.2747612000,,,
29.5000000000,3,8.9931583405,,,
29.5156250000,3,9.5699081421,,,
29.5312500000,3,9.9935016632,,,
29.5468750000,3,10.3274602890,,,
29.5625000000,3,10.6721000671,,,
29.5781250000,3,11.1430902481,,,
29.5937500000,3,11.7918500900,,,
29.6093750000,3,12.6174297333,,,
29.6250000000,3,13.5293102264,,,
29.6406250000,3,14.4011201859,,,
29.6562500000,3,15.0498800278,,,
29.6718750000,3,15.2733697891,,,
29.6875000000,3,14.8605003357,,,
29.7031250000,3,13.6523799896,,,
29.7187500000,3,11.5618000031,,,
29.7343750000,3,8.6146678925,,,
29.7500000000,3,4.9083309174,,,
29.7656250000,3,0.5622119904,,,
29.7812500000,3,-4.3112950325,,,
29.7968750000,3,-9.5982837677,,,
29.8125000000,3,-15.1430997849,,,
29.8281250000,3,-20.6846408844,,,
29.8437500000,3,-25.8737106323,,,
29.8593750000,3,-30.3823890686,,,
29.8750000000,3,-33.9976882935,,,
29.8906250000,3,-36.7610702515,,,
29.9062500000,3,-38.9497108459,,,
29.9218750000,3,-41.0130805969,,,
29.9375000000,3,-43.4531593323,,,
29.9531250000,3,-46.6612205505,,,
29.9687500000,3,-50.7105789185,,,
29.9843750000,3,-55.2478485107,,,
30.0000000000,3,-59.3861503601,,,
30.0156250000,3,-61.8335990906,,,
30.0312500000,3,-61.1834793091,,,
30.0468750000,3,-56.3531494141,,,
30.0625000000,3,-46.9839897156,,,
30.0781250000,3,-33.6399192810,,,
30.0937500000,3,-17.7213191986,,,
30.1093750000,3,-1.0174770355,,,
30.1250000000,3,14.7577295303,,,
30.1406250000,3,28.3731002808,,,
30.1562500000,3,39.1631889343,,,
30.1718750000,3,46.9996299744,,,
30.1875000000,3,52.0100593567,,,
30.2031250000,3,54.4605216980,,,
30.2187500000,3,54.6655883789,,,
30.2343750000,3,53.0052185059,,,
30.2500000000,3,49.9394302368,,,
30.2656250000,3,46.0187301636,,,
30.2812500000,3,41.7554016113,,,
30.2968750000,3,37.5757293701,,,
30.3125000000,3,33.7597389221,,,
30.3281250000,3,30.4387493134,,,
30.3437500000,3,27.6725196838,,,
30.3593750000,3,25.4513092041,,,
30.3750000000,3,23.8082904816,,,
30.3906250000,3,22.7537193298,,,
30.4062500000,3,22.2744808197,,,
30.4218750000,3,22.2870407104,,,
30.4375000000,3,22.5781593323,,,
30.4531250000,3,22.7782897949,,,
30.4687500000,3,22.4496994019,,,
30.4843750000,3,21.2098808289,,,
30.5000000000,3,18.8533306122,,,
30.5156250000,3,15.4605598450,,,
30.5312500000,3,-25.1114902496,,,
30.5468750000,3,-29.7332191467,,,
30.5625000000,3,-34.1842689514,,,
30.5781250000,3,-38.1413497925,,,
30.5937500000,3,-41.3975105286,,,
30.6093750000,3,-43.9432487488,,,
30.6250000000,3,-46.0072593689,,,
30.6406250000,3,-48.0097503662,,,
30.6562500000,3,-50.4078292847,,,
30.6718750000,3,-53.5156402588,,,
30.6875000000,3,-57.2896690369,,,
30.7031250000,3,-61.1616897583,,,
30.7187500000,3,-64.0692062378,,,
30.7343750000,3,-64.6583404541,,,
30.7500000000,3,-61.6098709106,,,
30.7656250000,3,-54.1439399719,,,
30.7812500000,3,-42.3137512207,,,
30.7968750000,3,-27.0654792786,,,
30.8125000000,3,-10.0338401794,,,
30.8281250000,3,6.8780860901,,,
30.8437500000,3,22.0511207581,,,
30.8593750000,3,34.4117393494,,,
30.8750000000,3,43.5894317627,,,
30.8906250000,3,49.7182083130,,,
30.9062500000,3,53.1983909607,,,
30.9218750000,3,54.4609298706,,,
30.9375000000,3,53.8774909973,,,
30.9531250000,3,51.7784309387,,,
30.9687500000,3,48.5237617493,,,
30.9843750000,3,44.5947189331,,,
31.0000000000,3,40.5013504028,,,
31.0156250000,3,36.7390098572,,,
31.0312500000,3,33.6591300964,,,
31.0468750000,3,31.3913497925,,,
31.0625000000,3,29.8719501495,,,
31.0781250000,3,28.8944892883,,,
31.0937500000,3,28.2093696594,,,
31.1093750000,3,27.6250705719,,,
31.1250000000,3,27.0595607758,,,
31.1406250000,3,26.4998703003,,,
31.1562500000,3,25.9426403046,,,
31.1718750000,3,25.3441791534,,,
31.1875000000,3,24.5581798553,,,
31.2031250000,3,23.3698806763,,,
31.2187500000,3,21.5808200836,,,
31.2343750000,3,19.0647907257,,,
31.2500000000,3,15.8953104019,,,
31.2656250000,3,12.2455596924,,,
31.2812500000,3,8.3639755249,,,
31.2968750000,3,4.4403610229,,,
31.3125000000,3,0.5761528015,,,
31.3281250000,3,-3.2314569950,,,
31.3437500000,3,-7.0042948723,,,
31.3593750000,3,-10.7825098038,,,
31.3750000000,3,-14.5867395401,,,
31.3906250000,3,-18.4529304504,,,
31.4062500000,3,-22.3883991241,,,
31.4218750000,3,-26.3694705963,,,
31.4375000000,3,-30.2966098785,,,
31.4531250000,3,-33.9990310669,,,
31.4687500000,3,-37.3137397766,,,
31.4843750000,3,-40.1370201111,,,
31.5000000000,3,-42.5227699280,,,
31.5156250000,3,-44.6392211914,,,
31.5312500000,3,-46.7781295776,,,
31.5468750000,3,-49.2561492920,,,
31.5625000000,3,-52.3405303955,,,
31.5781250000,3,-56.0823097229,,,
31.5937500000,3,-60.1704101563,,,
31.6093750000,3,-63.8242912292,,,
31.6250000000,3,-65.8554992676,,,
31.6406250000,3,-64.9342727661,,,
31.6562500000,3,-59.9673194885,,,
31.6718750000,3,-50.5461311340,,,
31.6875000000,3,-37.1186790466,,,
31.7031250000,3,-20.9367599487,,,
31.7187500000,3,-3.6937069893,,,
31.7343750000,3,12.8857898712,,,
31.7500000000,3,27.4585895538,,,
31.7656250000,3,39.2146911621,,,
31.7812500000,3,47.8142814636,,,
31.7968750000,3,53.3180694580,,,
31.8125000000,3,56.0148086548,,,
31.8281250000,3,56.3083000183,,,
31.8437500000,3,54.6560516357,,,
31.8593750000,3,51.5481681824,,,
31.8750000000,3,47.4710693359,,,
31.8906250000,3,42.9283905029,,,
31.9062500000,3,38.4552917480,,,
31.9218750000,3,34.5147399902,,,
31.9375000000,3,31.4561996460,,,
31.9531250000,3,29.4036407471,,,
31.9687500000,3,28.2527294159,,,
31.9843750000,3,27.7247390747,,,
32.0000000000,4,27.4993801117,,,
32.0156250000,4,27.3400707245,,,
32.0312500000,4,27.1369800568,,,
32.0468750000,4,26.9041595459,,,
32.0625000000,4,26.6235294342,,,
32.0781250000,4,26.2261600494,,,
32.0937500000,4,25.5091590881,,,
32.1093750000,4,24.2217998505,,,
32.1250000000,4,22.1702804565,,,
32.1406250000,4,19.2723197937,,,
32.1562500000,4,15.6242599487,,,
32.1718750000,4,11.4380702972,,,
32.1875000000,4,7.0180630684,,,
32.2031250000,4,2.6631660461,,,
32.2187500000,4,-1.3499369621,,,
32.2343750000,4,-4.8302001953,,,
32.2500000000,4,-7.7267718315,,,
32.2656250000,4,-10.1037902832,,,
32.2812500000,4,-12.2007999420,,,
32.2968750000,4,-14.3699903488,,,
32.3125000000,4,-16.9690093994,,,
32.3281250000,4,-20.2178993225,,,
32.3437500000,4,-24.0937995911,,,
32.3593750000,4,-28.3011493683,,,
32.3750000000,4,-32.3437614441,,,
32.3906250000,4,-35.8035697937,,,
32.4062500000,4,-38.4582099915,,,
32.4218750000,4,-40.4174499512,,,
32.4375000000,4,-42.0590591431,,,
32.4531250000,4,-43.8911399841,,,
32.4687500000,4,-46.3609085083,,,
32.4843750000,4,-49.6988182068,,,
32.5000000000,4,-53.7867813110,,,
32.5156250000,4,-58.0545616150,,,
32.5312500000,4,-61.5406684875,,,
32.5468750000,4,-62.9741401672,,,
32.5625000000,4,-61.1246109009,,,
32.5781250000,4,-55.1214714050,,,
32.5937500000,4,-44.8348999023,,,
32.6093750000,4,-30.9850997925,,,
32.6250000000,4,-14.9617204666,,,
32.6406250000,4,1.5330580473,,,
32.6562500000,4,16.9217796326,,,
32.6718750000,4,30.0176391602,,,
32.6875000000,4,40.1882591248,,,
32.7031250000,4,47.2455711365,,,
32.7187500000,4,51.3389091492,,,
32.7343750000,4,52.7909812927,,,
32.7500000000,4,52.0365600586,,,
32.7656250000,4,49.5727081299,,,
32.7812500000,4,45.9212303162,,,
32.7968750000,4,41.5964813232,,,
32.8125000000,4,37.0622787476,,,
32.8281250000,4,32.7286796570,,,
32.8437500000,4,28.8604507446,,,
32.8593750000,4,25.6210193634,,,
32.8750000000,4,23.0598602295,,,
32.8906250000,4,21.1674194336,,,
32.9062500000,4,19.9160995483,,,
32.9218750000,4,19.2676696777,,,
32.9375000000,4,19.1511306763,,,
32.9531250000,4,19.3986301422,,,
32.9687500000,4,19.7496204376,,,
32.9843750000,4,19.8358001709,,,
33.0000000000,4,19.3021297455,,,
33.0156250000,4,17.9152908325,,,
33.0312500000,4,15.6420202255,,,
33.0468750000,4,12.6427001953,,,
33.0625000000,4,9.1644096375,,,
33.0781250000,4,5.4306597710,,,
33.0937500000,4,1.5782170296,,,
33.1093750000,4,-2.3593289852,,,
33.1250000000,4,-6.4408111572,,,
33.1406250000,4,-10.7083702087,,,
33.1562500000,4,-15.1471099854,,,
33.1718750000,4,-19.6366405487,,,
33.1875000000,4,-23.9706802368,,,
33.2031250000,4,-27.9232692719,,,
33.2187500000,4,-31.3352909088,,,
33.2343750000,4,-34.1832199097,,,
33.2500000000,4,-36.5693206787,,,
33.2656250000,4,-38.7658081055,,,
33.2812500000,4,-41.0990295410,,,
33.2968750000,4,-43.8380508423,,,
33.3125000000,4,-46.9836311340,,,
33.3281250000,4,-50.0886192322,,,
33.3437500000,4,-52.2747001648,,,
33.3593750000,4,-52.3862495422,,,
33.3750000000,4,-49.3238601685,,,
33.3906250000,4,-42.4611396790,,,
33.4062500000,4,-31.9280109406,,,
33.4218750000,4,-18.6506805420,,,
33.4375000000,4,-4.0951461792,,,
33.4531250000,4,10.1484699249,,,
33.4687500000,4,22.7571601868,,,
33.4843750000,4,32.9503402710,,,
33.5000000000,4,40.4584693909,,,
33.5156250000,4,45.3687210083,,,
33.5312500000,4,47.8946418762,,,
33.5468750000,4,48.2644691467,,,
33.5625000000,4,46.6970405579,,,
33.5781250000,4,43.4790992737,,,
33.5937500000,4,39.0622711182,,,
33.6093750000,4,34.0589485168,,,
33.6250000000,4,29.1307106018,,,
33.6406250000,4,24.8498191833,,,
33.6562500000,4,21.5398406982,,,
33.6718750000,4,19.2602500916,,,
33.6875000000,4,17.8316802979,,,
33.7031250000,4,17.0100593567,,,
33.7187500000,4,16.5674896240,,,
33.7343750000,4,16.3328990936,,,
33.7500000000,4,16.1587295532,,,
33.7656250000,4,15.8728199005,,,
33.7812500000,4,15.2951602936,,,
33.7968750000,4,14.2574901581,,,
33.8125000000,4,12.6898298264,,,
33.8281250000,4,10.5671701431,,,
33.8437500000,4,7.9489398003,,,
33.8593750000,4,4.8709559441,,,
33.8750000000,4,1.3422659636,,,
33.8906250000,4,-2.6332659721,,,
33.9062500000,4,-7.0250468254,,,
33.9218750000,4,-11.7127304077,,,
33.9375000000,4,-16.5336799622,,,
33.9531250000,4,-21.2931900024,,,
33.9687500000,4,-25.8314208984,,,
33.9843750000,4,-30.0601406097,,,
34.0000000000,4,-33.9562797546,,,
34.0156250000,4,-37.5725402832,,,
34.0312500000,4,-41.0201110840,,,
34.0468750000,4,-44.4664993286,,,
34.0625000000,4,-48.0568008423,,,
34.0781250000,4,-51.9006500244,,,
34.0937500000,4,-55.8467712402,,,
34.1093750000,4,-59.3574218750,,,
34.1250000000,4,-61.5268096924,,,
34.1406250000,4,-61.2180404663,,,
34.1562500000,4,-57.4187202454,,,
34.1718750000,4,-49.6061515808,,,
34.1875000000,4,-38.0447387695,,,
34.2031250000,4,-23.7394409180,,,
34.2187500000,4,-8.2252674103,,,
34.2343750000,4,6.8960509300,,,
34.2500000000,4,20.3565597534,,,
34.2656250000,4,31.3836307526,,,
34.2812500000,4,39.7010993958,,,
34.2968750000,4,45.3618507385,,,
34.3125000000,4,48.5671005249,,,
34.3281250000,4,49.5594902039,,,
34.3437500000,4,48.6494789124,,,
34.3593750000,4,46.1799888611,,,
34.3750000000,4,42.6046905518,,,
34.3906250000,4,38.4296607971,,,
34.4062500000,4,34.1327285767,,,
34.4218750000,4,30.1577205658,,,
34.4375000000,4,26.8491001129,,,
34.4531250000,4,24.3790893555,,,
34.4687500000,4,22.7412300110,,,
34.4843750000,4,21.7745304108,,,
34.5000000000,4,21.1885604858,,,
34.5156250000,4,20.7193698883,,,
34.5312500000,4,20.1602191925,,,
34.5468750000,4,19.3939399719,,,
34.5625000000,4,18.3660507202,,,
34.5781250000,4,17.0389308929,,,
34.5937500000,4,15.3122797012,,,
34.6093750000,4,13.0926704407,,,
34.6250000000,4,10.2887401581,,,
34.6406250000,4,6.8488998413,,,
34.6562500000,4,2.8321499825,,,
34.6718750000,4,-1.6482549906,,,
34.6875000000,4,-6.4297528267,,,
34.7031250000,4,-11.3226699829,,,
34.7187500000,4,-16.1469802856,,,
34.7343750000,4,-20.7621307373,,,
34.7500000000,4,-25.0366191864,,,
34.7656250000,4,-28.9365901947,,,
34.7812500000,4,-32.4764289856,,,
34.7968750000,4,-35.7618103027,,,
34.8125000000,4,-38.9747390747,,,
34.8281250000,4,-42.3474807739,,,
34.8437500000,4,-46.0801086426,,,
34.8593750000,4,-50.1991691589,,,
34.8750000000,4,-54.3640899658,,,
34.8906250000,4,-57.7588195801,,,
34.9062500000,4,-59.2112808228,,,
34.9218750000,4,-57.5105209351,,,
34.9375000000,4,-51.7894210815,,,
34.9531250000,4,-41.9468383789,,,
34.9687500000,4,-28.7048492432,,,
34.9843750000,4,-13.4226903915,,,
35.0000000000,4,2.2559220791,,,
35.0156250000,4,16.8710803986,,,
35.0312500000,4,29.3750591278,,,
35.0468750000,4,39.2056617737,,,
35.0625000000,4,46.1729316711,,,
35.0781250000,4,50.3250083923,,,
35.0937500000,4,51.8435096741,,,
35.1093750000,4,51.0334510803,,,
35.1250000000,4,48.3306617737,,,
35.1406250000,4,44.2778396606,,,
35.1562500000,4,39.4981384277,,,
35.1718750000,4,34.6161003113,,,
35.1875000000,4,30.1571197510,,,
35.2031250000,4,26.5337104797,,,
35.2187500000,4,23.9566993713,,,
35.2343750000,4,22.4607696533,,,
35.2500000000,4,21.9099006653,,,
35.2656250000,4,22.0048007965,,,
35.2812500000,4,22.3798999786,,,
35.2968750000,4,22.6578407288,,,
35.3125000000,4,22.4963397980,,,
35.3281250000,4,21.6369209290,,,
35.3437500000,4,19.9969501495,,,
35.3593750000,4,17.6221504211,,,
35.3750000000,4,14.6794996262,,,
35.3906250000,4,11.4042596817,,,
35.4062500000,4,7.9782109261,,,
35.4218750000,4,4.4649629593,,,
35.4375000000,4,0.8341683745,,,
35.4531250000,4,-3.0222480297,,,
35.4687500000,4,-7.1919708252,,,
35.4843750000,4,-11.6151695251,,,
35.5000000000,4,-16.1393795013,,,
35.5156250000,4,-20.4927101135,,,
35.5312500000,4,-24.4308891296,,,
35.5468750000,4,-27.7794208527,,,
35.5625000000,4,-30.5664291382,,,
35.5781250000,4,-32.9653282166,,,
35.5937500000,4,-35.2687301636,,,
35.6093750000,4,-37.7989883423,,,
35.6250000000,4,-40.7822685242,,,
35.6406250000,4,-44.2195587158,,,
35.6562500000,4,-47.6766395569,,,
35.6718750000,4,-50.2940788269,,,
35.6875000000,4,-50.8678398132,,,
35.7031250000,4,-48.2568588257,,,
35.7187500000,4,-41.7586593628,,,
35.7343750000,4,-31.4643096924,,,
35.7500000000,4,-18.2655792236,,,
35.7656250000,4,-3.6317329407,,,
35.7812500000,4,10.8380403519,,,
35.7968750000,4,23.7994995117,,,
35.8125000000,4,34.4117507935,,,
35.8281250000,4,42.3011207581,,,
35.8437500000,4,47.4361915588,,,
35.8593750000,4,49.9599304199,,,
35.8750000000,4,50.0931396484,,,
35.8906250000,4,48.1299705505,,,
35.9062500000,4,44.5196685791,,,
35.9218750000,4,39.8351593018,,,
35.9375000000,4,34.7342605591,,,
35.9531250000,4,29.8437099457,,,
35.9687500000,4,25.6624794006,,,
35.9843750000,4,22.4527606964,,,
36.0000000000,4,20.2617092133,,,
36.0156250000,4,18.9146099091,,,
36.0312500000,4,18.1119098663,,,
36.0468750000,4,17.5492401123,,,
36.0625000000,4,16.9744091034,,,
36.0781250000,4,16.2703895569,,,
36.0937500000,4,15.3822603226,,,
36.1093750000,4,14.2778100967,,,
36.1250000000,4,12.8860397339,,,
36.1406250000,4,11.0859203339,,,
36.1562500000,4,8.7424812317,,,
36.1718750000,4,5.7339768410,,,
36.1875000000,4,2.0120201111,,,
36.2031250000,4,-2.3672358990,,,
36.2187500000,4,-7.2240009308,,,
36.2343750000,4,-12.3037996292,,,
36.2500000000,4,-17.3030605316,,,
36.2656250000,4,-21.9426193237,,,
36.2812500000,4,-26.0189304352,,,
36.2968750000,4,-29.4748096466,,,
36.3125000000,4,-32.4024887085,,,
36.3281250000,4,-35.0845603943,,,
36.3437500000,4,-37.8936195374,,,
36.3593750000,4,-41.1912002563,,,
36.3750000000,4,-45.1060600281,,,
36.3906250000,4,-49.3726387024,,,
36.4062500000,4,-53.2270088196,,,
36.4218750000,4,-55.5374488831,,,
36.4375000000,4,-55.1039810181,,,
36.4531250000,4,-51.0213699341,,,
36.4687500000,4,-43.0183906555,,,
36.4843750000,4,-31.5881690979,,,
36.5000000000,4,-17.8612594604,,,
36.5156250000,4,-3.2898449898,,,
36.5312500000,4,10.7150402069,,,
36.5468750000,4,23.0351696014,,,
36.5625000000,4,32.9662284851,,,
36.5781250000,4,40.2116508484,,,
36.5937500000,4,44.7705802917,,,
36.6093750000,4,46.8757896423,,,
36.6250000000,4,46.8909988403,,,
36.6406250000,4,45.2660789490,,,
36.6562500000,4,42.5044403076,,,
36.6718750000,4,39.1274299622,,,
36.6875000000,4,35.5783996582,,,
36.7031250000,4,32.2399406433,,,
36.7187500000,4,29.3936595917,,,
36.7343750000,4,27.1865196228,,,
36.7500000000,4,25.6296596527,,,
36.7656250000,4,24.6084899902,,,
36.7812500000,4,23.9097099304,,,
36.7968750000,4,23.2595195770,,,
36.8125000000,4,22.4525794983,,,
36.8281250000,4,21.3046703339,,,
36.8437500000,4,19.7604198456,,,
36.8593750000,4,17.8609905243,,,
36.8750000000,4,15.6999197006,,,
36.8906250000,4,13.3591098785,,,
36.9062500000,4,10.8478298187,,,
36.9218750000,4,8.0801897049,,,
36.9375000000,4,4.8927459717,,,
36.9531250000,4,1.1556090117,,,
36.9687500000,4,-3.1873469353,,,
36.9843750000,4,-8.0270586014,,,
37.0000000000,4,-13.1039495468,,,
37.0156250000,4,-18.1021003723,,,
37.0312500000,4,-22.7090492249,,,
37.0468750000,4,-26.7049407959,,,
37.0625000000,4,-30.0776405334,,,
37.0781250000,4,-32.9472312927,,,
37.0937500000,4,-35.5626907349,,,
37.1093750000,4,-38.2145309448,,,
37.1250000000,4,-41.1644096375,,,
37.1406250000,4,-44.5341987610,,,
37.1562500000,4,-48.2337303162,,,
37.1718750000,4,-51.8128395081,,,
37.1875000000,4,-54.4034385681,,,
37.2031250000,4,-54.8971290588,,,
37.2187500000,4,-52.1921882629,,,
37.2343750000,4,-45.6093597412,,,
37.2500000000,4,-35.2195014954,,,
37.2656250000,4,-21.9435806274,,,
37.2812500000,4,-7.2967848778,,,
37.2968750000,4,7.0280838013,,,
37.3125000000,4,19.6584091187,,,
37.3281250000,4,29.8580608368,,,
37.3437500000,4,37.4772911072,,,
37.3593750000,4,42.7023391724,,,
37.3750000000,4,45.8204193115,,,
37.3906250000,4,47.0169105530,,,
37.4062500000,4,46.4433403015,,,
37.4218750000,4,44.3385505676,,,
37.4375000000,4,41.1276092529,,,
37.4531250000,4,37.3813285828,,,
37.4687500000,4,33.6822586060,,,
37.4843750000,4,30.4244098663,,,
37.5000000000,4,27.7598590851,,,
37.5156250000,4,25.6341094971,,,
37.5312500000,4,23.8771991730,,,
37.5468750000,4,22.3920707703,,,
37.5625000000,4,21.1452503204,,,
37.5781250000,4,-1.4377139807,,,
37.5937500000,4,-4.8162689209,,,
37.6093750000,4,-8.5001525879,,,
37.6250000000,4,-12.3636903763,,,
37.6406250000,4,-16.1988105774,,,
37.6562500000,4,-19.8092994690,,,
37.6718750000,4,-23.0877494812,,,
37.6875000000,4,-26.0092792511,,,
37.7031250000,4,-28.5970897675,,,
37.7187500000,4,-30.9389896393,,,
37.7343750000,4,-33.1735191345,,,
37.7500000000,4,-35.4948005676,,,
37.7656250000,4,-38.1138610840,,,
37.7812500000,4,-41.0495796204,,,
37.7968750000,4,-43.9945487976,,,
37.8125000000,4,-46.2443809509,,,
37.8281250000,4,-46.8074989319,,,
37.8437500000,4,-44.7172393799,,,
37.8593750000,4,-39.4507408142,,,
37.8750000000,4,-31.1289691925,,,
37.8906250000,4,-20.5035705566,,,
37.9062500000,4,-8.7290649414,,,
37.9218750000,4,3.0257639885,,,
37.9375000000,4,13.8369998932,,,
37.9531250000,4,23.1025390625,,,
37.9687500000,4,30.5206794739,,,
37.9843750000,4,35.9650382996,,,
38.0000000000,4,39.3611297607,,,
38.0156250000,4,40.7255592346,,,
38.0312500000,4,40.2057113647,,,
38.0468750000,4,38.1163597107,,,
38.0625000000,4,34.9141883850,,,
38.0781250000,4,31.1756706238,,,
38.0937500000,4,27.4429893494,,,
38.1093750000,4,24.1460704803,,,
38.1250000000,4,21.5195407867,,,
38.1406250000,4,19.5905704498,,,
38.1562500000,4,18.2276191711,,,
38.1718750000,4,17.2880897522,,,
38.1875000000,4,16.6552391052,,,
38.2031250000,4,16.2649898529,,,
38.2187500000,4,16.1277008057,,,
38.2343750000,4,16.1485595703,,,
38.2500000000,4,16.1445503235,,,
38.2656250000,4,15.7989797592,,,
38.2812500000,4,14.7981395721,,,
38.2968750000,4,12.9117803574,,,
38.3125000000,4,10.1442298889,,,
38.3281250000,4,6.7289958000,,,
38.3437500000,4,3.0378880501,,,
38.3593750000,4,-0.5507659912,,,
38.3750000000,4,-3.8073499203,,,
38.3906250000,4,-6.7298889160,,,
38.4062500000,4,-9.5599670410,,,
38.4218750000,4,-12.6155900955,,,
38.4375000000,4,-16.1299991608,,,
38.4531250000,4,-20.1112403870,,,
38.4687500000,4,-24.2947502136,,,
38.4843750000,4,-28.2601795197,,,
38.5000000000,4,-31.6455192566,,,
38.5156250000,4,-34.3003082275,,,
38.5312500000,4,-36.3311004639,,,
38.5468750000,4,-38.0309715271,,,
38.5625000000,4,-39.7788391113,,,
38.5781250000,4,-41.9073791504,,,
38.5937500000,4,-44.6430015564,,,
38.6093750000,4,-48.0591583252,,,
38.6250000000,4,-51.9383010864,,,
38.6406250000,4,-55.6927413940,,,
38.6562500000,4,-58.3441390991,,,
38.6718750000,4,-58.7328186035,,,
38.6875000000,4,-55.8078117371,,,
38.7031250000,4,-49.0798416138,,,
38.7187500000,4,-38.7842102051,,,
38.7343750000,4,-25.8844699860,,,
38.7500000000,4,-11.7792997360,,,
38.7656250000,4,2.1071469784,,,
38.7812500000,4,14.6440200806,,,
38.7968750000,4,25.1164608002,,,
38.8125000000,4,33.2141189575,,,
38.8281250000,4,38.9027900696,,,
38.8437500000,4,42.3218498230,,,
38.8593750000,4,43.7144889832,,,
38.8750000000,4,43.4161491394,,,
38.8906250000,4,41.8065605164,,,
38.9062500000,4,39.3559303284,,,
38.9218750000,4,36.5361099243,,,
38.9375000000,4,33.7844200134,,,
38.9531250000,4,31.4447593689,,,
38.9687500000,4,29.6932907104,,,
38.9843750000,4,28.5309505463,,,
39.0000000000,4,27.8431491852,,,
39.0156250000,4,27.4360008240,,,
39.0312500000,4,27.1430206299,,,
39.0468750000,4,26.8924198151,,,
39.0625000000,4,26.5988006592,,,
39.0781250000,4,26.1541404724,,,
39.0937500000,4,25.4429397583,,,
39.1093750000,4,24.3312492371,,,
39.1250000000,4,22.7735404968,,,
39.1406250000,4,20.8699302673,,,
39.1562500000,4,18.7766399384,,,
39.1718750000,4,16.6073894501,,,
39.1875000000,4,14.3646602631,,,
39.2031250000,4,11.8670997620,,,
39.2187500000,4,8.9085006714,,,
39.2343750000,4,5.3908228874,,,
39.2500000000,4,1.4180599451,,,
39.2656250000,4,-2.7014539242,,,
39.2812500000,4,-6.5819091797,,,
39.2968750000,4,-9.9544754028,,,
39.3125000000,4,-12.7754898071,,,
39.3281250000,4,-15.2012395859,,,
39.3437500000,4,-17.5250892639,,,
39.3593750000,4,-20.0218505859,,,
39.3750000000,4,-22.8364791870,,,
39.3906250000,4,-25.9902706146,,,
39.4062500000,4,-29.3720397949,,,
39.4218750000,4,-32.7821502686,,,
39.4375000000,4,-36.0370216370,,,
39.4531250000,4,-39.0076408386,,,
39.4687500000,4,-41.6462402344,,,
39.4843750000,4,-44.0709495544,,,
39.5000000000,4,-46.4888114929,,,
39.5156250000,4,-49.1564903259,,,
39.5312500000,4,-52.2702407837,,,
39.5468750000,4,-55.7735481262,,,
39.5625000000,4,-59.2625083923,,,
39.5781250000,4,-61.9822387695,,,
39.5937500000,4,-62.9131011963,,,
39.6093750000,4,-61.0248908997,,,
39.6250000000,4,-55.6209297180,,,
39.6406250000,4,-46.5565109253,,,
39.6562500000,4,-34.3558197021,,,
39.6718750000,4,-20.1208591461,,,
39.6875000000,4,-5.2433009148,,,
39.7031250000,4,8.9487228394,,,
39.7187500000,4,21.4416007996,,,
39.7343750000,4,31.6290702820,,,
39.7500000000,4,39.3117294312,,,
39.7656250000,4,44.5219688416,,,
39.7812500000,4,47.4418182373,,,
39.7968750000,4,48.3158302307,,,
39.8125000000,4,47.4813308716,,,
39.8281250000,4,45.3836784363,,,
39.8437500000,4,42.5427589417,,,
39.8593750000,4,39.4445304871,,,
39.8750000000,4,36.4608306885,,,
39.8906250000,4,33.7832908630,,,
39.9062500000,4,31.4533290863,,,
39.9218750000,4,29.4836692810,,,
39.9375000000,4,27.9048805237,,,
39.9531250000,4,26.8262100220,,,
39.9687500000,4,26.3407402039,,,
39.9843750000,4,26.4498500824,,,
40.0000000000,5,26.9566307068,,,
40.0156250000,5,27.5285797119,,,
40.0312500000,5,27.7796192169,,,
40.0468750000,5,27.4077491760,,,
40.0625000000,5,26.3151702881,,,
40.0781250000,5,24.5492000580,,,
40.0937500000,5,22.2653102875,,,
40.1093750000,5,19.5797004700,,,
40.1250000000,5,16.5935306549,,,
40.1406250000,5,13.3716201782,,,
40.1562500000,5,10.0131502151,,,
40.1718750000,5,6.6841659546,,,
40.1875000000,5,3.5316309929,,,
40.2031250000,5,0.6269072890,,,
40.2187500000,5,-2.0891110897,,,
40.2343750000,5,-4.7921071053,,,
40.2500000000,5,-7.6776118279,,,
40.2656250000,5,-10.8531703949,,,
40.2812500000,5,-14.3059797287,,,
40.2968750000,5,-17.9354190826,,,
40.3125000000,5,-21.5922393799,,,
40.3281250000,5,-25.1341590881,,,
40.3437500000,5,-28.4712791443,,,
40.3593750000,5,-31.4991493225,,,
40.3750000000,5,-34.1526985168,,,
40.3906250000,5,-36.4008407593,,,
40.4062500000,5,-38.3117408752,,,
40.4218750000,5,-40.0689010620,,,
40.4375000000,5,-41.9846801758,,,
40.4531250000,5,-44.4044303894,,,
40.4687500000,5,-47.5103988647,,,
40.4843750000,5,-51.1338996887,,,
40.5000000000,5,-54.6156806946,,,
40.5156250000,5,-56.8421592712,,,
40.5312500000,5,-56.5473594666,,,
40.5468750000,5,-52.6680908203,,,
40.5625000000,5,-44.7486305237,,,
40.5781250000,5,-33.1523399353,,,
40.5937500000,5,-19.0145702362,,,
40.6093750000,5,-3.8988718987,,,
40.6250000000,5,10.6254596710,,,
40.6406250000,5,23.3688697815,,,
40.6562500000,5,33.6785697937,,,
40.6718750000,5,41.3582191467,,,
40.6875000000,5,46.5032386780,,,
40.7031250000,5,49.3041496277,,,
40.7187500000,5,49.9961700439,,,
40.7343750000,5,48.8183517456,,,
40.7500000000,5,46.1217002869,,,
40.7656250000,5,42.3839492798,,,
40.7812500000,5,38.1514701843,,,
40.7968750000,5,33.9804000854,,,
40.8125000000,5,30.3233203888,,,
40.8281250000,5,27.4573402405,,,
40.8437500000,5,25.4536991119,,,
40.8593750000,5,24.2506599426,,,
40.8750000000,5,23.6574497223,,,
40.8906250000,5,23.4550094604,,,
40.9062500000,5,23.4520606995,,,
40.9218750000,5,23.4866600037,,,
40.9375000000,5,23.4701995850,,,
40.9531250000,5,23.3290596008,,,
40.9687500000,5,22.9666004181,,,
40.9843750000,5,22.2361297607,,,
41.0000000000,5,20.9839801788,,,
41.0156250000,5,19.0946407318,,,
41.0312500000,5,16.5487499237,,,
41.0468750000,5,13.4826698303,,,
41.0625000000,5,10.0711498260,,,
41.0781250000,5,6.5494308472,,,
41.0937500000,5,3.0426790714,,,
41.1093750000,5,-0.3907166123,,,
41.1250000000,5,-3.8119199276,,,
41.1406250000,5,-7.2774281502,,,
41.1562500000,5,-10.8207702637,,,
41.1718750000,5,-14.4187202454,,,
41.1875000000,5,-17.9790306091,,,
41.2031250000,5,-21.4739704132,,,
41.2187500000,5,-24.8763408661,,,
41.2343750000,5,-28.1896991730,,,
41.2500000000,5,-31.3684597015,,,
41.2656250000,5,-34.2994499207,,,
41.2812500000,5,-36.8524513245,,,
41.2968750000,5,-38.9872703552,,,
41.3125000000,5,-40.8655395508,,,
41.3281250000,5,-42.8774986267,,,
41.3437500000,5,-45.5365295410,,,
41.3593750000,5,-49.1704902649,,,
41.3750000000,5,-53.6100502014,,,
41.3906250000,5,-58.0219917297,,,
41.4062500000,5,-61.0421104431,,,
41.4218750000,5,-61.1943092346,,,
41.4375000000,5,-57.4255714417,,,
41.4531250000,5,-49.4461593628,,,
41.4687500000,5,-37.8270606995,,,
41.4843750000,5,-23.7865695953,,,
41.5000000000,5,-8.7904434204,,,
41.5156250000,5,5.8061451912,,,
41.5312500000,5,18.9629497528,,,
41.5468750000,5,30.0479297638,,,
41.5625000000,5,38.7322883606,,,
41.5781250000,5,44.9252204895,,,
41.5937500000,5,48.6797485352,,,
41.6093750000,5,50.1786384583,,,
41.6250000000,5,49.6800613403,,,
41.6406250000,5,47.5773506165,,,
41.6562500000,5,44.3544502258,,,
41.6718750000,5,40.5340194702,,,
41.6875000000,5,36.6361198425,,,
41.7031250000,5,33.0492591858,,,
41.7187500000,5,29.9954299927,,,
41.7343750000,5,27.5027008057,,,
41.7500000000,5,25.5266895294,,,
41.7656250000,5,24.0163707733,,,
41.7812500000,5,22.9680900574,,,
41.7968750000,5,22.4413509369,,,
41.8125000000,5,22.4440708160,,,
41.8281250000,5,22.8666305542,,,
41.8437500000,5,23.5041103363,,,
41.8593750000,5,24.0593605042,,,
41.8750000000,5,24.2139301300,,,
41.8906250000,5,23.7196998596,,,
41.9062500000,5,22.4115905762,,,
41.9218750000,5,20.2248306274,,,
41.9375000000,5,17.2249298096,,,
41.9531250000,5,13.5965003967,,,
41.9687500000,5,9.5906600952,,,
41.9843750000,5,5.4859619141,,,
42.0000000000,5,1.4579770565,,,
42.0156250000,5,-2.3942260742,,,
42.0312500000,5,-6.0570302010,,,
42.0468750000,5,-9.5832977295,,,
42.0625000000,5,-13.0091104507,,,
42.0781250000,5,-16.3739490509,,,
42.0937500000,5,-19.7126693726,,,
42.1093750000,5,-23.0392398834,,,
42.1250000000,5,-26.3340091705,,,
42.1406250000,5,-29.5594196320,,,
42.1562500000,5,-32.6347007751,,,
42.1718750000,5,-35.4836006165,,,
42.1875000000,5,-38.0765190125,,,
42.2031250000,5,-40.4334297180,,,
42.2187500000,5,-42.6518516541,,,
42.2343750000,5,-44.9038314819,,,
42.2500000000,5,-47.3593101501,,,
42.2656250000,5,-50.1813392639,,,
42.2812500000,5,-53.3871383667,,,
42.2968750000,5,-56.7661399841,,,
42.3125000000,5,-59.6984710693,,,
42.3281250000,5,-61.2532196045,,,
42.3437500000,5,-60.3069496155,,,
42.3593750000,5,-55.8978996277,,,
42.3750000000,5,-47.6032791138,,,
42.3906250000,5,-35.6741409302,,,
42.4062500000,5,-21.1036891937,,,
42.4218750000,5,-5.3390660286,,,
42.4375000000,5,10.0110197067,,,
42.4531250000,5,23.6078891754,,,
42.4687500000,5,34.5792999268,,,
42.4843750000,5,42.6053314209,,,
42.5000000000,5,47.7930488586,,,
42.5156250000,5,50.5039710999,,,
42.5312500000,5,51.1886482239,,,
42.5468750000,5,50.2249107361,,,
42.5625000000,5,47.9455413818,,,
42.5781250000,5,44.6235198975,,,
42.5937500000,5,40.6180686951,,,
42.6093750000,5,36.3567008972,,,
42.6250000000,5,32.3241691589,,,
42.6406250000,5,28.9046401978,,,
42.6562500000,5,26.3173999786,,,
42.6718750000,5,24.5726890564,,,
42.6875000000,5,23.5261402130,,,
42.7031250000,5,23.0203399658,,,
42.7187500000,5,22.9215202332,,,
42.7343750000,5,23.1805305481,,,
42.7500000000,5,23.7147407532,,,
42.7656250000,5,24.3694095612,,,
42.7812500000,5,24.8864898682,,,
42.7968750000,5,24.8725395203,,,
42.8125000000,5,23.9740905762,,,
42.8281250000,5,21.9727401733,,,
42.8437500000,5,18.9135208130,,,
42.8593750000,5,15.0848197937,,,
42.8750000000,5,10.9482002258,,,
42.8906250000,5,6.9591641426,,,
42.9062500000,5,3.3943140507,,,
42.9218750000,5,0.2764168084,,,
42.9375000000,5,-2.6488420963,,,
42.9531250000,5,-5.7141718864,,,
42.9687500000,5,-9.2466430664,,,
42.9843750000,5,-13.3566999435,,,
43.0000000000,5,-17.9216709137,,,
43.0156250000,5,-22.6496791840,,,
43.0312500000,5,-27.1868991852,,,
43.0468750000,5,-31.2529296875,,,
43.0625000000,5,-34.7088317871,,,
43.0781250000,5,-37.5744895935,,,
43.0937500000,5,-39.9668617249,,,
43.1093750000,5,-42.0852203369,,,
43.1250000000,5,-44.1583709717,,,
43.1406250000,5,-46.4213409424,,,
43.1562500000,5,-49.0609893799,,,
43.1718750000,5,-52.0922698975,,,
43.1875000000,5,-55.2109184265,,,
43.2031250000,5,-57.7355918884,,,
43.2187500000,5,-58.6713294983,,,
43.2343750000,5,-56.9309806824,,,
43.2500000000,5,-51.7220191956,,,
43.2656250000,5,-42.8601684570,,,
43.2812500000,5,-30.8787708282,,,
43.2968750000,5,-16.8939094543,,,
43.3125000000,5,-2.3123888969,,,
43.3281250000,5,11.5950202942,,,
43.3437500000,5,23.8777198792,,,
43.3593750000,5,33.9649696350,,,
43.3750000000,5,41.6025199890,,,
43.3906250000,5,46.7372207642,,,
43.4062500000,5,49.4285202026,,,
43.4218750000,5,49.8862190247,,,
43.4375000000,5,48.4456710815,,,
43.4531250000,5,45.5588684082,,,
43.4687500000,5,41.7229118347,,,
43.4843750000,5,37.4355010986,,,
43.5000000000,5,33.1249809265,,,
43.5156250000,5,29.1822891235,,,
43.5312500000,5,25.8680000305,,,
43.5468750000,5,23.3332195282,,,
43.5625000000,5,21.5928192139,,,
43.5781250000,5,20.5195693970,,,
43.5937500000,5,19.9121494293,,,
43.6093750000,5,19.5675506592,,,
43.6250000000,5,19.3369197845,,,
43.6406250000,5,19.1097698212,,,
43.6562500000,5,18.7857093811,,,
43.6718750000,5,18.2051601410,,,
43.6875000000,5,17.2066707611,,,
43.7031250000,5,15.6332502365,,,
43.7187500000,5,13.4263000488,,,
43.7343750000,5,10.5966396332,,,
43.7500000000,5,7.2429752350,,,
43.7656250000,5,3.4854578972,,,
43.7812500000,5,-0.5916814804,,,
43.7968750000,5,-4.8930320740,,,
43.8125000000,5,-9.3495512009,,,
43.8281250000,5,-13.8530902863,,,
43.8437500000,5,-18.2542896271,,,
43.8593750000,5,-22.3812408447,,,
43.8750000000,5,-26.1373996735,,,
43.8906250000,5,-29.4803504944,,,
43.9062500000,5,-32.4608306885,,,
43.9218750000,5,-35.2380104065,,,
43.9375000000,5,-38.0391807556,,,
43.9531250000,5,-41.1163902283,,,
43.9687500000,5,-44.5850601196,,,
43.9843750000,5,-48.2458686829,,,
44.0000000000,5,-51.4588699341,,,
44.0156250000,5,-53.1805496216,,,
44.0312500000,5,-52.2390289307,,,
44.0468750000,5,-47.7058792114,,,
44.0625000000,5,-39.2823181152,,,
44.0781250000,5,-27.4365806580,,,
44.0937500000,5,-13.3218603134,,,
44.1093750000,5,1.5611050129,,,
44.1250000000,5,15.7596502304,,,
44.1406250000,5,28.1571807861,,,
44.1562500000,5,38.0693511963,,,
44.1718750000,5,45.1601905823,,,
44.1875000000,5,49.3533096313,,,
44.2031250000,5,50.7480697632,,,
44.2187500000,5,49.6247291565,,,
44.2343750000,5,46.4805793762,,,
44.2500000000,5,41.9669113159,,,
44.2656250000,5,36.7870597839,,,
44.2812500000,5,31.5820903778,,,
44.2968750000,5,26.8216495514,,,
44.3125000000,5,22.8008003235,,,
44.3281250000,5,19.6539497375,,,
44.3437500000,5,17.3792991638,,,
44.3593750000,5,15.9137001038,,,
44.3750000000,5,15.1100702286,,,
44.3906250000,5,14.7666101456,,,
44.4062500000,5,14.6258096695,,,
44.4218750000,5,14.4740200043,,,
44.4375000000,5,14.0947198868,,,
44.4531250000,5,13.3498497009,,,
44.4687500000,5,12.1992597580,,,
44.4843750000,5,10.6402997971,,,
44.5000000000,5,8.7215671539,,,
44.5156250000,5,6.4977860451,,,
44.5312500000,5,3.9529280663,,,
44.5468750000,5,1.0183049440,,,
44.5625000000,5,-2.3937819004,,,
44.5781250000,5,-6.3466310501,,,
44.5937500000,5,-10.7866697311,,,
44.6093750000,5,-15.5418395996,,,
44.6250000000,5,-50.1930389404,,,
44.6406250000,5,-54.3533401489,,,
44.6562500000,5,-57.7126007080,,,
44.6718750000,5,-59.0107994080,,,
44.6875000000,5,-56.9781417847,,,
44.7031250000,5,-50.8755798340,,,
44.7187500000,5,-40.7238883972,,,
44.7343750000,5,-27.3932094574,,,
44.7500000000,5,-12.3217697144,,,
44.7656250000,5,2.8617970943,,,
44.7812500000,5,16.7875404358,,,
44.7968750000,5,28.5357894897,,,
44.8125000000,5,37.6729507446,,,
44.8281250000,5,44.1256599426,,,
44.8437500000,5,48.0190505981,,,
44.8593750000,5,49.5751991272,,,
44.8750000000,5,49.0830116272,,,
44.8906250000,5,46.9147605896,,,
44.9062500000,5,43.5312500000,,,
44.9218750000,5,39.4676589966,,,
44.9375000000,5,35.2601089478,,,
44.9531250000,5,31.3492393494,,,
44.9687500000,5,28.0869197845,,,
44.9843750000,5,25.6259803772,,,
45.0000000000,5,23.9535198212,,,
45.0156250000,5,22.9426097870,,,
45.0312500000,5,22.4493904114,,,
45.0468750000,5,22.3556804657,,,
45.0625000000,5,22.5295791626,,,
45.0781250000,5,22.7846794128,,,
45.0937500000,5,22.8412094116,,,
45.1093750000,5,22.3685302734,,,
45.1250000000,5,21.0825405121,,,
45.1406250000,5,18.8455390930,,,
45.1562500000,5,15.7450103760,,,
45.1718750000,5,12.0600996017,,,
45.1875000000,5,8.1508331299,,,
45.2031250000,5,4.3190569878,,,
45.2187500000,5,0.7205657959,,,
45.2343750000,5,-2.6580469608,,,
45.2500000000,5,-5.9278759956,,,
45.2656250000,5,-9.2297248840,,,
45.2812500000,5,-12.6829004288,,,
45.2968750000,5,-16.3110599518,,,
45.3125000000,5,-20.0431709290,,,
45.3281250000,5,-23.7354698181,,,
45.3437500000,5,-27.2319107056,,,
45.3593750000,5,-30.3722305298,,,
45.3750000000,5,-33.1301803589,,,
45.3906250000,5,-35.6027107239,,,
45.4062500000,5,-38.0349693298,,,
45.4218750000,5,-40.6853904724,,,
45.4375000000,5,-43.6627616882,,,
45.4531250000,5,-46.7595787048,,,
45.4687500000,5,-49.3376007080,,,
45.4843750000,5,-50.4277801514,,,
45.5000000000,5,-48.9434013367,,,
45.5156250000,5,-44.1246604919,,,
45.5312500000,5,-35.8162498474,,,
45.5468750000,5,-24.5972595215,,,
45.5625000000,5,-11.6242399216,,,
45.5781250000,5,1.7199569941,,,
45.5937500000,5,14.1750802994,,,
45.6093750000,5,24.8857402802,,,
45.6250000000,5,33.3933181763,,,
45.6406250000,5,39.5319213867,,,
45.6562500000,5,43.2735595703,,,
45.6718750000,5,44.6729316711,,,
45.6875000000,5,43.8884315491,,,
45.7031250000,5,41.2488594055,,,
45.7187500000,5,37.2813186646,,,
45.7343750000,5,32.6288299561,,,
45.7500000000,5,27.9453601837,,,
45.7656250000,5,23.7538299561,,,
45.7812500000,5,20.3589305878,,,
45.7968750000,5,17.8719806671,,,
45.8125000000,5,16.2330799103,,,
45.8281250000,5,15.3105297089,,,
45.8437500000,5,14.8817701340,,,
45.8593750000,5,14.7359695435,,,
45.8750000000,5,14.6727895737,,,
45.8906250000,5,14.5158901215,,,
45.9062500000,5,14.1483602524,,,
45.9218750000,5,13.5107498169,,,
45.9375000000,5,12.5521001816,,,
45.9531250000,5,11.1804599762,,,
45.9687500000,5,9.2630710602,,,
45.9843750000,5,6.5844588280,,,
46.0000000000,5,3.0296730995,,,
46.0156250000,5,-1.3654979467,,,
46.0312500000,5,-6.3652319908,,,
46.0468750000,5,-11.5876398087,,,
46.0625000000,5,-16.6074905396,,,
46.0781250000,5,-21.1039009094,,,
46.0937500000,5,-24.9999103546,,,
46.1093750000,5,-28.3776092529,,,
46.1250000000,5,-31.4620094299,,,
46.1406250000,5,-34.4680480957,,,
46.1562500000,5,-37.5818901062,,,
46.1718750000,5,-40.8839988708,,,
46.1875000000,5,-44.3361587524,,,
46.2031250000,5,-47.6397094727,,,
46.2187500000,5,-50.1905899048,,,
46.2343750000,5,-51.1376190186,,,
46.2500000000,5,-49.5326499939,,,
46.2656250000,5,-44.6960601807,,,
46.2812500000,5,-36.4502105713,,,
46.2968750000,5,-25.2839698792,,,
46.3125000000,5,-12.2655000687,,,
46.3281250000,5,1.2644209862,,,
46.3437500000,5,14.0187902451,,,
46.3593750000,5,24.9986305237,,,
46.3750000000,5,33.6419792175,,,
46.3906250000,5,39.7210693359,,,
46.4062500000,5,43.2394790649,,,
46.4218750000,5,44.3757896423,,,
46.4375000000,5,43.4392814636,,,
46.4531250000,5,40.8222808838,,,
46.4687500000,5,37.0597915649,,,
46.4843750000,5,32.7032318115,,,
46.5000000000,5,28.2559795380,,,
46.5156250000,5,24.1854190826,,,
46.5312500000,5,20.8486995697,,,
46.5468750000,5,18.4395599365,,,
46.5625000000,5,17.0009803772,,,
46.5781250000,5,16.4108695984,,,
46.5937500000,5,16.3752307892,,,
46.6093750000,5,16.5430908203,,,
46.6250000000,5,16.5543193817,,,
46.6406250000,5,16.1443099976,,,
46.6562500000,5,15.1869096756,,,
46.6718750000,5,13.6824302673,,,
46.6875000000,5,11.6484699249,,,
46.7031250000,5,9.1157999039,,,
46.7187500000,5,6.0656838417,,,
46.7343750000,5,2.4957199097,,,
46.7500000000,5,-1.5498379469,,,
46.7656250000,5,-5.9590849876,,,
46.7812500000,5,-10.5838098526,,,
46.7968750000,5,-15.2759399414,,,
46.8125000000,5,-19.8710002899,,,
46.8281250000,5,-24.2638092041,,,
46.8437500000,5,-28.3220691681,,,
46.8593750000,5,-31.9733295441,,,
46.8750000000,5,-35.1853408813,,,
46.8906250000,5,-38.0592308044,,,
46.9062500000,5,-40.8192405701,,,
46.9218750000,5,-43.7790412903,,,
46.9375000000,5,-47.2132186890,,,
46.9531250000,5,-51.2266387939,,,
46.9687500000,5,-55.6027183533,,,
46.9843750000,5,-59.6700782776,,,
47.0000000000,5,-62.4329414368,,,
47.0156250000,5,-62.6829414368,,,
47.0312500000,5,-59.3839302063,,,
47.0468750000,5,-51.9901809692,,,
47.0625000000,5,-40.7241210938,,,
47.0781250000,5,-26.5503807068,,,
47.0937500000,5,-10.9647197723,,,
47.1093750000,5,4.4088749886,,,
47.1250000000,5,18.2451190948,,,
47.1406250000,5,29.6798095703,,,
47.1562500000,5,38.3801498413,,,
47.1718750000,5,44.3756294250,,,
47.1875000000,5,47.8701705933,,,
47.2031250000,5,49.1128997803,,,
47.2187500000,5,48.4212989807,,,
47.2343750000,5,46.1859893799,,,
47.2500000000,5,42.9085998535,,,
47.2656250000,5,39.1463088989,,,
47.2812500000,5,35.3718681335,,,
47.2968750000,5,31.9302101135,,,
47.3125000000,5,28.9918193817,,,
47.3281250000,5,26.5984897614,,,
47.3437500000,5,24.7495994568,,,
47.3593750000,5,23.4227294922,,,
47.3750000000,5,22.5793704987,,,
47.3906250000,5,22.1159000397,,,
47.4062500000,5,21.8752307892,,,
47.4218750000,5,21.5893898010,,,
47.4375000000,5,20.9852409363,,,
47.4531250000,5,19.7904605865,,,
47.4687500000,5,17.8283805847,,,
47.4843750000,5,15.0965404510,,,
47.5000000000,5,11.7062101364,,,
47.5156250000,5,7.8567309380,,,
47.5312500000,5,3.7085568905,,,
47.5468750000,5,-0.6218451858,,,
47.5625000000,5,-5.1318511963,,,
47.5781250000,5,-9.8302116394,,,
47.5937500000,5,-14.7015495300,,,
47.6093750000,5,-19.6507301331,,,
47.6250000000,5,-24.4607200623,,,
47.6406250000,5,-28.9239292145,,,
47.6562500000,5,-32.8646087646,,,
47.6718750000,5,-36.2401504517,,,
47.6875000000,5,-39.1277084351,,,
47.7031250000,5,-41.7461585999,,,
47.7187500000,5,-44.3769416809,,,
47.7343750000,5,-47.3461112976,,,
47.7500000000,5,-50.8672981262,,,
47.7656250000,5,-54.8407402039,,,
47.7812500000,5,-58.7066192627,,,
47.7968750000,5,-61.3999404907,,,
47.8125000000,5,-61.5814285278,,,
47.8281250000,5,-58.0659790039,,,
47.8437500000,5,-50.2462196350,,,
47.8593750000,5,-38.4076614380,,,
47.8750000000,5,-23.6531906128,,,
47.8906250000,5,-7.6206631660,,,
47.9062500000,5,8.0222053528,,,
47.9218750000,5,21.9565200806,,,
47.9375000000,5,33.4190216064,,,
47.9531250000,5,42.1061592102,,,
47.9687500000,5,47.9858398438,,,
47.9843750000,5,51.1767692566,,,
48.0000000000,6,51.8893814087,,,
48.0156250000,6,50.4750518799,,,
48.0312500000,6,47.4413909912,,,
48.0468750000,6,43.4322013855,,,
48.0625000000,6,39.1002693176,,,
48.0781250000,6,35.0237617493,,,
48.0937500000,6,31.5867900848,,,
48.1093750000,6,28.9295501709,,,
48.1250000000,6,27.0012798309,,,
48.1406250000,6,25.6403102875,,,
48.1562500000,6,24.6128807068,,,
48.1718750000,6,23.7307395935,,,
48.1875000000,6,22.8480300903,,,
48.2031250000,6,21.9006004333,,,
48.2187500000,6,20.8640098572,,,
48.2343750000,6,19.6989402771,,,
48.2500000000,6,18.3188495636,,,
48.2656250000,6,16.5649604797,,,
48.2812500000,6,14.2606496811,,,
48.2968750000,6,11.2350301743,,,
48.3125000000,6,7.4423289299,,,
48.3281250000,6,2.9507598877,,,
48.3437500000,6,-2.0049059391,,,
48.3593750000,6,-7.1097111702,,,
48.3750000000,6,-12.0701799393,,,
48.3906250000,6,-16.7149505615,,,
48.4062500000,6,-21.0038108826,,,
48.4218750000,6,-25.0270595551,,,
48.4375000000,6,-28.9138908386,,,
48.4531250000,6,-32.7608604431,,,
48.4687500000,6,-36.6857795715,,,
48.4843750000,6,-40.7428894043,,,
48.5000000000,6,-44.9072799683,,,
48.5156250000,6,-48.9304008484,,,
48.5312500000,6,-52.2258796692,,,
48.5468750000,6,-53.8279800415,,,
48.5625000000,6,-52.6035995483,,,
48.5781250000,6,-47.6063804626,,,
48.5937500000,6,-38.4805717468,,,
48.6093750000,6,-25.7342300415,,,
48.6250000000,6,-10.6624002457,,,
48.6406250000,6,5.0100560188,,,
48.6562500000,6,19.6017208099,,,
48.6718750000,6,31.8904209137,,,
48.6875000000,6,41.2578010559,,,
48.7031250000,6,47.6312217712,,,
48.7187500000,6,51.2640800476,,,
48.7343750000,6,52.5116996765,,,
48.7500000000,6,51.6984710693,,,
48.7656250000,6,49.1223983765,,,
48.7812500000,6,45.1399192810,,,
48.7968750000,6,40.2204284668,,,
48.8125000000,6,34.9619789124,,,
48.8281250000,6,30.0221805573,,,
48.8437500000,6,25.9661102295,,,
48.8593750000,6,23.1263408661,,,
48.8750000000,6,21.4848709106,,,
48.8906250000,6,20.7022209167,,,
48.9062500000,6,20.2827701569,,,
48.9218750000,6,19.7356796265,,,
48.9375000000,6,18.7795295715,,,
48.9531250000,6,17.4140892029,,,
48.9687500000,6,15.7986001968,,,
48.9843750000,6,14.0805797577,,,
49.0000000000,6,12.2927303314,,,
49.0156250000,6,10.2553501129,,,
49.0312500000,6,7.6753997803,,,
49.0468750000,6,4.2828288078,,,
49.0625000000,6,0.0066528320,,,
49.0781250000,6,-5.0110168457,,,
49.0937500000,6,-10.4371995926,,,
49.1093750000,6,-15.8886995316,,,
49.1250000000,6,-21.0718803406,,,
49.1406250000,6,-25.8197593689,,,
49.1562500000,6,-30.0741004944,,,
49.1718750000,6,-33.8657684326,,,
49.1875000000,6,-37.3208503723,,,
49.2031250000,6,-40.6647109985,,,
49.2187500000,6,-44.2269210815,,,
49.2343750000,6,-48.2945594788,,,
49.2500000000,6,-52.9238891602,,,
49.2656250000,6,-57.6835594177,,,
49.2812500000,6,-61.5904617310,,,
49.2968750000,6,-63.2765007019,,,
49.3125000000,6,-61.3740005493,,,
49.3281250000,6,-55.0275382996,,,
49.3437500000,6,-44.2074089050,,,
49.3593750000,6,-29.8143405914,,,
49.3750000000,6,-13.3827400208,,,
49.3906250000,6,3.3232419491,,,
49.4062500000,6,18.7905006409,,,
49.4218750000,6,31.9709396362,,,
49.4375000000,6,42.3540802002,,,
49.4531250000,6,49.8361396790,,,
49.4687500000,6,54.5245513916,,,
49.4843750000,6,56.6350288391,,,
49.5000000000,6,56.4299087524,,,
49.5156250000,6,54.2785415649,,,
49.5312500000,6,50.6490592957,,,
49.5468750000,6,46.0829582214,,,
49.5625000000,6,41.1567001343,,,
49.5781250000,6,36.3832702637,,,
49.5937500000,6,32.1312217712,,,
49.6093750000,6,28.6320590973,,,
49.6250000000,6,25.9631309509,,,
49.6406250000,6,24.0495796204,,,
49.6562500000,6,22.7316093445,,,
49.6718750000,6,21.7574405670,,,
49.6875000000,6,20.8366909027,,,
49.7031250000,6,19.7544593811,,,
49.7187500000,6,18.3908100128,,,
49.7343750000,6,16.7506008148,,,
49.7500000000,6,14.9042196274,,,
49.7656250000,6,12.8976697922,,,
49.7812500000,6,10.6576700211,,,
49.7968750000,6,7.9977231026,,,
49.8125000000,6,4.7344322205,,,
49.8281250000,6,0.7560272217,,,
49.8437500000,6,-3.8420410156,,,
49.8593750000,6,-8.7912864685,,,
49.8750000000,6,-13.7207603455,,,
49.8906250000,6,-18.3373298645,,,
49.9062500000,6,-22.4797592163,,,
49.9218750000,6,-26.1464195251,,,
49.9375000000,6,-29.4287700653,,,
49.9531250000,6,-32.3974685669,,,
49.9687500000,6,-35.1376190186,,,
49.9843750000,6,-37.7842216492,,,
50.0000000000,6,-40.5656318665,,,
50.0156250000,6,-43.7521400452,,,
50.0312500000,6,-47.4719009399,,,
50.0468750000,6,-51.4022293091,,,
50.0625000000,6,-54.6579399109,,,
50.0781250000,6,-55.8990707397,,,
50.0937500000,6,-53.7722511292,,,
50.1093750000,6,-47.4138717651,,,
50.1250000000,6,-36.8437194824,,,
50.1406250000,6,-23.0513000488,,,
50.1562500000,6,-7.6732139587,,,
50.1718750000,6,7.5265431404,,,
50.1875000000,6,21.1153793335,,,
50.2031250000,6,32.2244796753,,,
50.2187500000,6,40.5136108398,,,
50.2343750000,6,45.9937705994,,,
50.2500000000,6,48.8007202148,,,
50.2656250000,6,49.1611289978,,,
50.2812500000,6,47.3694610596,,,
50.2968750000,6,43.8631706238,,,
50.3125000000,6,39.2743186951,,,
50.3281250000,6,34.2860412598,,,
50.3437500000,6,29.5413398743,,,
50.3593750000,6,25.4888000488,,,
50.3750000000,6,22.3603401184,,,
50.3906250000,6,20.1336593628,,,
50.4062500000,6,18.6700401306,,,
50.4218750000,6,17.7564697266,,,
50.4375000000,6,17.1544494629,,,
50.4531250000,6,16.7183208466,,,
50.4687500000,6,16.3084106445,,,
50.4843750000,6,15.8602304459,,,
50.5000000000,6,15.2729997635,,,
50.5156250000,6,14.4399499893,,,
50.5312500000,6,13.1400003433,,,
50.5468750000,6,11.1487998962,,,
50.5625000000,6,8.2449569702,,,
50.5781250000,6,4.3647961617,,,
50.5937500000,6,-0.3437614143,,,
50.6093750000,6,-5.5370330811,,,
50.6250000000,6,-10.7413702011,,,
50.6406250000,6,-15.5501499176,,,
50.6562500000,6,-19.7205009460,,,
50.6718750000,6,-23.2370395660,,,
50.6875000000,6,-26.2791309357,,,
50.7031250000,6,-29.1660594940,,,
50.7187500000,6,-32.2221183777,,,
50.7343750000,6,-35.6723518372,,,
50.7500000000,6,-39.5176696777,,,
50.7656250000,6,-43.3995094299,,,
50.7812500000,6,-46.5624389648,,,
50.7968750000,6,-47.9773902893,,,
50.8125000000,6,-46.6166610718,,,
50.8281250000,6,-41.7915306091,,,
50.8437500000,6,-33.4539184570,,,
50.8593750000,6,-22.2444496155,,,
50.8750000000,6,-9.3569927216,,,
50.8906250000,6,3.7959139347,,,
50.9062500000,6,15.9640502930,,,
50.9218750000,6,26.2745304108,,,
50.9375000000,6,34.2719802856,,,
50.9531250000,6,39.8077697754,,,
50.9687500000,6,42.8901596069,,,
50.9843750000,6,43.6546592712,,,
51.0000000000,6,42.3073196411,,,
51.0156250000,6,39.2186584473,,,
51.0312500000,6,34.8769607544,,,
51.0468750000,6,29.9303302765,,,
51.0625000000,6,25.0066890717,,,
51.0781250000,6,20.6474704742,,,
51.0937500000,6,17.1997795105,,,
51.1093750000,6,14.7766304016,,,
51.1250000000,6,13.2814598083,,,
51.1406250000,6,12.4469604492,,,
51.1562500000,6,11.9409303665,,,
51.1718750000,6,11.4500102997,,,
51.1875000000,6,10.8050699234,,,
51.2031250000,6,9.9349184036,,,
51.2187500000,6,8.8727531433,,,
51.2343750000,6,7.6541080475,,,
51.2500000000,6,6.2267069817,,,
51.2656250000,6,4.4062428474,,,
51.2812500000,6,1.9876190424,,,
51.2968750000,6,-1.1961640120,,,
51.3125000000,6,-5.1623840332,,,
51.3281250000,6,-9.7163848877,,,
51.3437500000,6,-14.5359897614,,,
51.3593750000,6,-19.2439994812,,,
51.3750000000,6,-23.5534591675,,,
51.3906250000,6,-27.3131008148,,,
51.4062500000,6,-30.5667095184,,,
51.4218750000,6,-33.5091781616,,,
51.4375000000,6,-36.4220504761,,,
51.4531250000,6,-39.5944786072,,,
51.4687500000,6,-43.2507286072,,,
51.4843750000,6,-47.3505287170,,,
51.5000000000,6,-51.4908103943,,,
51.5156250000,6,-54.8306503296,,,
51.5312500000,6,-56.2391395569,,,
51.5468750000,6,-54.5801315308,,,
51.5625000000,6,-49.1128807068,,,
51.5781250000,6,-39.8162117004,,,
51.5937500000,6,-27.4700393677,,,
51.6093750000,6,-13.4450502396,,,
51.6250000000,6,0.6840782166,,,
51.6406250000,6,13.5865697861,,,
51.6562500000,6,24.4423599243,,,
51.6718750000,6,21.3917007446,,,
51.6875000000,6,19.4423694611,,,
51.7031250000,6,18.4648303986,,,
51.7187500000,6,18.1009101868,,,
51.7343750000,6,17.9513893127,,,
51.7500000000,6,17.6985702515,,,
51.7656250000,6,17.2214698792,,,
51.7812500000,6,16.5450992584,,,
51.7968750000,6,15.7434396744,,,
51.8125000000,6,14.7979602814,,,
51.8281250000,6,13.6061496735,,,
51.8437500000,6,11.9663095474,,,
51.8593750000,6,9.6688613892,,,
51.8750000000,6,6.6130218506,,,
51.8906250000,6,2.8488690853,,,
51.9062500000,6,-1.4262119532,,,
51.9218750000,6,-5.9118962288,,,
51.9375000000,6,-10.3078498840,,,
51.9531250000,6,-14.4085197449,,,
51.9687500000,6,-18.1169300079,,,
51.9843750000,6,-21.4212608337,,,
52.0000000000,6,-24.3873291016,,,
52.0156250000,6,-27.0979690552,,,
52.0312500000,6,-29.6384696960,,,
52.0468750000,6,-32.1433982849,,,
52.0625000000,6,-34.7842788696,,,
52.0781250000,6,-37.7327384949,,,
52.0937500000,6,-41.0248298645,,,
52.1093750000,6,-44.3650207520,,,
52.1250000000,6,-47.0266990662,,,
52.1406250000,6,-47.9858703613,,,
52.1562500000,6,-46.1893806458,,,
52.1718750000,6,-40.9488983154,,,
52.1875000000,6,-32.2507896423,,,
52.2031250000,6,-20.8021907806,,,
52.2187500000,6,-7.8614039421,,,
52.2343750000,6,5.1652450562,,,
52.2500000000,6,17.0729293823,,,
52.2656250000,6,27.0580902100,,,
52.2812500000,6,34.7189102173,,,
52.2968750000,6,39.9453506470,,,
52.3125000000,6,42.8095893860,,,
52.3281250000,6,43.4962997437,,,
52.3437500000,6,42.3083992004,,,
52.3593750000,6,39.6445999146,,,
52.3750000000,6,35.9968910217,,,
52.3906250000,6,31.8632907867,,,
52.4062500000,6,27.6995391846,,,
52.4218750000,6,23.8569202423,,,
52.4375000000,6,20.5862407684,,,
52.4531250000,6,18.0517501831,,,
52.4687500000,6,16.3129196167,,,
52.4843750000,6,15.3374099731,,,
52.5000000000,6,14.9609498978,,,
52.5156250000,6,14.9064798355,,,
52.5312500000,6,14.8342304230,,,
52.5468750000,6,14.4410200119,,,
52.5625000000,6,13.5159397125,,,
52.5781250000,6,12.0197200775,,,
52.5937500000,6,10.0587501526,,,
52.6093750000,6,7.7643551826,,,
52.6250000000,6,5.2511367798,,,
52.6406250000,6,2.5632550716,,,
52.6562500000,6,-0.3293227851,,,
52.6718750000,6,-3.4764630795,,,
52.6875000000,6,-6.8959269524,,,
52.7031250000,6,-10.5771903992,,,
52.7187500000,6,-14.4675397873,,,
52.7343750000,6,-18.4773292542,,,
52.7500000000,6,-22.5195598602,,,
52.7656250000,6,-26.4661293030,,,
52.7812500000,6,-30.1711692810,,,
52.7968750000,6,-33.5374298096,,,
52.8125000000,6,-36.5525093079,,,
52.8281250000,6,-39.3536491394,,,
52.8437500000,6,-42.1893501282,,,
52.8593750000,6,-45.3277893066,,,
52.8750000000,6,-48.8979415894,,,
52.8906250000,6,-52.7123489380,,,
52.9062500000,6,-56.1657218933,,,
52.9218750000,6,-58.2771186829,,,
52.9375000000,6,-57.9213600159,,,
52.9531250000,6,-54.1339416504,,,
52.9687500000,6,-46.4540710449,,,
52.9843750000,6,-35.1267509460,,,
53.0000000000,6,-21.1232490540,,,
53.0156250000,6,-5.9228019714,,,
53.0312500000,6,8.8615608215,,,
53.0468750000,6,21.8552608490,,,
53.0625000000,6,32.1605796814,,,
53.0781250000,6,39.4393386841,,,
53.0937500000,6,43.8501510620,,,
53.1093750000,6,45.8453102112,,,
53.1250000000,6,45.9639701843,,,
53.1406250000,6,44.6979598999,,,
53.1562500000,6,42.4782600403,,,
53.1718750000,6,39.6447906494,,,
53.1875000000,6,36.5528297424,,,
53.2031250000,6,33.5486412048,,,
53.2187500000,6,30.9240398407,,,
53.2343750000,6,28.9002304077,,,
53.2500000000,6,27.4953899384,,,
53.2656250000,6,26.5957794189,,,
53.2812500000,6,26.0074501038,,,
53.2968750000,6,25.5576190948,,,
53.3125000000,6,25.1411895752,,,
53.3281250000,6,24.7103404999,,,
53.3437500000,6,24.1687698364,,,
53.3593750000,6,23.3673591614,,,
53.3750000000,6,22.1038093567,,,
53.3906250000,6,20.2121391296,,,
53.4062500000,6,17.6454391479,,,
53.4218750000,6,14.5281200409,,,
53.4375000000,6,11.0732297897,,,
53.4531250000,6,7.5223689079,,,
53.4687500000,6,4.0428619385,,,
53.4843750000,6,0.6744499207,,,
53.5000000000,6,-2.6172258854,,,
53.5156250000,6,-5.9678730965,,,
53.5312500000,6,-9.5061445236,,,
53.5468750000,6,-13.3296003342,,,
53.5625000000,6,-17.4582290649,,,
53.5781250000,6,-21.8247299194,,,
53.5937500000,6,-26.2324790955,,,
53.6093750000,6,-30.4047203064,,,
53.6250000000,6,-34.0841217041,,,
53.6406250000,6,-37.1008491516,,,
53.6562500000,6,-39.5306396484,,,
53.6718750000,6,-41.6610488892,,,
53.6875000000,6,-43.9073982239,,,
53.7031250000,6,-46.6976890564,,,
53.7187500000,6,-50.2314605713,,,
53.7343750000,6,-54.3034782410,,,
53.7500000000,6,-58.2145500183,,,
53.7656250000,6,-60.8555603027,,,
53.7812500000,6,-60.9453697205,,,
53.7968750000,6,-57.4494895935,,,
53.8125000000,6,-49.9096107483,,,
53.8281250000,6,-38.6194801331,,,
53.8437500000,6,-24.6138191223,,,
53.8593750000,6,-9.3879966736,,,
53.8750000000,6,5.5151247978,,,
53.8906250000,6,18.8503608704,,,
53.9062500000,6,29.8124504089,,,
53.9218750000,6,38.1024017334,,,
53.9375000000,6,43.7322387695,,,
53.9531250000,6,46.9024696350,,,
53.9687500000,6,47.8694305420,,,
53.9843750000,6,46.9525909424,,,
54.0000000000,6,44.5736312866,,,
54.0156250000,6,41.2506408691,,,
54.0312500000,6,37.5705604553,,,
54.0468750000,6,34.0402908325,,,
54.0625000000,6,31.0160408020,,,
54.0781250000,6,28.5881099701,,,
54.0937500000,6,26.6756305695,,,
54.1093750000,6,25.0957298279,,,
54.1250000000,6,23.7526702881,,,
54.1406250000,6,22.6830291748,,,
54.1562500000,6,21.9829807281,,,
54.1718750000,6,21.7186794281,,,
54.1875000000,6,21.7734508514,,,
54.2031250000,6,21.8644104004,,,
54.2187500000,6,21.5965690613,,,
54.2343750000,6,20.6704406738,,,
54.2500000000,6,18.9383697510,,,
54.2656250000,6,16.4871597290,,,
54.2812500000,6,13.5543403625,,,
54.2968750000,6,10.3710699081,,,
54.3125000000,6,7.1073417664,,,
54.3281250000,6,3.7827069759,,,
54.3437500000,6,0.3209877014,,,
54.3593750000,6,-3.3665349483,,,
54.3750000000,6,-7.3059229851,,,
54.3906250000,6,-11.4693603516,,,
54.4062500000,6,-15.7250699997,,,
54.4218750000,6,-19.9212703705,,,
54.4375000000,6,-23.9186401367,,,
54.4531250000,6,-27.5892601013,,,
54.4687500000,6,-30.8525104523,,,
54.4843750000,6,-33.6918716431,,,
54.5000000000,6,-36.1901397705,,,
54.5156250000,6,-38.5487785339,,,
54.5312500000,6,-41.0486488342,,,
54.5468750000,6,-43.8613510132,,,
54.5625000000,6,-46.8357009888,,,
54.5781250000,6,-49.4003982544,,,
54.5937500000,6,-50.6078491211,,,
54.6093750000,6,-49.4082603455,,,
54.6250000000,6,-44.9756698608,,,
54.6406250000,6,-37.0586700439,,,
54.6562500000,6,-26.0992202759,,,
54.6718750000,6,-13.1411304474,,,
54.6875000000,6,0.4783782959,,,
54.7031250000,6,13.4757699966,,,
54.7187500000,6,24.8352794647,,,
54.7343750000,6,33.9688796997,,,
54.7500000000,6,40.5778884888,,,
54.7656250000,6,44.6251182556,,,
54.7812500000,6,46.2001800537,,,
54.7968750000,6,45.5265502930,,,
54.8125000000,6,42.9603195190,,,
54.8281250000,6,39.0238609314,,,
54.8437500000,6,34.3338584900,,,
54.8593750000,6,29.5034999847,,,
54.8750000000,6,25.1057701111,,,
54.8906250000,6,21.5007801056,,,
54.9062500000,6,18.8656005859,,,
54.9218750000,6,17.1751899719,,,
54.9375000000,6,16.2850303650,,,
54.9531250000,6,15.9828500748,,,
54.9687500000,6,16.0272808075,,,
54.9843750000,6,16.1709594727,,,
55.0000000000,6,16.1950893402,,,
55.0156250000,6,15.9538202286,,,
55.0312500000,6,15.3430299759,,,
55.0468750000,6,14.2758102417,,,
55.0625000000,6,12.6612195969,,,
55.0781250000,6,10.4388704300,,,
55.0937500000,6,7.6135559082,,,
55.1093750000,6,4.2168121338,,,
55.1250000000,6,0.3779335022,,,
55.1406250000,6,-3.8020670414,,,
