Time:64Hz,Epoch,Channel 1,Event Id,Event Date,Event Duration
0.0000000000,0,1.7218019962,,,
0.0156250000,0,1.7150269747,,,
0.0312500000,0,1.4223630428,,,
0.0468750000,0,1.0471800566,,,
0.0625000000,0,0.7206726074,,,
0.0781250000,0,0.5016478896,,,
0.0937500000,0,0.3714294136,,,
0.1093750000,0,0.2851563096,,,
0.1250000000,0,0.1968688965,,,
0.1406250000,0,0.0545349084,,,
0.1562500000,0,-0.1648560017,,,
0.1718750000,0,-0.4503174126,,,
0.1875000000,0,-0.7088928223,,,
0.2031250000,0,-0.8080750108,,,
0.2187500000,0,-0.6294860840,,,
0.2343750000,0,-0.1372375041,,,
0.2500000000,0,0.5639954209,,,
0.2656250000,0,1.2692869902,,,
0.2812500000,0,1.7619630098,,,
0.2968750000,0,1.8876949549,,,
0.3125000000,0,1.6519470215,,,
0.3281250000,0,1.1470340490,,,
0.3437500000,0,0.5451964736,,,
0.3593750000,0,-0.0342712402,,,
0.3750000000,0,-0.5218201280,,,
0.3906250000,0,-0.8840332031,,,
0.4062500000,0,-1.0991209745,,,
0.4218750000,0,-1.1404720545,,,
0.4375000000,0,-1.0118410587,,,
0.4531250000,0,-0.7352600098,,,
0.4687500000,0,-0.4078674018,,,
0.4843750000,0,-0.1415099949,,,
0.5000000000,0,-0.0255432092,,,
0.5156250000,0,-0.0582580604,,,
0.5312500000,0,-0.1769104004,,,
0.5468750000,0,-0.2967224121,,,
0.5625000000,0,-0.3197632134,,,
0.5781250000,0,-0.2124938965,,,
0.5937500000,0,0.0066528320,,,
0.6093750000,0,0.2372741997,,,
0.6250000000,0,0.3442992866,,,
0.6406250000,0,0.2167664021,,,
0.6562500000,0,-0.1650085002,,,
0.6718750000,0,-0.6787108779,,,
0.6875000000,0,-1.1029659510,,,
0.7031250000,0,-1.2075200081,,,
0.7187500000,0,-0.9173889160,,,
0.7343750000,0,-0.3007507026,,,
0.7500000000,0,0.4516601861,,,
0.7656250000,0,1.1276860237,,,
0.7812500000,0,1.5973819494,,,
0.7968750000,0,1.8334350586,,,
0.8125000000,0,1.8803100586,,,
0.8281250000,0,1.7396240234,,,
0.8437500000,0,1.3810729980,,,
0.8593750000,0,0.7487487793,,,
0.8750000000,0,-0.1103210002,,,
0.8906250000,0,-1.0658869743,,,
0.9062500000,0,-1.9016720057,,,
0.9218750000,0,-2.4309079647,,,
0.9375000000,0,-2.5933229923,,,
0.9531250000,0,-2.4770510197,,,
0.9687500000,0,-2.2240910530,,,
0.9843750000,0,-1.9449460506,,,
1.0000000000,0,-1.6764219999,,,
1.0156250000,0,-1.3670350313,,,
1.0312500000,0,-0.9657592773,,,
1.0468750000,0,-0.4503479004,,,
1.0625000000,0,0.1716918945,,,
1.0781250000,0,0.8562927246,,,
1.0937500000,0,1.5763850212,,,
1.1093750000,0,2.2988278866,,,
1.1250000000,0,2.9290471077,,,
1.1406250000,0,3.3108520508,,,
1.1562500000,0,3.2687070370,,,
1.1718750000,0,2.6701660156,,,
1.1875000000,0,1.5475770235,,,
1.2031250000,0,0.1655579060,,,
1.2187500000,0,-1.1022030115,,,
1.2343750000,0,-1.9061280489,,,
1.2500000000,0,-2.0813291073,,,
1.2656250000,0,-1.7288509607,,,
1.2812500000,0,-1.1170040369,,,
1.2968750000,0,-0.5092163086,,,
1.3125000000,0,-0.0366516113,,,
1.3281250000,0,0.3295288086,,,
1.3437500000,0,0.6811829209,,,
1.3593750000,0,1.0542600155,,,
1.3750000000,0,1.3666080236,,,
1.3906250000,0,1.4466860294,,,
1.4062500000,0,1.1482239962,,,
1.4218750000,0,0.4922791123,,,
1.4375000000,0,-0.3375853896,,,
1.4531250000,0,-1.0830689669,,,
1.4687500000,0,-1.5408020020,,,
1.4843750000,0,-1.6507869959,,,
1.5000000000,0,-1.5220340490,,,
1.5156250000,0,-1.3129270077,,,
1.5312500000,0,-1.1319890022,,,
1.5468750000,0,-0.9861754775,,,
1.5625000000,0,-0.7859191895,,,
1.5781250000,0,-0.4232482910,,,
1.5937500000,0,0.1318358928,,,
1.6093750000,0,0.7985228896,,,
1.6250000000,0,1.4285889864,,,
1.6406250000,0,1.8372800350,,,
1.6562500000,0,1.9328000546,,,
1.6718750000,0,1.7258609533,,,
1.6875000000,0,1.2893979549,,,
1.7031250000,0,0.7268676758,,,
1.7187500000,0,0.0847778320,,,
1.7343750000,0,-0.6369934082,,,
1.7500000000,0,-1.4312130213,,,
1.7656250000,0,-2.2284550667,,,
1.7812500000,0,-2.8730161190,,,
1.7968750000,0,-3.1665949821,,,
1.8125000000,0,-2.9491579533,,,
1.8281250000,0,-2.2362670898,,,
1.8437500000,0,-1.2394709587,,,
1.8593750000,0,-0.2693786919,,,
1.8750000000,0,0.4088135064,,,
1.8906250000,0,0.6613159180,,,
1.9062500000,0,0.5547484756,,,
1.9218750000,0,0.2925415039,,,
1.9375000000,0,0.1011046991,,,
1.9531250000,0,0.1025696024,,,
1.9687500000,0,0.2984924018,,,
1.9843750000,0,0.5824279785,,,
2.0000000000,0,0.8302916884,,,
2.0156250000,0,0.9678040147,,,
2.0312500000,0,0.9902343750,,,
2.0468750000,0,0.9765930176,,,
2.0625000000,0,1.0251460075,,,
2.0781250000,0,1.2042850256,,,
2.0937500000,0,1.5125119686,,,
2.1093750000,0,1.8525700569,,,
2.1250000000,0,2.0490419865,,,
2.1406250000,0,1.9443049431,,,
2.1562500000,0,1.4847719669,,,
2.1718750000,0,0.7917479873,,,
2.1875000000,0,0.1129150018,,,
2.2031250000,0,-0.2554625869,,,
2.2187500000,0,-0.1928101033,,,
2.2343750000,0,0.2175903022,,,
2.2500000000,0,0.7026062012,,,
2.2656250000,0,0.9715576172,,,
2.2812500000,0,0.8497620225,,,
2.2968750000,0,0.3807067871,,,
2.3125000000,0,-0.2309264988,,,
2.3281250000,0,-0.7476807237,,,
2.3437500000,0,-1.0207209587,,,
2.3593750000,0,-0.9660338759,,,
2.3750000000,0,-0.8090515137,,,
2.3906250000,0,-0.6318054199,,,
2.4062500000,0,-0.3898926079,,,
2.4218750000,0,-0.0472412109,,,
2.4375000000,0,0.3819884956,,,
2.4531250000,0,0.8269042969,,,
2.4687500000,0,1.1524349451,,,
2.4843750000,0,1.2306519747,,,
2.5000000000,0,0.9835205078,,,
2.5156250000,0,0.4222412109,,,
2.5312500000,0,-0.3479919136,,,
2.5468750000,0,-1.1292419434,,,
2.5625000000,0,-1.7169799805,,,
2.5781250000,0,-1.9723509550,,,
2.5937500000,0,-1.8800959587,,,
2.6093750000,0,-1.5642399788,,,
2.6250000000,0,-1.1738590002,,,
2.6406250000,0,-0.8479614258,,,
2.6562500000,0,-0.6045532227,,,
2.6718750000,0,-0.4178467095,,,
2.6875000000,0,-0.2518311143,,,
2.7031250000,0,-0.1188049018,,,
2.7187500000,0,-0.0566711389,,,
2.7343750000,0,-0.0682678223,,,
2.7500000000,0,-0.1092223972,,,
2.7656250000,0,-0.1271667033,,,
2.7812500000,0,-0.1015625000,,,
2.7968750000,0,-0.0884094164,,,
2.8125000000,0,-0.1660767049,,,
2.8281250000,0,-0.3556824028,,,
2.8437500000,0,-0.5588684082,,,
2.8593750000,0,-0.6120911241,,,
2.8750000000,0,-0.3492431939,,,
2.8906250000,0,0.2663573921,,,
2.9062500000,0,1.0751340389,,,
2.9218750000,0,1.8318790197,,,
2.9375000000,0,2.2532958984,,,
2.9531250000,0,2.2134699821,,,
2.9687500000,0,1.7643129826,,,
2.9843750000,0,1.0587769747,,,
3.0000000000,0,0.3135986030,,,
3.0156250000,0,-0.2870177925,,,
3.0312500000,0,-0.6144104004,,,
3.0468750000,0,-0.6335753798,,,
3.0625000000,0,-0.3919678032,,,
3.0781250000,0,-0.0010986330,,,
3.0937500000,0,0.3904724121,,,
3.1093750000,0,0.6853026748,,,
3.1250000000,0,0.8499146104,,,
3.1406250000,0,0.9125977159,,,
3.1562500000,0,0.9411621094,,,
3.1718750000,0,0.9636229873,,,
3.1875000000,0,0.9609375000,,,
3.2031250000,0,0.8767089844,,,
3.2187500000,0,0.6632689834,,,
3.2343750000,0,0.3084106147,,,
3.2500000000,0,-0.1461486965,,,
3.2656250000,0,-0.6463013291,,,
3.2812500000,0,-1.1399539709,,,
3.2968750000,0,-1.5977480412,,,
3.3125000000,0,-1.9846500158,,,
3.3281250000,0,-2.2689509392,,,
3.3437500000,0,-2.4027400017,,,
3.3593750000,0,-2.3730471134,,,
3.3750000000,0,-2.2062990665,,,
3.3906250000,0,-1.9157409668,,,
3.4062500000,0,-1.5574949980,,,
3.4218750000,0,-1.1286319494,,,
3.4375000000,0,-0.6560059190,,,
3.4531250000,0,-0.1408690959,,,
3.4687500000,0,0.3699035943,,,
3.4843750000,0,0.8321837783,,,
3.5000000000,0,1.2125849724,,,
3.5156250000,0,1.4863890409,,,
3.5312500000,0,1.6861879826,,,
3.5468750000,0,1.8153990507,,,
3.5625000000,0,1.8441159725,,,
3.5781250000,0,1.6981199980,,,
3.5937500000,0,1.3275450468,,,
3.6093750000,0,0.7421265244,,,
3.6250000000,0,0.0793151930,,,
3.6406250000,0,-0.4829711914,,,
3.6562500000,0,-0.7687377930,,,
3.6718750000,0,-0.6919860840,,,
3.6875000000,0,-0.3004150093,,,
3.7031250000,0,0.2521362007,,,
3.7187500000,0,0.7831726074,,,
3.7343750000,0,1.1395260096,,,
3.7500000000,0,1.2529599667,,,
3.7656250000,0,1.1620479822,,,
3.7812500000,0,0.9452515244,,,
3.7968750000,0,0.7140502930,,,
3.8125000000,0,0.5559998155,,,
3.8281250000,0,0.4703674018,,,
3.8437500000,0,0.4367676079,,,
3.8593750000,0,0.3763732910,,,
3.8750000000,0,0.2340697944,,,
3.8906250000,0,0.0067138672,,,
3.9062500000,0,-0.2532654107,,,
3.9218750000,0,-0.4914551079,,,
3.9375000000,0,-0.6724547744,,,
3.9531250000,0,-0.7687072754,,,
3.9687500000,0,-0.7977294922,,,
3.9843750000,0,-0.7676392198,,,
4.0000000000,0,-0.6845703125,,,
4.0156250000,0,-0.5266417861,,,
4.0312500000,0,-0.2972716987,,,
4.0468750000,0,0.0062561040,,,
4.0625000000,0,0.3515929878,,,
4.0781250000,0,0.6836243272,,,
4.0937500000,0,0.9570313096,,,
4.1093750000,0,1.1107180119,,,
4.1250000000,0,1.1131589413,,,
4.1406250000,0,0.9418334961,,,
4.1562500000,0,0.6031188965,,,
4.1718750000,0,0.1695861965,,,
4.1875000000,0,-0.2661133111,,,
4.2031250000,0,-0.5900573730,,,
4.2187500000,0,-0.7209166884,,,
4.2343750000,0,-0.6245117188,,,
4.2500000000,0,-0.3047179878,,,
4.2656250000,0,0.1927794963,,,
4.2812500000,0,0.8104248047,,,
4.2968750000,0,1.4432679415,,,
4.3125000000,0,2.0039670467,,,
4.3281250000,0,2.3817141056,,,
4.3437500000,0,2.5521850586,,,
4.3593750000,0,2.5041499138,,,
4.3750000000,0,2.2599790096,,,
4.3906250000,0,1.8279720545,,,
4.4062500000,0,1.2322690487,,,
4.4218750000,0,0.5068358779,,,
4.4375000000,0,-0.2371826023,,,
4.4531250000,0,-0.8421021104,,,
4.4687500000,0,-1.1710510254,,,
4.4843750000,0,-1.1434019804,,,
4.5000000000,0,-0.8587645888,,,
4.5156250000,0,-0.5083922744,,,
4.5312500000,0,-0.2815856934,,,
4.5468750000,0,-0.2640990913,,,
4.5625000000,0,-0.4243468940,,,
4.5781250000,0,-0.6625061035,,,
4.5937500000,0,-0.9138184190,,,
4.6093750000,0,-1.1705930233,,,
4.6250000000,0,-1.4373170137,,,
4.6406250000,0,-1.6713869572,,,
4.6562500000,0,-1.7599179745,,,
4.6718750000,0,-1.5773619413,,,
4.6875000000,0,-1.1308900118,,,
4.7031250000,0,-0.5668944716,,,
4.7187500000,0,-0.1367492974,,,
4.7343750000,0,-0.0098876953,,,
4.7500000000,0,-0.1712341011,,,
4.7656250000,0,-0.4141846001,,,
4.7812500000,0,-0.4624328911,,,
4.7968750000,0,-0.1501770020,,,
4.8125000000,0,0.4734191895,,,
4.8281250000,0,1.1856989861,,,
4.8437500000,0,1.7287290096,,,
4.8593750000,0,1.9512939453,,,
4.8750000000,0,1.8982239962,,,
4.8906250000,0,1.7297970057,,,
4.9062500000,0,1.6110529900,,,
4.9218750000,0,1.5878599882,,,
4.9375000000,0,1.5550229549,,,
4.9531250000,0,1.3656309843,,,
4.9687500000,0,0.8674315810,,,
4.9843750000,0,0.1191406026,,,
5.0000000000,0,-0.7068480849,,,
5.0156250000,0,-1.3769840002,,,
5.0312500000,0,-1.7099610567,,,
5.0468750000,0,-1.6305539608,,,
5.0625000000,0,-1.2536009550,,,
5.0781250000,0,-0.7570496202,,,
5.0937500000,0,-0.3400574028,,,
5.1093750000,0,-0.1237182990,,,
5.1250000000,0,-0.1149901971,,,
5.1406250000,0,-0.3044433892,,,
5.1562500000,0,-0.6432800293,,,
5.1718750000,0,-1.0956120491,,,
5.1875000000,0,-1.6065369844,,,
5.2031250000,0,-2.0964660645,,,
5.2187500000,0,-2.4679870605,,,
5.2343750000,0,-2.6249389648,,,
5.2500000000,0,-2.5451970100,,,
5.2656250000,0,-2.2619628906,,,
5.2812500000,0,-1.8517760038,,,
5.2968750000,0,-1.3473819494,,,
5.3125000000,0,-0.7751464844,,,
5.3281250000,0,-0.1206054986,,,
5.3437500000,0,0.6181945801,,,
5.3593750000,0,1.3802490234,,,
5.3750000000,0,2.0939030647,,,
5.3906250000,0,2.6524960995,,,
5.4062500000,0,3.0006709099,,,
5.4218750000,0,3.1506960392,,,
5.4375000000,0,3.1033940315,,,
5.4531250000,0,2.8556210995,,,
5.4687500000,0,2.3753659725,,,
5.4843750000,0,1.6519470215,,,
5.5000000000,0,0.7886046767,,,
5.5156250000,0,-0.0578002892,,,
5.5312500000,0,-0.6991881728,,,
5.5468750000,0,-1.0288089514,,,
5.5625000000,0,-1.0969539881,,,
5.5781250000,0,-1.0397950411,,,
5.5937500000,0,-1.0526729822,,,
5.6093750000,0,-1.1747440100,,,
5.6250000000,0,-1.3156429529,,,
5.6406250000,0,-1.3027340174,,,
5.6562500000,0,-0.9970703125,,,
5.6718750000,0,-0.3728637993,,,
5.6875000000,0,0.4271239936,,,
5.7031250000,0,1.1492609978,,,
5.7187500000,0,1.5823060274,,,
5.7343750000,0,1.6322330236,,,
5.7500000000,0,1.3610229492,,,
5.7656250000,0,0.9196166992,,,
5.7812500000,0,0.4344176948,,,
5.7968750000,0,0.0051879878,,,
5.8125000000,0,-0.3514403999,,,
5.8281250000,0,-0.6470336914,,,
5.8437500000,0,-0.8803405762,,,
5.8593750000,0,-1.0514529943,,,
5.8750000000,0,-1.1257319450,,,
5.8906250000,0,-1.0794069767,,,
5.9062500000,0,-0.8881530762,,,
5.9218750000,0,-0.5772094727,,,
5.9375000000,0,-0.1802673042,,,
5.9531250000,0,0.2104797065,,,
5.9687500000,0,0.5073546767,,,
5.9843750000,0,0.6181334853,,,
6.0000000000,0,0.5141602159,,,
6.0156250000,0,0.2233276069,,,
6.0312500000,0,-0.1622619927,,,
6.0468750000,0,-0.5041198730,,,
6.0625000000,0,-0.7239990234,,,
6.0781250000,0,-0.7532958984,,,
6.0937500000,0,-0.6330565810,,,
6.1093750000,0,-0.4279479980,,,
6.1250000000,0,-0.1904906929,,,
6.1406250000,0,0.0400085412,,,
6.1562500000,0,0.2580871880,,,
6.1718750000,0,0.4994812012,,,
6.1875000000,0,0.7719420791,,,
6.2031250000,0,1.0414119959,,,
6.2187500000,0,1.2778320313,,,
6.2343750000,0,1.4330140352,,,
6.2500000000,0,1.5087889433,,,
6.2656250000,0,1.5379029512,,,
6.2812500000,0,1.5432430506,,,
6.2968750000,0,1.5178530216,,,
6.3125000000,0,1.3876340389,,,
6.3281250000,0,1.0467829704,,,
6.3437500000,0,0.4262084961,,,
6.3593750000,0,-0.4529724121,,,
6.3750000000,0,-1.4667969942,,,
6.3906250000,0,-2.4040219784,,,
6.4062500000,0,-3.0625920296,,,
6.4218750000,0,-3.3393859863,,,
6.4375000000,0,-3.2462160587,,,
6.4531250000,0,-2.8972170353,,,
6.4687500000,0,-2.3965449333,,,
6.4843750000,0,-1.8160400391,,,
6.5000000000,0,-1.1961059570,,,
6.5156250000,0,-0.5701599121,,,
6.5312500000,0,-0.0098571777,,,
6.5468750000,0,0.3858948052,,,
6.5625000000,0,0.5006713867,,,
6.5781250000,0,0.3114928901,,,
6.5937500000,0,-0.0914916992,,,
6.6093750000,0,-0.5429993272,,,
6.6250000000,0,-0.8654174805,,,
6.6406250000,0,-0.9598082900,,,
6.6562500000,0,-0.8455811143,,,
6.6718750000,0,-0.5702515244,,,
6.6875000000,0,-0.1771851033,,,
6.7031250000,0,0.3359985054,,,
6.7187500000,0,0.9976807237,,,
6.7343750000,0,1.7898249626,,,
6.7500000000,0,2.6081240177,,,
6.7656250000,0,3.2828669548,,,
6.7812500000,0,3.6328430176,,,
6.7968750000,0,3.5825810432,,,
6.8125000000,0,3.1606450081,,,
6.8281250000,0,2.4406430721,,,
6.8437500000,0,1.5447080135,,,
6.8593750000,0,0.5791931152,,,
6.8750000000,0,-0.3730163872,,,
6.8906250000,0,-1.2016299963,,,
6.9062500000,0,-1.7956540585,,,
6.9218750000,0,-2.0805659294,,,
6.9375000000,0,-2.0036621094,,,
6.9531250000,0,-1.6130069494,,,
6.9687500000,0,-1.0204160213,,,
6.9843750000,0,-0.3492125869,,,
7.0000000000,0,0.2691040039,,,
7.0156250000,0,0.7529907227,,,
7.0312500000,0,1.0667109489,,,
7.0468750000,0,1.2005620003,,,
7.0625000000,0,1.1751400232,,,
7.0781250000,0,1.0285639763,,,
7.0937500000,0,0.7968750000,,,
7.1093750000,0,0.5152587891,,,
7.1250000000,0,0.2187500000,,,
7.1406250000,0,-0.0620727502,,,
7.1562500000,0,-0.2676697075,,,
7.1718750000,0,-0.3601073921,,,
7.1875000000,0,-0.3269348145,,,
7.2031250000,0,-0.2013244927,,,
7.2187500000,0,-0.0697326735,,,
7.2343750000,0,0.0202026404,,,
7.2500000000,0,0.0170593299,,,
7.2656250000,0,-0.0532226600,,,
7.2812500000,0,-0.1676024944,,,
7.2968750000,0,-0.2769775093,,,
7.3125000000,0,-0.3509520888,,,
7.3281250000,0,-0.3952332139,,,
7.3437500000,0,-0.4043273926,,,
7.3593750000,0,-0.3923340142,,,
7.3750000000,0,-0.3578490913,,,
7.3906250000,0,-0.3206177056,,,
7.4062500000,0,-0.3147278130,,,
7.4218750000,0,-0.3873291016,,,
7.4375000000,0,-0.5403748155,,,
7.4531250000,0,-0.7261353135,,,
7.4687500000,0,-0.8426207900,,,
7.4843750000,0,-0.7651062012,,,
7.5000000000,0,-0.4490050972,,,
7.5156250000,0,0.0779724121,,,
7.5312500000,0,0.6831665039,,,
7.5468750000,0,1.2491459846,,,
7.5625000000,0,1.7251889706,,,
7.5781250000,0,2.1226809025,,,
7.5937500000,0,2.4660639763,,,
7.6093750000,0,2.7222599983,,,
7.6250000000,0,2.7771298885,,,
7.6406250000,0,2.4616999626,,,
7.6562500000,0,1.6654360294,,,
7.6718750000,0,0.4446411133,,,
7.6875000000,0,-0.9710999131,,,
7.7031250000,0,-2.2269589901,,,
7.7187500000,0,-3.0212399960,,,
7.7343750000,0,-3.2072451115,,,
7.7500000000,0,-2.8310239315,,,
7.7656250000,0,-2.0975649357,,,
7.7812500000,0,-1.2970579863,,,
7.7968750000,0,-0.6582031250,,,
7.8125000000,0,-0.3088684082,,,
7.8281250000,0,-0.2322387993,,,
7.8437500000,0,-0.3062744141,,,
7.8593750000,0,-0.3876343071,,,
7.8750000000,0,-0.3655700982,,,
7.8906250000,0,-0.2236327976,,,
7.9062500000,0,-0.0280456506,,,
7.9218750000,0,0.0929260328,,,
7.9375000000,0,0.0604858398,,,
7.9531250000,0,-0.1527709961,,,
7.9687500000,0,-0.5103148818,,,
7.9843750000,0,-0.8930664063,,,
8.0000000000,1,-1.1749570370,,,
8.0156250000,1,-1.2590329647,,,
8.0312500000,1,-1.0858459473,,,
8.0468750000,1,-0.6811218262,,,
8.0625000000,1,-0.1206360012,,,
8.0781250000,1,0.4801940918,,,
8.0937500000,1,0.9931945801,,,
8.1093750000,1,1.3011779785,,,
8.1250000000,1,1.3774110079,,,
8.1406250000,1,1.2864689827,,,
8.1562500000,1,1.1250309944,,,
8.1718750000,1,0.9761353135,,,
8.1875000000,1,0.8439331055,,,
8.2031250000,1,0.6613159180,,,
8.2187500000,1,0.3422240913,,,
8.2343750000,1,-0.1477050930,,,
8.2500000000,1,-0.7512512207,,,
8.2656250000,1,-1.2954410315,,,
8.2812500000,1,-1.6037600040,,,
8.2968750000,1,-1.5352779627,,,
8.3125000000,1,-1.1040040255,,,
8.3281250000,1,-0.4500732124,,,
8.3437500000,1,0.2044678032,,,
8.3593750000,1,0.6786193848,,,
8.3750000000,1,0.9066771865,,,
8.3906250000,1,0.9691771865,,,
8.4062500000,1,1.0066529512,,,
8.4218750000,1,1.1261600256,,,
8.4375000000,1,1.3278499842,,,
8.4531250000,1,1.5032960176,,,
8.4687500000,1,1.4729000330,,,
8.4843750000,1,1.1228330135,,,
8.5000000000,1,0.4928894043,,,
8.5156250000,1,-0.2491150051,,,
8.5312500000,1,-0.8356018066,,,
8.5468750000,1,-1.0608520508,,,
8.5625000000,1,-0.8456726074,,,
8.5781250000,1,-0.2825622857,,,
8.5937500000,1,0.4182434082,,,
8.6093750000,1,1.0140379667,,,
8.6250000000,1,1.3860169649,,,
8.6406250000,1,1.5337519646,,,
8.6562500000,1,1.5808720589,,,
8.6718750000,1,1.6597900391,,,
8.6875000000,1,1.8145749569,,,
8.7031250000,1,1.9489439726,,,
8.7187500000,1,1.8368530273,,,
8.7343750000,1,1.2932740450,,,
8.7500000000,1,0.2754516900,,,
8.7656250000,1,-1.0175479650,,,
8.7812500000,1,-2.2163701057,,,
8.7968750000,1,-2.9473268986,,,
8.8125000000,1,-2.9599299431,,,
8.8281250000,1,-2.2578740120,,,
8.8437500000,1,-1.0781250000,,,
8.8593750000,1,0.2509459853,,,
8.8750000000,1,1.4032289982,,,
8.8906250000,1,2.1825559139,,,
8.9062500000,1,2.5128169060,,,
8.9218750000,1,2.4399719238,,,
8.9375000000,1,2.0793149471,,,
8.9531250000,1,1.5447690487,,,
8.9687500000,1,0.9638671875,,,
8.9843750000,1,0.4005737007,,,
9.0000000000,1,-0.0790405273,,,
9.0156250000,1,-0.4525145888,,,
9.0312500000,1,-0.7091370225,,,
9.0468750000,1,-0.8558654785,,,
9.0625000000,1,-0.9492188096,,,
9.0781250000,1,-1.0377500057,,,
9.0937500000,1,-1.2051999569,,,
9.1093750000,1,-1.4800419807,,,
9.1250000000,1,-1.7941889763,,,
9.1406250000,1,-2.0130920410,,,
9.1562500000,1,-1.9684449434,,,
9.1718750000,1,-1.5592960119,,,
9.1875000000,1,-0.8351439834,,,
9.2031250000,1,-0.0018615720,,,
9.2187500000,1,0.6949462891,,,
9.2343750000,1,1.0639649630,,,
9.2500000000,1,1.0917359591,,,
9.2656250000,1,0.9055175781,,,
9.2812500000,1,0.7256774902,,,
9.2968750000,1,0.6987000108,,,
9.3125000000,1,0.8369141221,,,
9.3281250000,1,1.0660710335,,,
9.3437500000,1,1.2229919434,,,
9.3593750000,1,1.2406309843,,,
9.3750000000,1,1.1492609978,,,
9.3906250000,1,1.0720520020,,,
9.4062500000,1,1.1655880213,,,
9.4218750000,1,1.4596560001,,,
9.4375000000,1,1.8631290197,,,
9.4531250000,1,2.1381840706,,,
9.4687500000,1,2.0800778866,,,
9.4843750000,1,1.5551149845,,,
9.5000000000,1,0.6422119141,,,
9.5156250000,1,-0.4566344917,,,
9.5312500000,1,-1.5160830021,,,
9.5468750000,1,-2.3435060978,,,
9.5625000000,1,-2.8906559944,,,
9.5781250000,1,-3.1800539494,,,
9.5937500000,1,-3.2840580940,,,
9.6093750000,1,-3.2401731014,,,
9.6250000000,1,-3.0516660213,,,
9.6406250000,1,-2.7037351131,,,
9.6562500000,1,-2.2140200138,,,
9.6718750000,1,-1.6432800293,,,
9.6875000000,1,-1.0552669764,,,
9.7031250000,1,-0.5254821777,,,
9.7187500000,1,-0.0713500977,,,
9.7343750000,1,0.3061523139,,,
9.7500000000,1,0.6263732910,,,
9.7656250000,1,0.8874511719,,,
9.7812500000,1,1.0797419548,,,
9.7968750000,1,1.1940610409,,,
9.8125000000,1,1.2015990019,,,
9.8281250000,1,1.1197810173,,,
9.8437500000,1,0.9595642090,,,
9.8593750000,1,0.7520446777,,,
9.8750000000,1,0.5247191787,,,
9.8906250000,1,0.2893677056,,,
9.9062500000,1,0.0786743164,,,
9.9218750000,1,-0.0513610803,,,
9.9375000000,1,-0.0381164588,,,
9.9531250000,1,0.1250305027,,,
9.9687500000,1,0.4069823921,,,
9.9843750000,1,0.7348937988,,,
10.0000000000,1,1.0349730253,,,
10.0156250000,1,1.2382509708,,,
10.0312500000,1,1.3113100529,,,
10.0468750000,1,1.2388609648,,,
10.0625000000,1,1.0191650391,,,
10.0781250000,1,0.6838073730,,,
10.0937500000,1,0.2577820122,,,
10.1093750000,1,-0.1693419963,,,
10.1250000000,1,-0.4920958877,,,
10.1406250000,1,-0.6335753798,,,
10.1562500000,1,-0.5824584961,,,
10.1718750000,1,-0.4335938096,,,
10.1875000000,1,-0.3271790147,,,
10.2031250000,1,-0.3958435059,,,
10.2187500000,1,-0.6333922744,,,
10.2343750000,1,-0.9576110840,,,
10.2500000000,1,-1.2317810059,,,
10.2656250000,1,-1.3653869629,,,
10.2812500000,1,-1.3483580351,,,
10.2968750000,1,-1.2255860567,,,
10.3125000000,1,-1.0866090059,,,
10.3281250000,1,-0.9895935059,,,
10.3437500000,1,-0.9452515244,,,
10.3593750000,1,-0.9241027832,,,
10.3750000000,1,-0.9042053223,,,
10.3906250000,1,-0.8954467773,,,
10.4062500000,1,-0.9237061143,,,
10.4218750000,1,-1.0003360510,,,
10.4375000000,1,-1.0649410486,,,
10.4531250000,1,-1.0040589571,,,
10.4687500000,1,-0.7287291884,,,
10.4843750000,1,-0.2284546047,,,
10.5000000000,1,0.4154663086,,,
10.5156250000,1,1.0187679529,,,
10.5312500000,1,1.4172359705,,,
10.5468750000,1,1.4971009493,,,
10.5625000000,1,1.2124019861,,,
10.5781250000,1,0.6315612793,,,
10.5937500000,1,-0.1211242974,,,
10.6093750000,1,-0.8832092285,,,
10.6250000000,1,-1.4503480196,,,
10.6406250000,1,-1.6424260139,,,
10.6562500000,1,-1.3604129553,,,
10.6718750000,1,-0.6569824219,,,
10.6875000000,1,0.2862243950,,,
10.7031250000,1,1.1634520292,,,
10.7187500000,1,1.7281490564,,,
10.7343750000,1,1.8779300451,,,
10.7500000000,1,1.7197879553,,,
10.7656250000,1,1.4686889648,,,
10.7812500000,1,1.3322750330,,,
10.7968750000,1,1.4267879725,,,
10.8125000000,1,1.7132869959,,,
10.8281250000,1,2.0473330021,,,
10.8437500000,1,2.2835690975,,,
10.8593750000,1,2.3643488884,,,
10.8750000000,1,2.2958679199,,,
10.8906250000,1,2.1330571175,,,
10.9062500000,1,1.8971860409,,,
10.9218750000,1,1.5817259550,,,
10.9375000000,1,1.1412049532,,,
10.9531250000,1,0.5829772949,,,
10.9687500000,1,-0.0356445313,,,
10.9843750000,1,-0.6097412109,,,
11.0000000000,1,-0.9941710830,,,
11.0156250000,1,-1.1029969454,,,
11.0312500000,1,-0.9330443740,,,
11.0468750000,1,-0.5912476182,,,
11.0625000000,1,-0.2913512886,,,
11.0781250000,1,-0.2072449028,,,
11.0937500000,1,-0.4298400879,,,
11.1093750000,1,-0.9260864258,,,
11.1250000000,1,-1.5242609978,,,
11.1406250000,1,-1.9972230196,,,
11.1562500000,1,-2.1622009277,,,
11.1718750000,1,-1.9466249943,,,
11.1875000000,1,-1.4144899845,,,
11.2031250000,1,-0.7421265244,,,
11.2187500000,1,-0.1082153022,,,
11.2343750000,1,0.3275451958,,,
11.2500000000,1,0.5279846191,,,
11.2656250000,1,0.5325623155,,,
11.2812500000,1,0.4437865913,,,
11.2968750000,1,0.3294067085,,,
11.3125000000,1,0.2330016941,,,
11.3281250000,1,0.1560668945,,,
11.3437500000,1,0.0856628418,,,
11.3593750000,1,0.0223388709,,,
11.3750000000,1,-0.0116272001,,,
11.3906250000,1,0.0267028809,,,
11.4062500000,1,0.1602783054,,,
11.4218750000,1,0.3773193061,,,
11.4375000000,1,0.5858458877,,,
11.4531250000,1,0.7065430284,,,
11.4687500000,1,0.6893311143,,,
11.4843750000,1,0.5633850098,,,
11.5000000000,1,0.4187316895,,,
11.5156250000,1,0.3895874023,,,
11.5312500000,1,0.5404052734,,,
11.5468750000,1,0.8411560059,,,
11.5625000000,1,1.1423950195,,,
11.5781250000,1,1.2561340332,,,
11.5937500000,1,1.0686650276,,,
11.6093750000,1,0.5624390244,,,
11.6250000000,1,-0.1480102986,,,
11.6406250000,1,-0.8792114258,,,
11.6562500000,1,-1.4621280432,,,
11.6718750000,1,-1.8046259880,,,
11.6875000000,1,-1.8990169764,,,
11.7031250000,1,-1.8039250374,,,
11.7187500000,1,-1.5698850155,,,
11.7343750000,1,-1.2448430061,,,
11.7500000000,1,-0.8490294814,,,
11.7656250000,1,-0.3927307129,,,
11.7812500000,1,0.1103515998,,,
11.7968750000,1,0.5997313857,,,
11.8125000000,1,1.0050350428,,,
11.8281250000,1,1.2372440100,,,
11.8437500000,1,1.2673649788,,,
11.8593750000,1,1.0997920036,,,
11.8750000000,1,0.7757567763,,,
11.8906250000,1,0.3434143066,,,
11.9062500000,1,-0.1497498006,,,
11.9218750000,1,-0.6798400879,,,
11.9375000000,1,-1.2308959961,,,
11.9531250000,1,-1.7290339470,,,
11.9687500000,1,-2.1044309139,,,
11.9843750000,1,-2.2414550781,,,
12.0000000000,1,-2.0898129940,,,
12.0156250000,1,-1.6479489803,,,
12.0312500000,1,-0.9936218262,,,
12.0468750000,1,-0.2509765923,,,
12.0625000000,1,0.4419861138,,,
12.0781250000,1,0.9866333008,,,
12.0937500000,1,1.3458559513,,,
12.1093750000,1,1.5034480095,,,
12.1250000000,1,1.5019229650,,,
12.1406250000,1,1.3807369471,,,
12.1562500000,1,1.1891779900,,,
12.1718750000,1,0.9844970703,,,
12.1875000000,1,0.8057860732,,,
12.2031250000,1,0.6815490723,,,
12.2187500000,1,0.6313170791,,,
12.2343750000,1,0.6359863281,,,
12.2500000000,1,0.6686096191,,,
12.2656250000,1,0.6989135742,,,
12.2812500000,1,0.7278748155,,,
12.2968750000,1,0.7734069824,,,
12.3125000000,1,0.8894348145,,,
12.3281250000,1,1.0813900232,,,
12.3437500000,1,1.2851560116,,,
12.3593750000,1,1.3792109489,,,
12.3750000000,1,1.2308959961,,,
12.3906250000,1,0.7619628906,,,
12.4062500000,1,0.0353698693,,,
12.4218750000,1,-0.7906494141,,,
12.4375000000,1,-1.5144649744,,,
12.4531250000,1,-1.9622189999,,,
12.4687500000,1,-2.1029360294,,,
12.4843750000,1,-1.9776309729,,,
12.5000000000,1,-1.6567380428,,,
12.5156250000,1,-1.1931149960,,,
12.5312500000,1,-0.6264343262,,,
12.5468750000,1,0.0235900898,,,
12.5625000000,1,0.6665039063,,,
12.5781250000,1,1.1955870390,,,
12.5937500000,1,1.5309449434,,,
12.6093750000,1,1.6387629509,,,
12.6250000000,1,1.5683289766,,,
12.6406250000,1,1.3669739962,,,
12.6562500000,1,1.0206910372,,,
12.6718750000,1,0.4595336914,,,
12.6875000000,1,-0.3519287109,,,
12.7031250000,1,-1.3545839787,,,
12.7187500000,1,-2.3163759708,,,
12.7343750000,1,-2.9356689453,,,
12.7500000000,1,-2.9737238884,,,
12.7656250000,1,-2.3984379768,,,
12.7812500000,1,-1.3946529627,,,
12.7968750000,1,-0.3077087104,,,
12.8125000000,1,0.5712584853,,,
12.8281250000,1,1.1169739962,,,
12.8437500000,1,1.3466490507,,,
12.8593750000,1,1.3909909725,,,
12.8750000000,1,1.3685610294,,,
12.8906250000,1,1.3140560389,,,
12.9062500000,1,1.2216490507,,,
12.9218750000,1,1.0882259607,,,
12.9375000000,1,0.9021301270,,,
12.9531250000,1,0.6881104112,,,
12.9687500000,1,0.4595642090,,,
12.9843750000,1,0.1998291016,,,
13.0000000000,1,-0.0838012695,,,
13.0156250000,1,-0.3266907036,,,
13.0312500000,1,-0.4557799995,,,
13.0468750000,1,-0.3786011040,,,
13.0625000000,1,-0.0904541016,,,
13.0781250000,1,0.3041382134,,,
13.0937500000,1,0.6357117295,,,
13.1093750000,1,0.7570189834,,,
13.1250000000,1,0.6271973252,,,
13.1406250000,1,0.3149718940,,,
13.1562500000,1,-0.0454406701,,,
13.1718750000,1,-0.3625792861,,,
13.1875000000,1,-0.6145935059,,,
13.2031250000,1,-0.8833922744,,,
13.2187500000,1,-1.2473750114,,,
13.2343750000,1,-1.6802979708,,,
13.2500000000,1,-2.0621340275,,,
13.2656250000,1,-2.1908569336,,,
13.2812500000,1,-1.9141540527,,,
13.2968750000,1,-1.2436219454,,,
13.3125000000,1,-0.3544921875,,,
13.3281250000,1,0.5122985840,,,
13.3437500000,1,1.1338200569,,,
13.3593750000,1,1.4166870117,,,
13.3750000000,1,1.4449160099,,,
13.3906250000,1,1.3668520451,,,
13.4062500000,1,1.3272399902,,,
13.4218750000,1,1.3993840218,,,
13.4375000000,1,1.5118709803,,,
13.4531250000,1,1.5254820585,,,
13.4687500000,1,1.3222659826,,,
13.4843750000,1,0.8607482910,,,
13.5000000000,1,0.2517699897,,,
13.5156250000,1,-0.3070983887,,,
13.5312500000,1,-0.6146851182,,,
13.5468750000,1,-0.5577086806,,,
13.5625000000,1,-0.1526488960,,,
13.5781250000,1,0.5010375977,,,
13.5937500000,1,1.2292480469,,,
13.6093750000,1,1.9224549532,,,
13.6250000000,1,2.4928588867,,,
13.6406250000,1,2.9067990780,,,
13.6562500000,1,3.1079099178,,,
13.6718750000,1,3.0033259392,,,
13.6875000000,1,2.5588378906,,,
13.7031250000,1,1.8096309900,,,
13.7187500000,1,0.9168395996,,,
13.7343750000,1,0.1131896973,,,
13.7500000000,1,-0.4095763862,,,
13.7656250000,1,-0.6206359863,,,
13.7812500000,1,-0.6656188965,,,
13.7968750000,1,-0.7832031250,,,
13.8125000000,1,-1.1538089514,,,
13.8281250000,1,-1.7720949650,,,
13.8437500000,1,-2.4248960018,,,
13.8593750000,1,-2.8257749081,,,
13.8750000000,1,-2.7511289120,,,
13.8906250000,1,-2.2094728947,,,
13.9062500000,1,-1.4173890352,,,
13.9218750000,1,-0.6860045791,,,
13.9375000000,1,-0.2599182129,,,
13.9531250000,1,-0.1822814941,,,
13.9687500000,1,-0.2908324897,,,
13.9843750000,1,-0.3764953911,,,
14.0000000000,1,-0.3002013862,,,
14.0156250000,1,-0.0986022875,,,
14.0312500000,1,0.0425415002,,,
14.0468750000,1,-0.0626220703,,,
14.0625000000,1,-0.5014647841,,,
14.0781250000,1,-1.1985169649,,,
14.0937500000,1,-1.9504699707,,,
14.1093750000,1,-2.5475769043,,,
14.1250000000,1,-2.8514099121,,,
14.1406250000,1,-2.8097229004,,,
14.1562500000,1,-2.4568181038,,,
14.1718750000,1,-1.8751529455,,,
14.1875000000,1,-1.1669919491,,,
14.2031250000,1,-0.4602355957,,,
14.2187500000,1,0.1076354980,,,
14.2343750000,1,0.4117737114,,,
14.2500000000,1,0.4110412896,,,
14.2656250000,1,0.1667480022,,,
14.2812500000,1,-0.1620482951,,,
14.2968750000,1,-0.3792419136,,,
14.3125000000,1,-0.3682250977,,,
14.3281250000,1,-0.1200561970,,,
14.3437500000,1,0.2610779107,,,
14.3593750000,1,0.6266785264,,,
14.3750000000,1,0.8869628906,,,
14.3906250000,1,1.0317690372,,,
14.4062500000,1,1.1217650175,,,
14.4218750000,1,1.2459720373,,,
14.4375000000,1,1.4782409668,,,
14.4531250000,1,1.7972409725,,,
14.4687500000,1,2.1293330193,,,
14.4843750000,1,2.3648068905,,,
14.5000000000,1,2.4503779411,,,
14.5156250000,1,2.3767089844,,,
14.5312500000,1,2.1772770882,,,
14.5468750000,1,1.8299870491,,,
14.5625000000,1,1.3050229549,,,
14.5781250000,1,0.5487976074,,,
14.5937500000,1,-0.3989867866,,,
14.6093750000,1,-1.3965150118,,,
14.6250000000,1,-2.1941530704,,,
14.6406250000,1,-2.5592958927,,,
14.6562500000,1,-2.3571469784,,,
14.6718750000,1,-1.6707459688,,,
14.6875000000,1,-0.7502747178,,,
14.7031250000,1,0.0993041992,,,
14.7187500000,1,0.6665039063,,,
14.7343750000,1,0.9038696289,,,
14.7500000000,1,0.9125670791,,,
14.7656250000,1,0.8465880752,,,
14.7812500000,1,0.7648925781,,,
14.7968750000,1,0.6587830186,,,
14.8125000000,1,0.4752807915,,,
14.8281250000,1,0.1765137017,,,
14.8437500000,1,-0.2007751018,,,
14.8593750000,1,-0.5423278809,,,
14.8750000000,1,-0.7278441787,,,
14.8906250000,1,-0.6726378798,,,
14.9062500000,1,-0.4063110054,,,
14.9218750000,1,-0.0690917969,,,
14.9375000000,1,0.1546631008,,,
14.9531250000,1,0.1654662937,,,
14.9687500000,1,-0.0015563960,,,
14.9843750000,1,-0.2173157036,,,
15.0000000000,1,-0.3066405952,,,
15.0156250000,1,-0.1630554050,,,
15.0312500000,1,0.2207642049,,,
15.0468750000,1,0.7237548828,,,
15.0625000000,1,1.2285460234,,,
15.0781250000,1,1.6011660099,,,
15.0937500000,1,1.7969969511,,,
15.1093750000,1,1.8186949492,,,
15.1250000000,1,1.7010799646,,,
15.1406250000,1,1.4082640409,,,
15.1562500000,1,0.9487915039,,,
15.1718750000,1,0.3443298042,,,
15.1875000000,1,-0.3030700982,,,
15.2031250000,1,-0.8156738281,,,
15.2187500000,1,-1.0561829805,,,
15.2343750000,1,-0.9702454209,,,
15.2500000000,1,-0.6239318848,,,
15.2656250000,1,-0.1647644043,,,
15.2812500000,1,0.1857604980,,,
15.2968750000,1,0.2888183892,,,
15.3125000000,1,0.0771179199,,,
15.3281250000,1,-0.3736267090,,,
15.3437500000,1,-0.8863831162,,,
15.3593750000,1,-1.2650450468,,,
15.3750000000,1,-1.3769840002,,,
15.3906250000,1,-1.1939389706,,,
15.4062500000,1,-0.8086853027,,,
15.4218750000,1,-0.3882445991,,,
15.4375000000,1,-0.1050414965,,,
15.4531250000,1,-0.0808410570,,,
15.4687500000,1,-0.3436278999,,,
15.4843750000,1,-0.8066101074,,,
15.5000000000,1,-1.3185119629,,,
15.5156250000,1,-1.7209470272,,,
15.5312500000,1,-1.8916629553,,,
15.5468750000,1,-1.7991030216,,,
15.5625000000,1,-1.4750369787,,,
15.5781250000,1,-0.9443969727,,,
15.5937500000,1,-0.2546691895,,,
15.6093750000,1,0.5397034287,,,
15.6250000000,1,1.3802189827,,,
15.6406250000,1,2.0722959042,,,
15.6562500000,1,2.4388120174,,,
15.6718750000,1,2.3185729980,,,
15.6875000000,1,1.6893620491,,,
15.7031250000,1,0.7113646865,,,
15.7187500000,1,-0.3181152046,,,
15.7343750000,1,-1.1235959530,,,
15.7500000000,1,-1.5423280001,,,
15.7656250000,1,-1.5707089901,,,
15.7812500000,1,-1.3710329533,,,
15.7968750000,1,-1.0723880529,,,
15.8125000000,1,-0.7412415147,,,
15.8281250000,1,-0.3295288086,,,
15.8437500000,1,0.2416992038,,,
15.8593750000,1,0.9816588759,,,
15.8750000000,1,1.7534480095,,,
15.8906250000,1,2.3421330452,,,
15.9062500000,1,2.5650019646,,,
15.9218750000,1,2.3370969296,,,
15.9375000000,1,1.7522280216,,,
15.9531250000,1,1.0274349451,,,
15.9687500000,1,0.3842773139,,,
15.9843750000,1,-0.0245666504,,,
16.0000000000,2,-0.1801757962,,,
16.0156250000,2,-0.1722106934,,,
16.0312500000,2,-0.1034851000,,,
16.0468750000,2,-0.0291137695,,,
16.0625000000,2,0.0191040002,,,
16.0781250000,2,0.0629577637,,,
16.0937500000,2,0.1080017015,,,
16.1093750000,2,0.1463928074,,,
16.1250000000,2,0.1832274944,,,
16.1406250000,2,0.2347716987,,,
16.1562500000,2,0.3457336128,,,
16.1718750000,2,0.5438842773,,,
16.1875000000,2,0.8359375000,,,
16.2031250000,2,1.1298220158,,,
16.2187500000,2,1.3179630041,,,
16.2343750000,2,1.2796629667,,,
16.2500000000,2,0.9714354873,,,
16.2656250000,2,0.4343566895,,,
16.2812500000,2,-0.2058410943,,,
16.2968750000,2,-0.8065186143,,,
16.3125000000,2,-1.2569580078,,,
16.3281250000,2,-1.5206300020,,,
16.3437500000,2,-1.6496889591,,,
16.3593750000,2,-1.7000730038,,,
16.3750000000,2,-1.7154849768,,,
16.3906250000,2,-1.6722719669,,,
16.4062500000,2,-1.5241700411,,,
16.4218750000,2,-1.2320560217,,,
16.4375000000,2,-0.8299561143,,,
16.4531250000,2,-0.4289855957,,,
16.4687500000,2,-0.1690063030,,,
16.4843750000,2,-0.1231689006,,,
16.5000000000,2,-0.2270507962,,,
16.5156250000,2,-0.2928467095,,,
16.5312500000,2,-0.1137695014,,,
16.5468750000,2,0.4192504883,,,
16.5625000000,2,1.2006230354,,,
16.5781250000,2,1.9724730253,,,
16.5937500000,2,2.4103999138,,,
16.6093750000,2,2.3165891171,,,
16.6250000000,2,1.7048649788,,,
16.6406250000,2,0.8117675781,,,
16.6562500000,2,-0.0398559608,,,
16.6718750000,2,-0.5831298828,,,
16.6875000000,2,-0.6625977159,,,
16.7031250000,2,-0.3411254883,,,
16.7187500000,2,0.2232055962,,,
16.7343750000,2,0.8150023818,,,
16.7500000000,2,1.2555539608,,,
16.7656250000,2,1.4356379509,,,
16.7812500000,2,1.3226009607,,,
16.7968750000,2,0.9273986816,,,
16.8125000000,2,0.2922362983,,,
16.8281250000,2,-0.5313109756,,,
16.8437500000,2,-1.4533079863,,,
16.8593750000,2,-2.3141779900,,,
16.8750000000,2,-2.9309689999,,,
16.8906250000,2,-3.1395258904,,,
16.9062500000,2,-2.8750000000,,,
16.9218750000,2,-2.2167971134,,,
16.9375000000,2,-1.3936769962,,,
16.9531250000,2,-0.6763916016,,,
16.9687500000,2,-0.2507323921,,,
16.9843750000,2,-0.1161499023,,,
17.0000000000,2,-0.1259154975,,,
17.0156250000,2,-0.0394897498,,,
17.0312500000,2,0.2648926079,,,
17.0468750000,2,0.7604675293,,,
17.0625000000,2,1.2833249569,,,
17.0781250000,2,1.6510009766,,,
17.0937500000,2,1.7676700354,,,
17.1093750000,2,1.6769100428,,,
17.1250000000,2,1.4880069494,,,
17.1406250000,2,1.3117979765,,,
17.1562500000,2,1.1582640409,,,
17.1718750000,2,0.9482421875,,,
17.1875000000,2,0.6019896865,,,
17.2031250000,2,0.0993041992,,,
17.2187500000,2,-0.4795227051,,,
17.2343750000,2,-0.9897766113,,,
17.2500000000,2,-1.2934269905,,,
17.2656250000,2,-1.3399959803,,,
17.2812500000,2,-1.1522220373,,,
17.2968750000,2,-0.8270264268,,,
17.3125000000,2,-0.4307861030,,,
17.3281250000,2,-0.0154724102,,,
17.3437500000,2,0.3885192871,,,
17.3593750000,2,0.7179871202,,,
17.3750000000,2,0.8923339844,,,
17.3906250000,2,0.8530883789,,,
17.4062500000,2,0.5756226182,,,
17.4218750000,2,0.1474608928,,,
17.4375000000,2,-0.2974854112,,,
17.4531250000,2,-0.6676024795,,,
17.4687500000,2,-0.9496154785,,,
17.4843750000,2,-1.1818850040,,,
17.5000000000,2,-1.4088749886,,,
17.5156250000,2,-1.5765379667,,,
17.5312500000,2,-1.5680539608,,,
17.5468750000,2,-1.2318120003,,,
17.5625000000,2,-0.5367736816,,,
17.5781250000,2,0.3890686035,,,
17.5937500000,2,1.2699580193,,,
17.6093750000,2,1.8509520292,,,
17.6250000000,2,1.9901119471,,,
17.6406250000,2,1.7474370003,,,
17.6562500000,2,1.3322139978,,,
17.6718750000,2,0.9770812988,,,
17.6875000000,2,0.8216248155,,,
17.7031250000,2,0.8715209961,,,
17.7187500000,2,1.0107729435,,,
17.7343750000,2,1.1268919706,,,
17.7500000000,2,1.1283570528,,,
17.7656250000,2,1.0021669865,,,
17.7812500000,2,0.7916259766,,,
17.7968750000,2,0.5563660264,,,
17.8125000000,2,0.3672485054,,,
17.8281250000,2,0.2718200982,,,
17.8437500000,2,0.3260802925,,,
17.8593750000,2,0.5325927734,,,
17.8750000000,2,0.8684082031,,,
17.8906250000,2,1.2536619902,,,
17.9062500000,2,1.5807189941,,,
17.9218750000,2,1.7335510254,,,
17.9375000000,2,1.6647950411,,,
17.9531250000,2,1.3701169491,,,
17.9687500000,2,0.8902587891,,,
17.9843750000,2,0.3074645996,,,
18.0000000000,2,-0.2865295112,,,
18.0156250000,2,-0.8021851182,,,
18.0312500000,2,-1.1776429415,,,
18.0468750000,2,-1.3719480038,,,
18.0625000000,2,-1.4001770020,,,
18.0781250000,2,-1.3120729923,,,
18.0937500000,2,-1.2133790255,,,
18.1093750000,2,-1.1902769804,,,
18.1250000000,2,-1.2893680334,,,
18.1406250000,2,-1.4683229923,,,
18.1562500000,2,-1.6378480196,,,
18.1718750000,2,-1.6866149902,,,
18.1875000000,2,-1.5607299805,,,
18.2031250000,2,-1.3162540197,,,
18.2187500000,2,-1.0579530001,,,
18.2343750000,2,-0.8864135742,,,
18.2500000000,2,-0.8610535264,,,
18.2656250000,2,-0.9609984756,,,
18.2812500000,2,-1.1314389706,,,
18.2968750000,2,-1.3273320198,,,
18.3125000000,2,-1.5139470100,,,
18.3281250000,2,-1.7013850212,,,
18.3437500000,2,-1.9025880098,,,
18.3593750000,2,-2.0779109001,,,
18.3750000000,2,-2.1201479435,,,
18.3906250000,2,-1.9209289551,,,
18.4062500000,2,-1.4142760038,,,
18.4218750000,2,-0.6179810166,,,
18.4375000000,2,0.3472900093,,,
18.4531250000,2,1.3089289665,,,
18.4687500000,2,2.0871579647,,,
18.4843750000,2,2.5538640022,,,
18.5000000000,2,2.6845090389,,,
18.5156250000,2,2.5223391056,,,
18.5312500000,2,2.1725459099,,,
18.5468750000,2,1.7365419865,,,
18.5625000000,2,1.3143310547,,,
18.5781250000,2,0.9380797744,,,
18.5937500000,2,0.5693969727,,,
18.6093750000,2,0.1295471042,,,
18.6250000000,2,-0.4357909858,,,
18.6406250000,2,-1.1034549475,,,
18.6562500000,2,-1.7405090332,,,
18.6718750000,2,-2.1231989861,,,
18.6875000000,2,-2.0429689884,,,
18.7031250000,2,-1.4233089685,,,
18.7187500000,2,-0.3912048042,,,
18.7343750000,2,0.7710571289,,,
18.7500000000,2,1.7370610237,,,
18.7656250000,2,2.3031010628,,,
18.7812500000,2,2.4726870060,,,
18.7968750000,2,2.3922419548,,,
18.8125000000,2,2.2570500374,,,
18.8281250000,2,2.1848750114,,,
18.8437500000,2,2.1466979980,,,
18.8593750000,2,2.0456540585,,,
18.8750000000,2,1.8363950253,,,
18.8906250000,2,1.6037600040,,,
18.9062500000,2,1.4775389433,,,
18.9218750000,2,1.5440980196,,,
18.9375000000,2,1.7466429472,,,
18.9531250000,2,1.8906860352,,,
18.9687500000,2,1.7838129997,,,
18.9843750000,2,1.3387449980,,,
19.0000000000,2,0.6835327148,,,
19.0156250000,2,0.0777893066,,,
19.0312500000,2,-0.2367859036,,,
19.0468750000,2,-0.2184143066,,,
19.0625000000,2,-0.0076904302,,,
19.0781250000,2,0.1297301948,,,
19.0937500000,2,0.0010681150,,,
19.1093750000,2,-0.4212341011,,,
19.1250000000,2,-0.9880371094,,,
19.1406250000,2,-1.4973750114,,,
19.1562500000,2,-1.8078609705,,,
19.1718750000,2,-1.9356689453,,,
19.1875000000,2,-2.0116269588,,,
19.2031250000,2,-2.1392819881,,,
19.2187500000,2,-2.3295590878,,,
19.2343750000,2,-2.4687500000,,,
19.2500000000,2,-2.3962399960,,,
19.2656250000,2,-2.0017089844,,,
19.2812500000,2,-1.3361819983,,,
19.2968750000,2,-0.5378112793,,,
19.3125000000,2,0.1653137058,,,
19.3281250000,2,0.6158751845,,,
19.3437500000,2,0.7729492188,,,
19.3593750000,2,0.6990966797,,,
19.3750000000,2,0.4919739068,,,
19.3906250000,2,0.2261352986,,,
19.4062500000,2,-0.0603942908,,,
19.4218750000,2,-0.4041137993,,,
19.4375000000,2,-0.7940369248,,,
19.4531250000,2,-1.1959229708,,,
19.4687500000,2,-1.5593260527,,,
19.4843750000,2,-1.7954100370,,,
19.5000000000,2,-1.8495789766,,,
19.5156250000,2,-1.7269289494,,,
19.5312500000,2,-1.4541629553,,,
19.5468750000,2,-1.1009830236,,,
19.5625000000,2,-0.7431030273,,,
19.5781250000,2,-0.4304809868,,,
19.5937500000,2,-0.1559143066,,,
19.6093750000,2,0.1046143025,,,
19.6250000000,2,0.4003905952,,,
19.6406250000,2,0.7365723252,,,
19.6562500000,2,1.1014100313,,,
19.6718750000,2,1.4441529512,,,
19.6875000000,2,1.7062679529,,,
19.7031250000,2,1.8047790527,,,
19.7187500000,2,1.6816710234,,,
19.7343750000,2,1.3155519962,,,
19.7500000000,2,0.7229614258,,,
19.7656250000,2,0.0500183105,,,
19.7812500000,2,-0.5143433213,,,
19.7968750000,2,-0.7678527832,,,
19.8125000000,2,-0.6006469727,,,
19.8281250000,2,-0.0601806603,,,
19.8437500000,2,0.6172484756,,,
19.8593750000,2,1.1459050179,,,
19.8750000000,2,1.3089289665,,,
19.8906250000,2,1.0769040585,,,
19.9062500000,2,0.6289063096,,,
19.9218750000,2,0.2300720066,,,
19.9375000000,2,0.0897827074,,,
19.9531250000,2,0.2781066895,,,
19.9687500000,2,0.6759337783,,,
19.9843750000,2,1.0951540470,,,
20.0000000000,2,1.3574219942,,,
20.0156250000,2,1.3880920410,,,
20.0312500000,2,1.2279360294,,,
20.0468750000,2,0.9904785156,,,
20.0625000000,2,0.8327332139,,,
20.0781250000,2,0.8388367295,,,
20.0937500000,2,1.0170290470,,,
20.1093750000,2,1.2636719942,,,
20.1250000000,2,1.4533690214,,,
20.1406250000,2,1.4551390409,,,
20.1562500000,2,1.2371220589,,,
20.1718750000,2,0.8564453125,,,
20.1875000000,2,0.4309386909,,,
20.2031250000,2,0.0768737793,,,
20.2187500000,2,-0.1518860012,,,
20.2343750000,2,-0.2618713081,,,
20.2500000000,2,-0.3440246880,,,
20.2656250000,2,-0.4846802056,,,
20.2812500000,2,-0.7720947266,,,
20.2968750000,2,-1.2178959846,,,
20.3125000000,2,-1.7742609978,,,
20.3281250000,2,-2.3301999569,,,
20.3437500000,2,-2.7408750057,,,
20.3593750000,2,-2.9063420296,,,
20.3750000000,2,-2.7754518986,,,
20.3906250000,2,-2.3563539982,,,
20.4062500000,2,-1.7203060389,,,
20.4218750000,2,-0.9371337891,,,
20.4375000000,2,-0.0592956506,,,
20.4531250000,2,0.8609619141,,,
20.4687500000,2,1.6957700253,,,
20.4843750000,2,2.2914121151,,,
20.5000000000,2,2.4532780647,,,
20.5156250000,2,2.0932309628,,,
20.5312500000,2,1.2839659452,,,
20.5468750000,2,0.2530517876,,,
20.5625000000,2,-0.6926574707,,,
20.5781250000,2,-1.3041080236,,,
20.5937500000,2,-1.4673459530,,,
20.6093750000,2,-1.2809139490,,,
20.6250000000,2,-0.9111022949,,,
20.6406250000,2,-0.5234069824,,,
20.6562500000,2,-0.2201537937,,,
20.6718750000,2,-0.0132446298,,,
20.6875000000,2,0.1255493015,,,
20.7031250000,2,0.2340393066,,,
20.7187500000,2,0.3302916884,,,
20.7343750000,2,0.4297485054,,,
20.7500000000,2,0.5358886719,,,
20.7656250000,2,0.6846312881,,,
20.7812500000,2,0.8664855957,,,
20.7968750000,2,1.0598750114,,,
20.8125000000,2,1.1921689510,,,
20.8281250000,2,1.2226259708,,,
20.8437500000,2,1.1791080236,,,
20.8593750000,2,1.0863339901,,,
20.8750000000,2,0.9718933105,,,
20.8906250000,2,0.8139954209,,,
20.9062500000,2,0.5459290147,,,
20.9218750000,2,0.1164856032,,,
20.9375000000,2,-0.4537658989,,,
20.9531250000,2,-1.0200500488,,,
20.9687500000,2,-1.4100650549,,,
20.9843750000,2,-1.4449770451,,,
21.0000000000,2,-1.1339420080,,,
21.0156250000,2,-0.6149901748,,,
21.0312500000,2,-0.1144713983,,,
21.0468750000,2,0.1738585979,,,
21.0625000000,2,0.1552733928,,,
21.0781250000,2,-0.1319275051,,,
21.0937500000,2,-0.5824279785,,,
21.1093750000,2,-1.1004940271,,,
21.1250000000,2,-1.5959780216,,,
21.1406250000,2,-2.0269470215,,,
21.1562500000,2,-2.3521730900,,,
21.1718750000,2,-2.5090639591,,,
21.1875000000,2,-2.4512329102,,,
21.2031250000,2,-2.1734919548,,,
21.2187500000,2,-1.6674499512,,,
21.2343750000,2,-0.9683837891,,,
21.2500000000,2,-0.1283874959,,,
21.2656250000,2,0.8006591797,,,
21.2812500000,2,1.7245789766,,,
21.2968750000,2,2.5227971077,,,
21.3125000000,2,3.0666809082,,,
21.3281250000,2,3.2307429314,,,
21.3437500000,2,2.9782409668,,,
21.3593750000,2,2.3757629395,,,
21.3750000000,2,1.5859680176,,,
21.3906250000,2,0.7782288194,,,
21.4062500000,2,0.0865173265,,,
21.4218750000,2,-0.4464417100,,,
21.4375000000,2,-0.8430786133,,,
21.4531250000,2,-1.1236569881,,,
21.4687500000,2,-1.2737430334,,,
21.4843750000,2,-1.2074890137,,,
21.5000000000,2,-0.8530579209,,,
21.5156250000,2,-0.2034302056,,,
21.5312500000,2,0.6199645996,,,
21.5468750000,2,1.4681700468,,,
21.5625000000,2,2.1773068905,,,
21.5781250000,2,2.6677548885,,,
21.5937500000,2,2.9724431038,,,
21.6093750000,2,3.1519169807,,,
21.6250000000,2,3.2475280762,,,
21.6406250000,2,3.2026979923,,,
21.6562500000,2,2.9019169807,,,
21.6718750000,2,2.2667849064,,,
21.6875000000,2,1.3258060217,,,
21.7031250000,2,0.2298889011,,,
21.7187500000,2,-0.8069763184,,,
21.7343750000,2,-1.5951839685,,,
21.7500000000,2,-2.0576479435,,,
21.7656250000,2,-2.2399599552,,,
21.7812500000,2,-2.2457580566,,,
21.7968750000,2,-2.1846621037,,,
21.8125000000,2,-2.0721130371,,,
21.8281250000,2,-1.8802800179,,,
21.8437500000,2,-1.5638430119,,,
21.8593750000,2,-1.1048580408,,,
21.8750000000,2,-0.5579224229,,,
21.8906250000,2,-0.0470886193,,,
21.9062500000,2,0.3117676079,,,
21.9218750000,2,0.4037781060,,,
21.9375000000,2,0.1590270996,,,
21.9531250000,2,-0.3883971870,,,
21.9687500000,2,-1.1505130529,,,
21.9843750000,2,-1.9789119959,,,
22.0000000000,2,-2.6745300293,,,
22.0156250000,2,-3.0658569336,,,
22.0312500000,2,-3.0745239258,,,
22.0468750000,2,-2.7156679630,,,
22.0625000000,2,-2.1580510139,,,
22.0781250000,2,-1.6035770178,,,
22.0937500000,2,-1.1964420080,,,
22.1093750000,2,-0.9615784287,,,
22.1250000000,2,-0.7745056152,,,
22.1406250000,2,-0.4436034858,,,
22.1562500000,2,0.1203308031,,,
22.1718750000,2,0.8235167861,,,
22.1875000000,2,1.4116519690,,,
22.2031250000,2,1.5863039494,,,
22.2187500000,2,1.2228699923,,,
22.2343750000,2,0.4574890137,,,
22.2500000000,2,-0.3756713867,,,
22.2656250000,2,-0.9100341797,,,
22.2812500000,2,-0.9385681152,,,
22.2968750000,2,-0.5307312012,,,
22.3125000000,2,0.0624084510,,,
22.3281250000,2,0.6002501845,,,
22.3437500000,2,0.9717711806,,,
22.3593750000,2,1.2662659883,,,
22.3750000000,2,1.6574100256,,,
22.3906250000,2,2.1973268986,,,
22.4062500000,2,2.8135380745,,,
22.4218750000,2,3.2938230038,,,
22.4375000000,2,3.4277949333,,,
22.4531250000,2,3.1325380802,,,
22.4687500000,2,2.5112919807,,,
22.4843750000,2,1.7613530159,,,
22.5000000000,2,1.0798950195,,,
22.5156250000,2,0.5613098145,,,
22.5312500000,2,0.1767272949,,,
22.5468750000,2,-0.1462097019,,,
22.5625000000,2,-0.4544678032,,,
22.5781250000,2,-0.7174072266,,,
22.5937500000,2,-0.8837891221,,,
22.6093750000,2,-0.9101868272,,,
22.6250000000,2,-0.8640747070,,,
22.6406250000,2,-0.8539733887,,,
22.6562500000,2,-0.9685974121,,,
22.6718750000,2,-1.1983339787,,,
22.6875000000,2,-1.4266359806,,,
22.7031250000,2,-1.4770200253,,,
22.7187500000,2,-1.2740169764,,,
22.7343750000,2,-0.8365479112,,,
22.7500000000,2,-0.3113098145,,,
22.7656250000,2,0.1230164021,,,
22.7812500000,2,0.3539429009,,,
22.7968750000,2,0.3872070014,,,
22.8125000000,2,0.2815246880,,,
22.8281250000,2,0.1109618992,,,
22.8437500000,2,-0.0991821289,,,
22.8593750000,2,-0.3892821968,,,
22.8750000000,2,-0.7902526855,,,
22.8906250000,2,-1.2709050179,,,
22.9062500000,2,-1.7268979549,,,
22.9218750000,2,-2.0068969727,,,
22.9375000000,2,-1.9872740507,,,
22.9531250000,2,-1.6359250546,,,
22.9687500000,2,-1.0166319609,,,
22.9843750000,2,-0.2917479873,,,
23.0000000000,2,0.3442992866,,,
23.0156250000,2,0.7277526855,,,
23.0312500000,2,0.8062133789,,,
23.0468750000,2,0.6664733887,,,
23.0625000000,2,0.4640502930,,,
23.0781250000,2,0.3788452148,,,
23.0937500000,2,0.4926758111,,,
23.1093750000,2,0.7768859863,,,
23.1250000000,2,1.1135250330,,,
23.1406250000,2,1.3590999842,,,
23.1562500000,2,1.4397579432,,,
23.1718750000,2,1.3748780489,,,
23.1875000000,2,1.2201540470,,,
23.2031250000,2,1.0234069824,,,
23.2187500000,2,0.8428955078,,,
23.2343750000,2,0.7021179199,,,
23.2500000000,2,0.6731566787,,,
23.2656250000,2,0.8417357802,,,
23.2812500000,2,1.2225339413,,,
23.2968750000,2,1.7613830566,,,
23.3125000000,2,2.2841188908,,,
23.3281250000,2,2.5754389763,,,
23.3437500000,2,2.4729919434,,,
23.3593750000,2,1.9733890295,,,
23.3750000000,2,1.2144169807,,,
23.3906250000,2,0.4215697944,,,
23.4062500000,2,-0.2536011040,,,
23.4218750000,2,-0.7767333984,,,
23.4375000000,2,-1.2007139921,,,
23.4531250000,2,-1.6099549532,,,
23.4687500000,2,-1.9713749886,,,
23.4843750000,2,-2.1582639217,,,
23.5000000000,2,-1.9857480526,,,
23.5156250000,2,-1.3842769861,,,
23.5312500000,2,-0.4841003120,,,
23.5468750000,2,0.4191589057,,,
23.5625000000,2,0.9793701172,,,
23.5781250000,2,1.0155940056,,,
23.5937500000,2,0.5712891221,,,
23.6093750000,2,-0.0739440918,,,
23.6250000000,2,-0.5961303711,,,
23.6406250000,2,-0.7710875869,,,
23.6562500000,2,-0.6223754883,,,
23.6718750000,2,-0.3673400879,,,
23.6875000000,2,-0.2456970066,,,
23.7031250000,2,-0.3797301948,,,
23.7187500000,2,-0.6893615723,,,
23.7343750000,2,-0.9961853027,,,
23.7500000000,2,-1.1452640295,,,
23.7656250000,2,-1.1101069450,,,
23.7812500000,2,-0.9960938096,,,
23.7968750000,2,-0.9228209853,,,
23.8125000000,2,-0.9382935166,,,
23.8281250000,2,-0.9482421875,,,
23.8437500000,2,-0.7782592773,,,
23.8593750000,2,-0.3245238960,,,
23.8750000000,2,0.3628234863,,,
23.8906250000,2,1.0983279943,,,
23.9062500000,2,1.6497800350,,,
23.9218750000,2,1.8600770235,,,
23.9375000000,2,1.6989439726,,,
23.9531250000,2,1.2756650448,,,
23.9687500000,2,0.7328186035,,,
23.9843750000,2,0.2069396973,,,
24.0000000000,3,-0.2182922065,,,
24.0156250000,3,-0.5119019151,,,
24.0312500000,3,-0.6280822754,,,
24.0468750000,3,-0.5474243164,,,
24.0625000000,3,-0.2649536133,,,
24.0781250000,3,0.1639098972,,,
24.0937500000,3,0.6465454102,,,
24.1093750000,3,1.0920410156,,,
24.1250000000,3,1.3959959745,,,
24.1406250000,3,1.5316469669,,,
24.1562500000,3,1.5299379826,,,
24.1718750000,3,1.4381099939,,,
24.1875000000,3,1.2920229435,,,
24.2031250000,3,1.0831910372,,,
24.2187500000,3,0.7583007813,,,
24.2343750000,3,0.2785645127,,,
24.2500000000,3,-0.3433533013,,,
24.2656250000,3,-1.0519410372,,,
24.2812500000,3,-1.6967769861,,,
24.2968750000,3,-2.1367490292,,,
24.3125000000,3,-2.3089599609,,,
24.3281250000,3,-2.2608029842,,,
24.3437500000,3,-2.1108090878,,,
24.3593750000,3,-1.9515990019,,,
24.3750000000,3,-1.8097529411,,,
24.3906250000,3,-1.5996700525,,,
24.4062500000,3,-1.2378540039,,,
24.4218750000,3,-0.6696472168,,,
24.4375000000,3,0.0240478497,,,
24.4531250000,3,0.6679993272,,,
24.4687500000,3,1.0842289925,,,
24.4843750000,3,1.1641540527,,,
24.5000000000,3,0.9035645127,,,
24.5156250000,3,0.3853149116,,,
24.5312500000,3,-0.2601929009,,,
24.5468750000,3,-0.9035034180,,,
24.5625000000,3,-1.3860169649,,,
24.5781250000,3,-1.6019289494,,,
24.5937500000,3,-1.4692080021,,,
24.6093750000,3,-1.0092159510,,,
24.6250000000,3,-0.3411254883,,,
24.6406250000,3,0.3315734863,,,
24.6562500000,3,0.7722473145,,,
24.6718750000,3,0.8555908203,,,
24.6875000000,3,0.6108704209,,,
24.7031250000,3,0.2492675930,,,
24.7187500000,3,0.0457153283,,,
24.7343750000,3,0.2320251018,,,
24.7500000000,3,0.8497924805,,,
24.7656250000,3,1.7244260311,,,
24.7812500000,3,2.5660710335,,,
24.7968750000,3,3.0626220703,,,
24.8125000000,3,3.0353391171,,,
24.8281250000,3,2.5240170956,,,
24.8437500000,3,1.6967159510,,,
24.8593750000,3,0.7716979980,,,
24.8750000000,3,-0.1046753004,,,
24.8906250000,3,-0.8633728027,,,
24.9062500000,3,-1.5052189827,,,
24.9218750000,3,-1.9682619572,,,
24.9375000000,3,-2.1397399902,,,
24.9531250000,3,-1.8803709745,,,
24.9687500000,3,-1.1888120174,,,
24.9843750000,3,-0.2095946968,,,
25.0000000000,3,0.7498779297,,,
25.0156250000,3,1.4088129997,,,
25.0312500000,3,1.6307979822,,,
25.0468750000,3,1.4797359705,,,
25.0625000000,3,1.1655269861,,,
25.0781250000,3,0.8594970703,,,
25.0937500000,3,0.6094666123,,,
25.1093750000,3,0.3052367866,,,
25.1250000000,3,-0.1885070950,,,
25.1406250000,3,-0.8829345703,,,
25.1562500000,3,-1.6130980253,,,
25.1718750000,3,-2.1072690487,,,
25.1875000000,3,-2.1263120174,,,
25.2031250000,3,-1.6663819551,,,
25.2187500000,3,-0.9400939941,,,
25.2343750000,3,-0.2297057956,,,
25.2500000000,3,0.2279358059,,,
25.2656250000,3,0.3591918945,,,
25.2812500000,3,0.2574462891,,,
25.2968750000,3,0.0887451172,,,
25.3125000000,3,-0.0260925293,,,
25.3281250000,3,-0.0562439002,,,
25.3437500000,3,-0.0465087891,,,
25.3593750000,3,-0.0819702074,,,
25.3750000000,3,-0.1957397014,,,
25.3906250000,3,-0.3666382134,,,
25.4062500000,3,-0.5257263184,,,
25.4218750000,3,-0.5943604112,,,
25.4375000000,3,-0.5425109863,,,
25.4531250000,3,-0.3464354873,,,
25.4687500000,3,-0.0162658691,,,
25.4843750000,3,0.4505614936,,,
25.5000000000,3,1.0434269905,,,
25.5156250000,3,1.7734680176,,,
25.5312500000,3,2.5643620491,,,
25.5468750000,3,3.3022160530,,,
25.5625000000,3,3.7933039665,,,
25.5781250000,3,3.8914489746,,,
25.5937500000,3,3.5415949821,,,
25.6093750000,3,2.8180849552,,,
25.6250000000,3,1.8918759823,,,
25.6406250000,3,0.9699401855,,,
25.6562500000,3,0.1660767049,,,
25.6718750000,3,-0.5080565810,,,
25.6875000000,3,-1.0970150232,,,
25.7031250000,3,-1.6376340389,,,
25.7187500000,3,-2.0909729004,,,
25.7343750000,3,-2.3622739315,,,
25.7500000000,3,-2.3839719296,,,
25.7656250000,3,-2.1342771053,,,
25.7812500000,3,-1.6912540197,,,
25.7968750000,3,-1.1545410156,,,
25.8125000000,3,-0.5826416016,,,
25.8281250000,3,0.0073242192,,,
25.8437500000,3,0.6018676758,,,
25.8593750000,3,1.1421509981,,,
25.8750000000,3,1.5607600212,,,
25.8906250000,3,1.7478029728,,,
25.9062500000,3,1.6862490177,,,
25.9218750000,3,1.3883060217,,,
25.9375000000,3,0.9710999131,,,
25.9531250000,3,0.5205382705,,,
25.9687500000,3,0.0877075195,,,
25.9843750000,3,-0.3397521973,,,
26.0000000000,3,-0.8065186143,,,
26.0156250000,3,-1.2905579805,,,
26.0312500000,3,-1.7224119902,,,
26.0468750000,3,-1.9539489746,,,
26.0625000000,3,-1.9191590548,,,
26.0781250000,3,-1.6332089901,,,
26.0937500000,3,-1.2238160372,,,
26.1093750000,3,-0.8235474229,,,
26.1250000000,3,-0.5401610732,,,
26.1406250000,3,-0.3464049995,,,
26.1562500000,3,-0.1614380032,,,
26.1718750000,3,0.0650024414,,,
26.1875000000,3,0.3003844917,,,
26.2031250000,3,0.3750000000,,,
26.2187500000,3,0.1293945014,,,
26.2343750000,3,-0.5003967285,,,
26.2500000000,3,-1.3645019531,,,
26.2656250000,3,-2.2226560116,,,
26.2812500000,3,-2.7685849667,,,
26.2968750000,3,-2.8307189941,,,
26.3125000000,3,-2.4089970589,,,
26.3281250000,3,-1.6431579590,,,
26.3437500000,3,-0.7156066895,,,
26.3593750000,3,0.2112731934,,,
26.3750000000,3,1.0461119413,,,
26.3906250000,3,1.7451169491,,,
26.4062500000,3,2.3057858944,,,
26.4218750000,3,2.6905210018,,,
26.4375000000,3,2.9073789120,,,
26.4531250000,3,2.9325559139,,,
26.4687500000,3,2.7943730354,,,
26.4843750000,3,2.5376889706,,,
26.5000000000,3,2.2236630917,,,
26.5156250000,3,1.8959959745,,,
26.5312500000,3,1.5407099724,,,
26.5468750000,3,1.1099239588,,,
26.5625000000,3,0.4893187881,,,
26.5781250000,3,-0.3627013862,,,
26.5937500000,3,-1.4293819666,,,
26.6093750000,3,-2.4830930233,,,
26.6250000000,3,-3.2039179802,,,
26.6406250000,3,-3.2966001034,,,
26.6562500000,3,-2.6510620117,,,
26.6718750000,3,-1.4262700081,,,
26.6875000000,3,0.0160522498,,,
26.7031250000,3,1.2331850529,,,
26.7187500000,3,1.9649349451,,,
26.7343750000,3,2.1468510628,,,
26.7500000000,3,1.9412230253,,,
26.7656250000,3,1.5245970488,,,
26.7812500000,3,1.0410460234,,,
26.7968750000,3,0.5318909287,,,
26.8125000000,3,-0.0136108398,,,
26.8281250000,3,-0.5604553223,,,
26.8437500000,3,-1.0030820370,,,
26.8593750000,3,-1.1988530159,,,
26.8750000000,3,-1.1041870117,,,
26.8906250000,3,-0.7974243164,,,
26.9062500000,3,-0.4530639946,,,
26.9218750000,3,-0.2604674995,,,
26.9375000000,3,-0.2512207031,,,
26.9531250000,3,-0.3413391113,,,
26.9687500000,3,-0.3339233100,,,
26.9843750000,3,-0.0988159180,,,
27.0000000000,3,0.3767699897,,,
27.0156250000,3,0.9522094727,,,
27.0312500000,3,1.4420169592,,,
27.0468750000,3,1.7460939884,,,
27.0625000000,3,1.8694759607,,,
27.0781250000,3,1.9192199707,,,
27.0937500000,3,1.9475710392,,,
27.1093750000,3,1.9149169922,,,
27.1250000000,3,1.6949160099,,,
27.1406250000,3,1.1709289551,,,
27.1562500000,3,0.3117676079,,,
27.1718750000,3,-0.7496948242,,,
27.1875000000,3,-1.7553410530,,,
27.2031250000,3,-2.4926450253,,,
27.2187500000,3,-2.8663940430,,,
27.2343750000,3,-2.9296259880,,,
27.2500000000,3,-2.8529660702,,,
27.2656250000,3,-2.7731928825,,,
27.2812500000,3,-2.7366940975,,,
27.2968750000,3,-2.6211240292,,,
27.3125000000,3,-2.2910161018,,,
27.3281250000,3,-1.6702580452,,,
27.3437500000,3,-0.8707581162,,,
27.3593750000,3,-0.0962219164,,,
27.3750000000,3,0.3943175972,,,
27.3906250000,3,0.4584350884,,,
27.4062500000,3,0.1522216946,,,
27.4218750000,3,-0.3353882134,,,
27.4375000000,3,-0.7606505752,,,
27.4531250000,3,-0.9902039170,,,
27.4687500000,3,-1.0122380257,,,
27.4843750000,3,-0.9263916016,,,
27.5000000000,3,-0.7576293945,,,
27.5156250000,3,-0.4758911133,,,
27.5312500000,3,0.0311584491,,,
27.5468750000,3,0.8161926270,,,
27.5625000000,3,1.8114010096,,,
27.5781250000,3,2.8180849552,,,
27.5937500000,3,3.5928649902,,,
27.6093750000,3,3.9830019474,,,
27.6250000000,3,3.9363100529,,,
27.6406250000,3,3.5599980354,,,
27.6562500000,3,2.9768369198,,,
27.6718750000,3,2.3054499626,,,
27.6875000000,3,1.6025999784,,,
27.7031250000,3,0.8943787217,,,
27.7187500000,3,0.1982727051,,,
27.7343750000,3,-0.4453125000,,,
27.7500000000,3,-0.9619750977,,,
27.7656250000,3,-1.2833859921,,,
27.7812500000,3,-1.3686219454,,,
27.7968750000,3,-1.2519530058,,,
27.8125000000,3,-0.9838867188,,,
27.8281250000,3,-0.6092529297,,,
27.8437500000,3,-0.1640930027,,,
27.8593750000,3,0.3624877930,,,
27.8750000000,3,0.9510192871,,,
27.8906250000,3,1.5527950525,,,
27.9062500000,3,2.0421450138,,,
27.9218750000,3,2.2696840763,,,
27.9375000000,3,2.1329960823,,,
27.9531250000,3,1.6356509924,,,
27.9687500000,3,0.9199523926,,,
27.9843750000,3,0.1642456055,,,
28.0000000000,3,-0.4638062119,,,
28.0156250000,3,-0.9132385254,,,
28.0312500000,3,-1.2488709688,,,
28.0468750000,3,-1.5928959846,,,
28.0625000000,3,-1.9643549919,,,
28.0781250000,3,-2.2784121037,,,
28.0937500000,3,-2.3678889275,,,
28.1093750000,3,-2.1078801155,,,
28.1250000000,3,-1.5130000114,,,
28.1406250000,3,-0.7398071289,,,
28.1562500000,3,-0.0393371582,,,
28.1718750000,3,0.3869628906,,,
28.1875000000,3,0.4382019043,,,
28.2031250000,3,0.1456298977,,,
28.2187500000,3,-0.3610534966,,,
28.2343750000,3,-0.9607238770,,,
28.2500000000,3,-1.5514219999,,,
28.2656250000,3,-2.0684199333,,,
28.2812500000,3,-2.4033510685,,,
28.2968750000,3,-2.4438169003,,,
28.3125000000,3,-2.0846560001,,,
28.3281250000,3,-1.3269350529,,,
28.3437500000,3,-0.3269653022,,,
28.3593750000,3,0.6736145020,,,
28.3750000000,3,1.4006040096,,,
28.3906250000,3,1.7265319824,,,
28.4062500000,3,1.6781619787,,,
28.4218750000,3,1.4167480469,,,
28.4375000000,3,1.1332089901,,,
28.4531250000,3,0.9318236709,,,
28.4687500000,3,0.8066406250,,,
28.4843750000,3,0.6796569824,,,
28.5000000000,3,0.4999389946,,,
28.5156250000,3,0.2785645127,,,
28.5312500000,3,0.0819091797,,,
28.5468750000,3,-0.0334167518,,,
28.5625000000,3,-0.0696716309,,,
28.5781250000,3,-0.0560607910,,,
28.5937500000,3,-0.0205993708,,,
28.6093750000,3,0.0750427172,,,
28.6250000000,3,0.3390502930,,,
28.6406250000,3,0.8114929199,,,
28.6562500000,3,1.4098819494,,,
28.6718750000,3,1.9310909510,,,
28.6875000000,3,2.1311039925,,,
28.7031250000,3,1.8733520508,,,
28.7187500000,3,1.2363890409,,,
28.7343750000,3,0.4703674018,,,
28.7500000000,3,-0.0924072266,,,
28.7656250000,3,-0.2746886909,,,
28.7812500000,3,-0.0966796875,,,
28.7968750000,3,0.2358092964,,,
28.8125000000,3,0.5085753798,,,
28.8281250000,3,0.5963134766,,,
28.8437500000,3,0.5076293945,,,
28.8593750000,3,0.3492431939,,,
28.8750000000,3,0.2173766941,,,
28.8906250000,3,0.1419678032,,,
28.9062500000,3,0.0970153809,,,
28.9218750000,3,0.0329284705,,,
28.9375000000,3,-0.0664062500,,,
28.9531250000,3,-0.1213684008,,,
28.9687500000,3,-0.0044250488,,,
28.9843750000,3,0.3682555854,,,
29.0000000000,3,0.9673461914,,,
29.0156250000,3,1.5914920568,,,
29.0312500000,3,1.9279170036,,,
29.0468750000,3,1.7161870003,,,
29.0625000000,3,0.8888854980,,,
29.0781250000,3,-0.3529357910,,,
29.0937500000,3,-1.6149599552,,,
29.1093750000,3,-2.5176699162,,,
29.1250000000,3,-2.8448491096,,,
29.1406250000,3,-2.6514890194,,,
29.1562500000,3,-2.1860959530,,,
29.1718750000,3,-1.7423399687,,,
29.1875000000,3,-1.5167540312,,,
29.2031250000,3,-1.5251770020,,,
29.2187500000,3,-1.6443480253,,,
29.2343750000,3,-1.7183840275,,,
29.2500000000,3,-1.6690059900,,,
29.2656250000,3,-1.5057369471,,,
29.2812500000,3,-1.2823489904,,,
29.2968750000,3,-1.0765379667,,,
29.3125000000,3,-0.9234619141,,,
29.3281250000,3,-0.8183593750,,,
29.3437500000,3,-0.7238159180,,,
29.3593750000,3,-0.6192626953,,,
29.3750000000,3,-0.4600220025,,,
29.3906250000,3,-0.2361755073,,,
29.4062500000,3,0.0407409705,,,
29.4218750000,3,0.3509826958,,,
29.4375000000,3,0.6494750977,,,
29.4531250000,3,0.8946228027,,,
29.4687500000,3,1.0669859648,,,
29.4843750000,3,1.1809999943,,,
29.5000000000,3,1.2680360079,,,
29.5156250000,3,1.3965150118,,,
29.5312500000,3,1.6123349667,,,
29.5468750000,3,1.8916929960,,,
29.5625000000,3,2.1556088924,,,
29.5781250000,3,2.2686460018,,,
29.5937500000,3,2.1394040585,,,
29.6093750000,3,1.7637020350,,,
29.6250000000,3,1.2312619686,,,
29.6406250000,3,0.6904296875,,,
29.6562500000,3,0.2586059868,,,
29.6718750000,3,-0.0093078613,,,
29.6875000000,3,-0.1726685017,,,
29.7031250000,3,-0.3551330864,,,
29.7187500000,3,-0.6547241211,,,
29.7343750000,3,-1.0581359863,,,
29.7500000000,3,-1.4661250114,,,
29.7656250000,3,-1.7162779570,,,
29.7812500000,3,-1.7019959688,,,
29.7968750000,3,-1.4170839787,,,
29.8125000000,3,-0.9435729980,,,
29.8281250000,3,-0.4274902046,,,
29.8437500000,3,0.0075683589,,,
29.8593750000,3,0.3006592095,,,
29.8750000000,3,0.5063781738,,,
29.8906250000,3,0.7188720703,,,
29.9062500000,3,1.0369260311,,,
29.9218750000,3,1.4769899845,,,
29.9375000000,3,1.9517519474,,,
29.9531250000,3,2.3114619255,,,
29.9687500000,3,2.4319760799,,,
29.9843750000,3,2.2943120003,,,
30.0000000000,3,1.9637759924,,,
30.0156250000,3,1.5579220057,,,
30.0312500000,3,1.1776729822,,,
30.0468750000,3,0.8078308105,,,
30.0625000000,3,0.4014281929,,,
30.0781250000,3,-0.1155090034,,,
30.0937500000,3,-0.7265625000,,,
30.1093750000,3,-1.3099370003,,,
30.1250000000,3,-1.7016910315,,,
30.1406250000,3,-1.7893370390,,,
30.1562500000,3,-1.5835269690,,,
30.1718750000,3,-1.2167969942,,,
30.1875000000,3,-0.8684998155,,,
30.2031250000,3,-0.6389771104,,,
30.2187500000,3,-0.5332031250,,,
30.2343750000,3,-0.4304504097,,,
30.2500000000,3,-0.2161255032,,,
30.2656250000,3,0.1586609036,,,
30.2812500000,3,0.6132813096,,,
30.2968750000,3,0.9727783203,,,
30.3125000000,3,1.0533750057,,,
30.3281250000,3,0.7709960938,,,
30.3437500000,3,0.1524658054,,,
30.3593750000,3,-0.6802368164,,,
30.3750000000,3,-1.5158079863,,,
30.3906250000,3,-2.1418149471,,,
30.4062500000,3,-2.4075930119,,,
30.4218750000,3,-2.2604980469,,,
30.4375000000,3,-1.7662960291,,,
30.4531250000,3,-1.0618900061,,,
30.4687500000,3,-0.3059997857,,,
30.4843750000,3,0.3828735054,,,
30.5000000000,3,0.9291381836,,,
30.5156250000,3,1.2987370491,,,
30.5312500000,3,1.5088499784,,,
30.5468750000,3,1.5850830078,,,
30.5625000000,3,1.5537409782,,,
30.5781250000,3,1.4544980526,,,
30.5937500000,3,1.3007810116,,,
30.6093750000,3,1.0957340002,,,
30.6250000000,3,0.8489379883,,,
30.6406250000,3,0.5430908203,,,
30.6562500000,3,0.1996764988,,,
30.6718750000,3,-0.1072997972,,,
30.6875000000,3,-0.3088684082,,,
30.7031250000,3,-0.3537291884,,,
30.7187500000,3,-0.2850952148,,,
30.7343750000,3,-0.2278748006,,,
30.7500000000,3,-0.3111267090,,,
30.7656250000,3,-0.5606688857,,,
30.7812500000,3,-0.9214782715,,,
30.7968750000,3,-1.2348940372,,,
30.8125000000,3,-1.3577879667,,,
30.8281250000,3,-1.2440489531,,,
30.8437500000,3,-0.9522399902,,,
30.8593750000,3,-0.5940856934,,,
30.8750000000,3,-0.2748717964,,,
30.8906250000,3,-0.0461120605,,,
30.9062500000,3,0.0770568773,,,
30.9218750000,3,0.0494995117,,,
30.9375000000,3,-0.1933289021,,,
30.9531250000,3,-0.6688231826,,,
30.9687500000,3,-1.3019709587,,,
30.9843750000,3,-1.8981930017,,,
31.0000000000,3,-2.2020568848,,,
31.0156250000,3,-2.0680239201,,,
31.0312500000,3,-1.5261230469,,,
31.0468750000,3,-0.7583922744,,,
31.0625000000,3,-0.0243225098,,,
31.0781250000,3,0.4658812881,,,
31.0937500000,3,0.6750488281,,,
31.1093750000,3,0.7173156738,,,
31.1250000000,3,0.7750548720,,,
31.1406250000,3,0.9824829102,,,
31.1562500000,3,1.3411560059,,,
31.1718750000,3,1.7216800451,,,
31.1875000000,3,1.9472960234,,,
31.2031250000,3,1.9101560116,,,
31.2187500000,3,1.6386109591,,,
31.2343750000,3,1.2867740393,,,
31.2500000000,3,1.0368959904,,,
31.2656250000,3,0.9784240723,,,
31.2812500000,3,1.0628659725,,,
31.2968750000,3,1.1191409826,,,
31.3125000000,3,0.9731444716,,,
31.3281250000,3,0.5737915039,,,
31.3437500000,3,0.0291442908,,,
31.3593750000,3,-0.4495849907,,,
31.3750000000,3,-0.6578369141,,,
31.3906250000,3,-0.5090941787,,,
31.4062500000,3,-0.0946044922,,,
31.4218750000,3,0.3832091987,,,
31.4375000000,3,0.7168579102,,,
31.4531250000,3,0.7746887207,,,
31.4687500000,3,0.5855407715,,,
31.4843750000,3,0.2426757962,,,
31.5000000000,3,-0.1275939941,,,
31.5156250000,3,-0.4182434082,,,
31.5312500000,3,-0.5968322754,,,
31.5468750000,3,-0.6776732802,,,
31.5625000000,3,-0.6851196289,,,
31.5781250000,3,-0.6611328125,,,
31.5937500000,3,-0.6220397949,,,
31.6093750000,3,-0.5760498047,,,
31.6250000000,3,-0.5137329102,,,
31.6406250000,3,-0.4483337104,,,
31.6562500000,3,-0.3652038872,,,
31.6718750000,3,-0.2911072075,,,
31.6875000000,3,-0.2603760064,,,
31.7031250000,3,-0.3075562119,,,
31.7187500000,3,-0.4391784966,,,
31.7343750000,3,-0.6653748155,,,
31.7500000000,3,-0.9481201172,,,
31.7656250000,3,-1.2376099825,,,
31.7812500000,3,-1.4625550508,,,
31.7968750000,3,-1.5485529900,,,
31.8125000000,3,-1.4496150017,,,
31.8281250000,3,-1.1704709530,,,
31.8437500000,3,-0.7553101182,,,
31.8593750000,3,-0.2740173042,,,
31.8750000000,3,0.1774902046,,,
31.8906250000,3,0.5336608887,,,
31.9062500000,3,0.7558289170,,,
31.9218750000,3,0.8404235840,,,
31.9375000000,3,0.7931823730,,,
31.9531250000,3,0.6457520127,,,
31.9687500000,3,0.4440307915,,,
31.9843750000,3,0.2702026069,,,
32.0000000000,4,0.2194214016,,,
32.0156250000,4,0.3377686143,,,
32.0312500000,4,0.5994263291,,,
32.0468750000,4,0.8825377822,,,
32.0625000000,4,1.0777590275,,,
32.0781250000,4,1.1261290312,,,
32.0937500000,4,1.1082459688,,,
32.1093750000,4,1.1846009493,,,
32.1250000000,4,1.5044859648,,,
32.1406250000,4,2.0151369572,,,
32.1562500000,4,2.5047299862,,,
32.1718750000,4,2.6868588924,,,
32.1875000000,4,2.3463749886,,,
32.2031250000,4,1.5210880041,,,
32.2187500000,4,0.4729919136,,,
32.2343750000,4,-0.4435729980,,,
32.2500000000,4,-0.9922484756,,,
32.2656250000,4,-1.1269229650,,,
32.2812500000,4,-0.9947509766,,,
32.2968750000,4,-0.8443909287,,,
32.3125000000,4,-0.8496398926,,,
32.3281250000,4,-1.0778809786,,,
32.3437500000,4,-1.4802550077,,,
32.3593750000,4,-1.9300839901,,,
32.3750000000,4,-2.2975459099,,,
32.3906250000,4,-2.5082700253,,,
32.4062500000,4,-2.5286870003,,,
32.4218750000,4,-2.3469240665,,,
32.4375000000,4,-2.0087590218,,,
32.4531250000,4,-1.5235290527,,,
32.4687500000,4,-0.9475402832,,,
32.4843750000,4,-0.3258666992,,,
32.5000000000,4,0.2659302056,,,
32.5156250000,4,0.7737122178,,,
32.5312500000,4,1.1171879768,,,
32.5468750000,4,1.2457280159,,,
32.5625000000,4,1.1767879725,,,
32.5781250000,4,0.9399108887,,,
32.5937500000,4,0.5521240234,,,
32.6093750000,4,0.0005493164,,,
32.6250000000,4,-0.6865233779,,,
32.6406250000,4,-1.4479980469,,,
32.6562500000,4,-2.1212160587,,,
32.6718750000,4,-2.5167539120,,,
32.6875000000,4,-2.4947810173,,,
32.7031250000,4,-2.0316469669,,,
32.7187500000,4,-1.2595210075,,,
32.7343750000,4,-0.3707886040,,,
32.7500000000,4,0.4256896973,,,
32.7656250000,4,1.0187679529,,,
32.7812500000,4,1.3873599768,,,
32.7968750000,4,1.5933229923,,,
32.8125000000,4,1.6791379452,,,
32.8281250000,4,1.6518859863,,,
32.8437500000,4,1.4883420467,,,
32.8593750000,4,1.1584780216,,,
32.8750000000,4,0.7002257705,,,
32.8906250000,4,0.1920776069,,,
32.9062500000,4,-0.2623595893,,,
32.9218750000,4,-0.5672302246,,,
32.9375000000,4,-0.6570739746,,,
32.9531250000,4,-0.5006713867,,,
32.9687500000,4,-0.1393126994,,,
32.9843750000,4,0.3783875108,,,
33.0000000000,4,0.9313048720,,,
33.0156250000,4,1.4346009493,,,
33.0312500000,4,1.8141479492,,,
33.0468750000,4,2.0459589958,,,
33.0625000000,4,2.1327509880,,,
33.0781250000,4,2.0886540413,,,
33.0937500000,4,1.9301149845,,,
33.1093750000,4,1.6559449434,,,
33.1250000000,4,1.2958680391,,,
33.1406250000,4,0.8753356934,,,
33.1562500000,4,0.4684447944,,,
33.1718750000,4,0.1743164063,,,
33.1875000000,4,0.0916137695,,,
33.2031250000,4,0.2764281929,,,
33.2187500000,4,0.7038878798,,,
33.2343750000,4,1.2799680233,,,
33.2500000000,4,1.8640439510,,,
33.2656250000,4,2.2853090763,,,
33.2812500000,4,2.4255371094,,,
33.2968750000,4,2.2674560547,,,
33.3125000000,4,1.8439940214,,,
33.3281250000,4,1.2450560331,,,
33.3437500000,4,0.5492249131,,,
33.3593750000,4,-0.1893616021,,,
33.3750000000,4,-0.9173889160,,,
33.3906250000,4,-1.5787960291,,,
33.4062500000,4,-2.0865170956,,,
33.4218750000,4,-2.3642880917,,,
33.4375000000,4,-2.3542480469,,,
33.4531250000,4,-2.0759279728,,,
33.4687500000,4,-1.6433110237,,,
33.4843750000,4,-1.1868590117,,,
33.5000000000,4,-0.8183593750,,,
33.5156250000,4,-0.5595397949,,,
33.5312500000,4,-0.3621216118,,,
33.5468750000,4,-0.1777039021,,,
33.5625000000,4,0.0166625995,,,
33.5781250000,4,0.1854553074,,,
33.5937500000,4,0.2446289063,,,
33.6093750000,4,0.1267700046,,,
33.6250000000,4,-0.1533813030,,,
33.6406250000,4,-0.5481262207,,,
33.6562500000,4,-0.9889221191,,,
33.6718750000,4,-1.3791810274,,,
33.6875000000,4,-1.6843869686,,,
33.7031250000,4,-1.8732600212,,,
33.7187500000,4,-1.9437259436,,,
33.7343750000,4,-1.8886409998,,,
33.7500000000,4,-1.7232359648,,,
33.7656250000,4,-1.4857480526,,,
33.7812500000,4,-1.2303160429,,,
33.7968750000,4,-0.9746398926,,,
33.8125000000,4,-0.6849060059,,,
33.8281250000,4,-0.2988891900,,,
33.8437500000,4,0.2275085002,,,
33.8593750000,4,0.8547363281,,,
33.8750000000,4,1.4411619902,,,
33.8906250000,4,1.8192440271,,,
33.9062500000,4,1.8829040527,,,
33.9218750000,4,1.6119999886,,,
33.9375000000,4,1.1128540039,,,
33.9531250000,4,0.5124207139,,,
33.9687500000,4,-0.0699157715,,,
33.9843750000,4,-0.5798950195,,,
34.0000000000,4,-0.9725952148,,,
34.0156250000,4,-1.2140810490,,,
34.0312500000,4,-1.2426760197,,,
34.0468750000,4,-0.9990844727,,,
34.0625000000,4,-0.5058898926,,,
34.0781250000,4,0.1557922065,,,
34.0937500000,4,0.7996215820,,,
34.1093750000,4,1.2493590117,,,
34.1250000000,4,1.4021610022,,,
34.1406250000,4,1.2857359648,,,
34.1562500000,4,0.9689025879,,,
34.1718750000,4,0.5903319716,,,
34.1875000000,4,0.2362976074,,,
34.2031250000,4,-0.0427246094,,,
34.2187500000,4,-0.2438049018,,,
34.2343750000,4,-0.3941344917,,,
34.2500000000,4,-0.5176085830,,,
34.2656250000,4,-0.6337891221,,,
34.2812500000,4,-0.7220764160,,,
34.2968750000,4,-0.7782897949,,,
34.3125000000,4,-0.7734680176,,,
34.3281250000,4,-0.7126160264,,,
34.3437500000,4,-0.5845336914,,,
34.3593750000,4,-0.3969115913,,,
34.3750000000,4,-0.1156921014,,,
34.3906250000,4,0.2711791992,,,
34.4062500000,4,0.7634583116,,,
34.4218750000,4,1.3365780115,,,
34.4375000000,4,1.9260859489,,,
34.4531250000,4,2.4317929745,,,
34.4687500000,4,2.7272639275,,,
34.4843750000,4,2.6188349724,,,
34.5000000000,4,1.9703060389,,,
34.5156250000,4,0.7453917861,,,
34.5312500000,4,-0.9075623155,,,
34.5468750000,4,-2.6181340218,,,
34.5625000000,4,-3.9193120003,,,
34.5781250000,4,-4.4424438477,,,
34.5937500000,4,-4.0443120003,,,
34.6093750000,4,-2.8961789608,,,
34.6250000000,4,-1.4258420467,,,
34.6406250000,4,-0.0510253906,,,
34.6562500000,4,0.9338684082,,,
34.6718750000,4,1.4544980526,,,
34.6875000000,4,1.6040040255,,,
34.7031250000,4,1.5842590332,,,
34.7187500000,4,1.5157170296,,,
34.7343750000,4,1.4724730253,,,
34.7500000000,4,1.4594730139,,,
34.7656250000,4,1.4198609591,,,
34.7812500000,4,1.3109439611,,,
34.7968750000,4,1.1125789881,,,
34.8125000000,4,0.8415526748,,,
34.8281250000,4,0.5271912217,,,
34.8437500000,4,0.2234801948,,,
34.8593750000,4,-0.0901794434,,,
34.8750000000,4,-0.4296264946,,,
34.8906250000,4,-0.7645568848,,,
34.9062500000,4,-1.0309749842,,,
34.9218750000,4,-1.0813900232,,,
34.9375000000,4,-0.7607727051,,,
34.9531250000,4,-0.0308227502,,,
34.9687500000,4,0.9967041016,,,
34.9843750000,4,2.0632319450,,,
35.0000000000,4,2.9139399529,,,
35.0156250000,4,3.3737790585,,,
35.0312500000,4,3.4249570370,,,
35.0468750000,4,3.0805358887,,,
35.0625000000,4,2.4064331055,,,
35.0781250000,4,1.4339289665,,,
35.0937500000,4,0.2533875108,,,
35.1093750000,4,-0.9350585938,,,
35.1250000000,4,-1.8791500330,,,
35.1406250000,4,-2.3591609001,,,
35.1562500000,4,-2.3388669491,,,
35.1718750000,4,-1.9180910587,,,
35.1875000000,4,-1.3585209846,,,
35.2031250000,4,-0.8236083984,,,
35.2187500000,4,-0.4266662896,,,
35.2343750000,4,-0.1622008979,,,
35.2500000000,4,0.0126037598,,,
35.2656250000,4,0.1020508036,,,
35.2812500000,4,0.0654602125,,,
35.2968750000,4,-0.1385498047,,,
35.3125000000,4,-0.4768066108,,,
35.3281250000,4,-0.8734130859,,,
35.3437500000,4,-1.2146910429,,,
35.3593750000,4,-1.4223630428,,,
35.3750000000,4,-1.4997559786,,,
35.3906250000,4,-1.4550479650,,,
35.4062500000,4,-1.2747189999,,,
35.4218750000,4,-0.9426270127,,,
35.4375000000,4,-0.4359130859,,,
35.4531250000,4,0.2070617974,,,
35.4687500000,4,0.8834229112,,,
35.4843750000,4,1.4687809944,,,
35.5000000000,4,1.8807070255,,,
35.5156250000,4,2.0814509392,,,
35.5312500000,4,2.1413269043,,,
35.5468750000,4,2.1380620003,,,
35.5625000000,4,2.1188960075,,,
35.5781250000,4,2.0762939453,,,
35.5937500000,4,1.9295350313,,,
35.6093750000,4,1.6103210449,,,
35.6250000000,4,1.1203609705,,,
35.6406250000,4,0.4981994927,,,
35.6562500000,4,-0.1894835979,,,
35.6718750000,4,-0.8650817871,,,
35.6875000000,4,-1.4844670296,,,
35.7031250000,4,-1.9786070585,,,
35.7187500000,4,-2.2664489746,,,
35.7343750000,4,-2.2637019157,,,
35.7500000000,4,-1.9253230095,,,
35.7656250000,4,-1.2994379997,,,
35.7812500000,4,-0.5348510742,,,
35.7968750000,4,0.1621094048,,,
35.8125000000,4,0.6450194716,,,
35.8281250000,4,0.8592224121,,,
35.8437500000,4,0.8954163194,,,
35.8593750000,4,0.9033812881,,,
35.8750000000,4,0.9688416123,,,
35.8906250000,4,1.1131900549,,,
35.9062500000,4,1.2322080135,,,
35.9218750000,4,1.2032170296,,,
35.9375000000,4,0.9519042969,,,
35.9531250000,4,0.4937134087,,,
35.9687500000,4,-0.0804748535,,,
35.9843750000,4,-0.6399230957,,,
36.0000000000,4,-1.0408940315,,,
36.0156250000,4,-1.2134089470,,,
36.0312500000,4,-1.0974119902,,,
36.0468750000,4,-0.7154846191,,,
36.0625000000,4,-0.1501770020,,,
36.0781250000,4,0.4727478027,,,
36.0937500000,4,1.0033260584,,,
36.1093750000,4,1.2989200354,,,
36.1250000000,4,1.3060610294,,,
36.1406250000,4,1.0630190372,,,
36.1562500000,4,0.6635131836,,,
36.1718750000,4,0.1997070014,,,
36.1875000000,4,-0.2878723145,,,
36.2031250000,4,-0.8328856826,,,
36.2187500000,4,-1.4187619686,,,
36.2343750000,4,-1.9950870275,,,
36.2500000000,4,-2.4166259766,,,
36.2656250000,4,-2.5594179630,,,
36.2812500000,4,-2.3842160702,,,
36.2968750000,4,-1.9826350212,,,
36.3125000000,4,-1.5412290096,,,
36.3281250000,4,-1.2246090174,,,
36.3437500000,4,-1.0733339787,,,
36.3593750000,4,-0.9306945801,,,
36.3750000000,4,-0.6207581162,,,
36.3906250000,4,0.0034179690,,,
36.4062500000,4,0.8695678711,,,
36.4218750000,4,1.7385250330,,,
36.4375000000,4,2.2974851131,,,
36.4531250000,4,2.3452150822,,,
36.4687500000,4,1.8854060173,,,
36.4843750000,4,1.1504520178,,,
36.5000000000,4,0.4862061143,,,
36.5156250000,4,0.1490783989,,,
36.5312500000,4,0.2068175972,,,
36.5468750000,4,0.5279235840,,,
36.5625000000,4,0.8874511719,,,
36.5781250000,4,1.1180419922,,,
36.5937500000,4,1.2020260096,,,
36.6093750000,4,1.2312929630,,,
36.6250000000,4,1.3580019474,,,
36.6406250000,4,1.6701049805,,,
36.6562500000,4,2.1045229435,,,
36.6718750000,4,2.4862060547,,,
36.6875000000,4,2.6385500431,,,
36.7031250000,4,2.4414370060,,,
36.7187500000,4,1.9026789665,,,
36.7343750000,4,1.1163940430,,,
36.7500000000,4,0.2213744968,,,
36.7656250000,4,-0.6683350205,,,
36.7812500000,4,-1.4844670296,,,
36.7968750000,4,-2.2107539177,,,
36.8125000000,4,-2.8454589844,,,
36.8281250000,4,-3.3607790470,,,
36.8437500000,4,-3.7242128849,,,
36.8593750000,4,-3.8883059025,,,
36.8750000000,4,-3.8445429802,,,
36.8906250000,4,-3.6021420956,,,
36.9062500000,4,-3.2346799374,,,
36.9218750000,4,-2.7525629997,,,
36.9375000000,4,-2.1501770020,,,
36.9531250000,4,-1.3515009880,,,
36.9687500000,4,-0.3334656060,,,
36.9843750000,4,0.8369445801,,,
37.0000000000,4,1.9119869471,,,
37.0156250000,4,2.6148679256,,,
37.0312500000,4,2.7242128849,,,
37.0468750000,4,2.2083129883,,,
37.0625000000,4,1.2944029570,,,
37.0781250000,4,0.3534241021,,,
37.0937500000,4,-0.2264098972,,,
37.1093750000,4,-0.2996825874,,,
37.1250000000,4,0.0693969727,,,
37.1406250000,4,0.6263427734,,,
37.1562500000,4,1.1177979708,,,
37.1718750000,4,1.4084780216,,,
37.1875000000,4,1.5130620003,,,
37.2031250000,4,1.5258790255,,,
37.2187500000,4,1.4925229549,,,
37.2343750000,4,1.4185489416,,,
37.2500000000,4,1.2462459803,,,
37.2656250000,4,0.9375916123,,,
37.2812500000,4,0.5440979004,,,
37.2968750000,4,0.1603087932,,,
37.3125000000,4,-0.1253966987,,,
37.3281250000,4,-0.3211669922,,,
37.3437500000,4,-0.5128784180,,,
37.3593750000,4,-0.8318787217,,,
37.3750000000,4,-1.2933349609,,,
37.3906250000,4,-1.7822879553,,,
37.4062500000,4,-2.1116940975,,,
37.4218750000,4,-2.1096799374,,,
37.4375000000,4,-1.7458499670,,,
37.4531250000,4,-1.1553339958,,,
37.4687500000,4,-0.5576477051,,,
37.4843750000,4,-0.0921936035,,,
37.5000000000,4,0.1692810059,,,
37.5156250000,4,0.2942810059,,,
37.5312500000,4,0.3776245117,,,
37.5468750000,4,0.4344176948,,,
37.5625000000,4,0.3853760064,,,
37.5781250000,4,0.1165160984,,,
37.5937500000,4,-0.4320374131,,,
37.6093750000,4,-1.1850589514,,,
37.6250000000,4,-1.9207760096,,,
37.6406250000,4,-2.3961789608,,,
37.6562500000,4,-2.4494628906,,,
37.6718750000,4,-2.0804750919,,,
37.6875000000,4,-1.4460749626,,,
37.7031250000,4,-0.7775878906,,,
37.7187500000,4,-0.2521362007,,,
37.7343750000,4,0.0459594689,,,
37.7500000000,4,0.1829528958,,,
37.7656250000,4,0.2651672065,,,
37.7812500000,4,0.4196777046,,,
37.7968750000,4,0.6956176758,,,
37.8125000000,4,1.0448299646,,,
37.8281250000,4,1.3360899687,,,
37.8437500000,4,1.4532170296,,,
37.8593750000,4,1.3293459415,,,
37.8750000000,4,0.9747313857,,,
37.8906250000,4,0.4834595025,,,
37.9062500000,4,-0.0267028809,,,
37.9218750000,4,-0.4582214057,,,
37.9375000000,4,-0.7717285156,,,
37.9531250000,4,-0.9570922852,,,
37.9687500000,4,-1.0396120548,,,
37.9843750000,4,-1.0242609978,,,
38.0000000000,4,-0.9336243272,,,
38.0156250000,4,-0.8123474121,,,
38.0312500000,4,-0.7077636719,,,
38.0468750000,4,-0.6910706162,,,
38.0625000000,4,-0.7641906738,,,
38.0781250000,4,-0.9056395888,,,
38.0937500000,4,-1.0164179802,,,
38.1093750000,4,-1.0047910213,,,
38.1250000000,4,-0.8259276748,,,
38.1406250000,4,-0.5162047744,,,
38.1562500000,4,-0.1753845066,,,
38.1718750000,4,0.1216431037,,,
38.1875000000,4,0.3359985054,,,
38.2031250000,4,0.5081481934,,,
38.2187500000,4,0.7323607802,,,
38.2343750000,4,1.0320739746,,,
38.2500000000,4,1.3904420137,,,
38.2656250000,4,1.6951899529,,,
38.2812500000,4,1.8934940100,,,
38.2968750000,4,1.9936519861,,,
38.3125000000,4,2.1054990292,,,
38.3281250000,4,2.2950129509,,,
38.3437500000,4,2.5444951057,,,
38.3593750000,4,2.7048649788,,,
38.3750000000,4,2.5604860783,,,
38.3906250000,4,1.9836729765,,,
38.4062500000,4,1.0279539824,,,
38.4218750000,4,-0.0413513184,,,
38.4375000000,4,-0.9043273926,,,
38.4531250000,4,-1.3391720057,,,
38.4687500000,4,-1.3398129940,,,
38.4843750000,4,-1.0562130213,,,
38.5000000000,4,-0.6882019043,,,
38.5156250000,4,-0.3607482910,,,
38.5312500000,4,-0.0625305176,,,
38.5468750000,4,0.2533263862,,,
38.5625000000,4,0.6100463867,,,
38.5781250000,4,0.9211121202,,,
38.5937500000,4,1.0825500488,,,
38.6093750000,4,1.0454100370,,,
38.6250000000,4,0.8587340713,,,
38.6406250000,4,0.6539916992,,,
38.6562500000,4,0.5271301270,,,
38.6718750000,4,0.4591979980,,,
38.6875000000,4,0.3223572075,,,
38.7031250000,4,-0.0455932617,,,
38.7187500000,4,-0.6724243164,,,
38.7343750000,4,-1.4027099609,,,
38.7500000000,4,-1.9356379509,,,
38.7656250000,4,-1.9913020134,,,
38.7812500000,4,-1.4667969942,,,
38.7968750000,4,-0.4950866997,,,
38.8125000000,4,0.6433715820,,,
38.8281250000,4,1.6521910429,,,
38.8437500000,4,2.3734130859,,,
38.8593750000,4,2.7858579159,,,
38.8750000000,4,2.9811708927,,,
38.8906250000,4,3.0105290413,,,
38.9062500000,4,2.8412170410,,,
38.9218750000,4,2.3886411190,,,
38.9375000000,4,1.5921330452,,,
38.9531250000,4,0.4972229004,,,
38.9687500000,4,-0.7292175293,,,
38.9843750000,4,-1.8686829805,,,
39.0000000000,4,-2.7395319939,,,
39.0156250000,4,-3.2506411076,,,
39.0312500000,4,-3.3991999626,,,
39.0468750000,4,-3.2109379768,,,
39.0625000000,4,-2.7373659611,,,
39.0781250000,4,-2.0253300667,,,
39.0937500000,4,-1.1943360567,,,
39.1093750000,4,-0.3626708984,,,
39.1250000000,4,0.3411864936,,,
39.1406250000,4,0.8330687881,,,
39.1562500000,4,1.1211240292,,,
39.1718750000,4,1.2521059513,,,
39.1875000000,4,1.2709050179,,,
39.2031250000,4,1.2140500546,,,
39.2187500000,4,1.1078490019,,,
39.2343750000,4,0.9721984863,,,
39.2500000000,4,0.8329772949,,,
39.2656250000,4,0.7079163194,,,
39.2812500000,4,0.5668334961,,,
39.2968750000,4,0.3242492974,,,
39.3125000000,4,-0.0820617676,,,
39.3281250000,4,-0.6229857802,,,
39.3437500000,4,-1.1158750057,,,
39.3593750000,4,-1.3356629610,,,
39.3750000000,4,-1.0744320154,,,
39.3906250000,4,-0.3218994141,,,
39.4062500000,4,0.7054749131,,,
39.4218750000,4,1.6600650549,,,
39.4375000000,4,2.2633669376,,,
39.4531250000,4,2.3887939453,,,
39.4687500000,4,2.1273190975,,,
39.4843750000,4,1.6385500431,,,
39.5000000000,4,1.0666500330,,,
39.5156250000,4,0.4881896973,,,
39.5312500000,4,-0.0877075195,,,
39.5468750000,4,-0.6566771865,,,
39.5625000000,4,-1.1575620174,,,
39.5781250000,4,-1.5039060116,,,
39.5937500000,4,-1.6197509766,,,
39.6093750000,4,-1.4946589470,,,
39.6250000000,4,-1.1896059513,,,
39.6406250000,4,-0.8035277724,,,
39.6562500000,4,-0.4075317085,,,
39.6718750000,4,-0.0061340332,,,
39.6875000000,4,0.3848876953,,,
39.7031250000,4,0.7465819716,,,
39.7187500000,4,0.9940490723,,,
39.7343750000,4,1.0523070097,,,
39.7500000000,4,0.8839417100,,,
39.7656250000,4,0.5518494248,,,
39.7812500000,4,0.1606445014,,,
39.7968750000,4,-0.1771851033,,,
39.8125000000,4,-0.3923340142,,,
39.8281250000,4,-0.4877929986,,,
39.8437500000,4,-0.4420166016,,,
39.8593750000,4,-0.2602539063,,,
39.8750000000,4,0.1209411994,,,
39.8906250000,4,0.6913146973,,,
39.9062500000,4,1.3857419491,,,
39.9218750000,4,2.0068969727,,,
39.9375000000,4,2.3388369083,,,
39.9531250000,4,2.1977229118,,,
39.9687500000,4,1.5792239904,,,
39.9843750000,4,0.6634827256,,,
40.0000000000,5,-0.2736510932,,,
40.0156250000,5,-0.9861754775,,,
40.0312500000,5,-1.3665770292,,,
40.0468750000,5,-1.4835510254,,,
40.0625000000,5,-1.4921569824,,,
40.0781250000,5,-1.5454709530,,,
40.0937500000,5,-1.6738280058,,,
40.1093750000,5,-1.8036190271,,,
40.1250000000,5,-1.8168640137,,,
40.1406250000,5,-1.6166989803,,,
40.1562500000,5,-1.2198179960,,,
40.1718750000,5,-0.7287902832,,,
40.1875000000,5,-0.2771911919,,,
40.2031250000,5,0.0506286584,,,
40.2187500000,5,0.2566223145,,,
40.2343750000,5,0.4034424126,,,
40.2500000000,5,0.5188903809,,,
40.2656250000,5,0.5795897841,,,
40.2812500000,5,0.5373839736,,,
40.2968750000,5,0.3705444038,,,
40.3125000000,5,0.1162720025,,,
40.3281250000,5,-0.1330260932,,,
40.3437500000,5,-0.2795104980,,,
40.3593750000,5,-0.3151245117,,,
40.3750000000,5,-0.2675780952,,,
40.3906250000,5,-0.2182922065,,,
40.4062500000,5,-0.2038878947,,,
40.4218750000,5,-0.1834716946,,,
40.4375000000,5,-0.0799560472,,,
40.4531250000,5,0.1620789021,,,
40.4687500000,5,0.5222473145,,,
40.4843750000,5,0.9199523926,,,
40.5000000000,5,1.2576290369,,,
40.5156250000,5,1.4843440056,,,
40.5312500000,5,1.6265259981,,,
40.5468750000,5,1.6829220057,,,
40.5625000000,5,1.6263430119,,,
40.5781250000,5,1.3309329748,,,
40.5937500000,5,0.6954345703,,,
40.6093750000,5,-0.2583617866,,,
40.6250000000,5,-1.3378909826,,,
40.6406250000,5,-2.2518620491,,,
40.6562500000,5,-2.7745668888,,,
40.6718750000,5,-2.8539121151,,,
40.6875000000,5,-2.6510009766,,,
40.7031250000,5,-2.4302980900,,,
40.7187500000,5,-2.3656311035,,,
40.7343750000,5,-2.4072570801,,,
40.7500000000,5,-2.3455510139,,,
40.7656250000,5,-1.9327390194,,,
40.7812500000,5,-1.0744019747,,,
40.7968750000,5,0.0450134315,,,
40.8125000000,5,1.0777590275,,,
40.8281250000,5,1.6782530546,,,
40.8437500000,5,1.7000730038,,,
40.8593750000,5,1.2244260311,,,
40.8750000000,5,0.5107421875,,,
40.8906250000,5,-0.2032471001,,,
40.9062500000,5,-0.7408751845,,,
40.9218750000,5,-1.0537110567,,,
40.9375000000,5,-1.1501159668,,,
40.9531250000,5,-1.0528869629,,,
40.9687500000,5,-0.7616577148,,,
40.9843750000,5,-0.2688292861,,,
41.0000000000,5,0.3627319038,,,
41.0156250000,5,1.0141299963,,,
41.0312500000,5,1.5156250000,,,
41.0468750000,5,1.7200930119,,,
41.0625000000,5,1.5985410213,,,
41.0781250000,5,1.2270200253,,,
41.0937500000,5,0.7744445801,,,
41.1093750000,5,0.3988952935,,,
41.1250000000,5,0.1680908054,,,
41.1406250000,5,-0.0267639197,,,
41.1562500000,5,-0.3284912109,,,
41.1718750000,5,-0.8973389268,,,
41.1875000000,5,-1.7432559729,,,
41.2031250000,5,-2.6892399788,,,
41.2187500000,5,-3.4524230957,,,
41.2343750000,5,-3.7547609806,,,
41.2500000000,5,-3.4902040958,,,
41.2656250000,5,-2.7429199219,,,
41.2812500000,5,-1.7508850098,,,
41.2968750000,5,-0.7395629883,,,
41.3125000000,5,0.1416320950,,,
41.3281250000,5,0.8576354980,,,
41.3437500000,5,1.4198000431,,,
41.3593750000,5,1.8134160042,,,
41.3750000000,5,1.9988399744,,,
41.3906250000,5,1.9497070313,,,
41.4062500000,5,1.7081600428,,,
41.4218750000,5,1.3979799747,,,
41.4375000000,5,1.1633609533,,,
41.4531250000,5,1.0968019962,,,
41.4687500000,5,1.1948239803,,,
41.4843750000,5,1.4038239717,,,
41.5000000000,5,1.6534730196,,,
41.5156250000,5,1.9013669491,,,
41.5312500000,5,2.1419529915,,,
41.5468750000,5,2.3422551155,,,
41.5625000000,5,2.4290010929,,,
41.5781250000,5,2.3232119083,,,
41.5937500000,5,1.9733580351,,,
41.6093750000,5,1.3896030188,,,
41.6250000000,5,0.6739348769,,,
41.6406250000,5,-0.0957946777,,,
41.6562500000,5,-0.8124694824,,,
41.6718750000,5,-1.4293210506,,,
41.6875000000,5,-1.8855290413,,,
41.7031250000,5,-2.1231689453,,,
41.7187500000,5,-2.0549929142,,,
41.7343750000,5,-1.6503299475,,,
41.7500000000,5,-0.9512329102,,,
41.7656250000,5,-0.0705871582,,,
41.7812500000,5,0.8133391738,,,
41.7968750000,5,1.5448609591,,,
41.8125000000,5,2.0236508846,,,
41.8281250000,5,2.2377009392,,,
41.8437500000,5,2.2478640079,,,
41.8593750000,5,2.1726529598,,,
41.8750000000,5,2.0851590633,,,
41.8906250000,5,2.0163269043,,,
41.9062500000,5,1.9472049475,,,
41.9218750000,5,1.8173680305,,,
41.9375000000,5,1.5482330322,,,
41.9531250000,5,1.1028590202,,,
41.9687500000,5,0.4676513970,,,
41.9843750000,5,-0.2953490913,,,
42.0000000000,5,-1.0482180119,,,
42.0156250000,5,-1.6947020292,,,
42.0312500000,5,-2.1185610294,,,
42.0468750000,5,-2.2504730225,,,
42.0625000000,5,-2.0697169304,,,
42.0781250000,5,-1.6159969568,,,
42.0937500000,5,-0.9458312988,,,
42.1093750000,5,-0.1873321980,,,
42.1250000000,5,0.5258635879,,,
42.1406250000,5,1.0525510311,,,
42.1562500000,5,1.2716059685,,,
42.1718750000,5,1.1281280518,,,
42.1875000000,5,0.6770172119,,,
42.2031250000,5,0.0323791504,,,
42.2187500000,5,-0.6284484863,,,
42.2343750000,5,-1.1434630156,,,
42.2500000000,5,-1.4362180233,,,
42.2656250000,5,-1.5424189568,,,
42.2812500000,5,-1.5361629725,,,
42.2968750000,5,-1.4892729521,,,
42.3125000000,5,-1.3849489689,,,
42.3281250000,5,-1.1637729406,,,
42.3437500000,5,-0.7886657715,,,
42.3593750000,5,-0.2971343994,,,
42.3750000000,5,0.1659087986,,,
42.3906250000,5,0.4572905898,,,
42.4062500000,5,0.4950866997,,,
42.4218750000,5,0.3869324028,,,
42.4375000000,5,0.2770386040,,,
42.4531250000,5,0.3346252143,,,
42.4687500000,5,0.5584412217,,,
42.4843750000,5,0.7876281738,,,
42.5000000000,5,0.8399658203,,,
42.5156250000,5,0.5931854248,,,
42.5312500000,5,0.0982513428,,,
42.5468750000,5,-0.5219268799,,,
42.5625000000,5,-1.1151729822,,,
42.5781250000,5,-1.6233060360,,,
42.5937500000,5,-2.0196530819,,,
42.6093750000,5,-2.2779390812,,,
42.6250000000,5,-2.3042449951,,,
42.6406250000,5,-2.0006558895,,,
42.6562500000,5,-1.3538060188,,,
42.6718750000,5,-0.4503020942,,,
42.6875000000,5,0.5051116943,,,
42.7031250000,5,1.2880549431,,,
42.7187500000,5,1.7517240047,,,
42.7343750000,5,1.8980710506,,,
42.7500000000,5,1.8297419548,,,
42.7656250000,5,1.6695710421,,,
42.7812500000,5,1.5237120390,,,
42.7968750000,5,1.4187159538,,,
42.8125000000,5,1.3504029512,,,
42.8281250000,5,1.3060610294,,,
42.8437500000,5,1.2695009708,,,
42.8593750000,5,1.2559659481,,,
42.8750000000,5,1.2732089758,,,
42.8906250000,5,1.3386080265,,,
42.9062500000,5,1.4307860136,,,
42.9218750000,5,1.4978330135,,,
42.9375000000,5,1.4091949463,,,
42.9531250000,5,1.0577089787,,,
42.9687500000,5,0.4218902886,,,
42.9843750000,5,-0.3353118896,,,
43.0000000000,5,-0.9910736084,,,
43.0156250000,5,-1.2972409725,,,
43.0312500000,5,-1.1955109835,,,
43.0468750000,5,-0.8171843886,,,
43.0625000000,5,-0.4267731011,,,
43.0781250000,5,-0.2447052002,,,
43.0937500000,5,-0.3098754883,,,
43.1093750000,5,-0.5214843750,,,
43.1250000000,5,-0.6893311143,,,
43.1406250000,5,-0.7457581162,,,
43.1562500000,5,-0.7153472900,,,
43.1718750000,5,-0.7073059082,,,
43.1875000000,5,-0.7551116943,,,
43.2031250000,5,-0.8023682237,,,
43.2187500000,5,-0.7158355713,,,
43.2343750000,5,-0.4053955078,,,
43.2500000000,5,0.0744018629,,,
43.2656250000,5,0.5412139893,,,
43.2812500000,5,0.7498626709,,,
43.2968750000,5,0.5807495117,,,
43.3125000000,5,0.0889739990,,,
43.3281250000,5,-0.5215148926,,,
43.3437500000,5,-1.0043790340,,,
43.3593750000,5,-1.2043299675,,,
43.3750000000,5,-1.1533809900,,,
43.3906250000,5,-0.9933624268,,,
43.4062500000,5,-0.8932189941,,,
43.4218750000,5,-0.9751586914,,,
43.4375000000,5,-1.1861269474,,,
43.4531250000,5,-1.3976140022,,,
43.4687500000,5,-1.4385529757,,,
43.4843750000,5,-1.1612550020,,,
43.5000000000,5,-0.5890961289,,,
43.5156250000,5,0.1535644978,,,
43.5312500000,5,0.8620604873,,,
43.5468750000,5,1.3690190315,,,
43.5625000000,5,1.5653380156,,,
43.5781250000,5,1.4981540442,,,
43.5937500000,5,1.2353060246,,,
43.6093750000,5,0.8816223145,,,
43.6250000000,5,0.4856261909,,,
43.6406250000,5,0.0264587402,,,
43.6562500000,5,-0.5303649902,,,
43.6718750000,5,-1.1796720028,,,
43.6875000000,5,-1.8144990206,,,
43.7031250000,5,-2.2823030949,,,
43.7187500000,5,-2.4037480354,,,
43.7343750000,5,-2.0970458984,,,
43.7500000000,5,-1.4003299475,,,
43.7656250000,5,-0.5014954209,,,
43.7812500000,5,0.3510132134,,,
43.7968750000,5,0.9259796143,,,
43.8125000000,5,1.1459499598,,,
43.8281250000,5,1.0826569796,,,
43.8437500000,5,0.9383391738,,,
43.8593750000,5,0.9254456162,,,
43.8750000000,5,1.1355290413,,,
43.8906250000,5,1.4808809757,,,
43.9062500000,5,1.7658540010,,,
43.9218750000,5,1.7730100155,,,
43.9375000000,5,1.4228520393,,,
43.9531250000,5,0.7965850830,,,
43.9687500000,5,0.1217956990,,,
43.9843750000,5,-0.3643951118,,,
44.0000000000,5,-0.5495758057,,,
44.0156250000,5,-0.4702148139,,,
44.0312500000,5,-0.2521666884,,,
44.0468750000,5,-0.0149231004,,,
44.0625000000,5,0.1920471042,,,
44.0781250000,5,0.3924866021,,,
44.0937500000,5,0.6128997803,,,
44.1093750000,5,0.8704224229,,,
44.1250000000,5,1.0920720100,,,
44.1406250000,5,1.2093659639,,,
44.1562500000,5,1.1597440243,,,
44.1718750000,5,0.9572753906,,,
44.1875000000,5,0.6455535889,,,
44.2031250000,5,0.3268432915,,,
44.2187500000,5,0.0412292518,,,
44.2343750000,5,-0.2273406982,,,
44.2500000000,5,-0.5171660781,,,
44.2656250000,5,-0.8955841064,,,
44.2812500000,5,-1.3381810188,,,
44.2968750000,5,-1.7640529871,,,
44.3125000000,5,-1.9783780575,,,
44.3281250000,5,-1.8545229435,,,
44.3437500000,5,-1.3097840548,,,
44.3593750000,5,-0.4682922065,,,
44.3750000000,5,0.4481200874,,,
44.3906250000,5,1.2254029512,,,
44.4062500000,5,1.7543790340,,,
44.4218750000,5,2.0509190559,,,
44.4375000000,5,2.2011721134,,,
44.4531250000,5,2.2086939812,,,
44.4687500000,5,1.9344480038,,,
44.4843750000,5,1.2223509550,,,
44.5000000000,5,0.0167694092,,,
44.5156250000,5,-1.5060269833,,,
44.5312500000,5,-2.9121088982,,,
44.5468750000,5,-3.7436680794,,,
44.5625000000,5,-3.7185359001,,,
44.5781250000,5,-2.8990480900,,,
44.5937500000,5,-1.6508640051,,,
44.6093750000,5,-0.4373016059,,,
44.6250000000,5,0.4006653130,,,
44.6406250000,5,0.7953795791,,,
44.6562500000,5,0.9019927979,,,
44.6718750000,5,0.9999542236,,,
44.6875000000,5,1.2315369844,,,
44.7031250000,5,1.5845179558,,,
44.7187500000,5,1.8914339542,,,
44.7343750000,5,1.9468690157,,,
44.7500000000,5,1.6398470402,,,
44.7656250000,5,1.0141600370,,,
44.7812500000,5,0.2407837063,,,
44.7968750000,5,-0.4875335991,,,
44.8125000000,5,-1.0817259550,,,
44.8281250000,5,-1.6112979650,,,
44.8437500000,5,-2.1699678898,,,
44.8593750000,5,-2.7728879452,,,
44.8750000000,5,-3.2502589226,,,
44.8906250000,5,-3.3582150936,,,
44.9062500000,5,-2.8355710506,,,
44.9218750000,5,-1.6571040154,,,
44.9375000000,5,-0.0458373986,,,
44.9531250000,5,1.6180109978,,,
44.9687500000,5,2.9345700741,,,
44.9843750000,5,3.7162320614,,,
45.0000000000,5,3.9739840031,,,
45.0156250000,5,3.8411250114,,,
45.0312500000,5,3.4345250130,,,
45.0468750000,5,2.8096010685,,,
45.0625000000,5,2.0128169060,,,
45.0781250000,5,1.1098330021,,,
45.0937500000,5,0.2863922119,,,
45.1093750000,5,-0.2652893066,,,
45.1250000000,5,-0.4140166938,,,
45.1406250000,5,-0.1669158936,,,
45.1562500000,5,0.2931824028,,,
45.1718750000,5,0.7489624023,,,
45.1875000000,5,0.9875640869,,,
45.2031250000,5,0.9353485107,,,
45.2187500000,5,0.6273345947,,,
45.2343750000,5,0.2058562934,,,
45.2500000000,5,-0.1983031929,,,
45.2656250000,5,-0.5009307861,,,
45.2812500000,5,-0.6946715713,,,
45.2968750000,5,-0.8512268066,,,
45.3125000000,5,-1.0533750057,,,
45.3281250000,5,-1.3741760254,,,
45.3437500000,5,-1.8130650520,,,
45.3593750000,5,-2.3014369011,,,
45.3750000000,5,-2.6963810921,,,
45.3906250000,5,-2.9404139519,,,
45.4062500000,5,-2.9790039063,,,
45.4218750000,5,-2.8377840519,,,
45.4375000000,5,-2.5682680607,,,
45.4531250000,5,-2.1949310303,,,
45.4687500000,5,-1.7114720345,,,
45.4843750000,5,-1.1058349609,,,
45.5000000000,5,-0.3745270073,,,
45.5156250000,5,0.4360503852,,,
45.5312500000,5,1.2026059628,,,
45.5468750000,5,1.7832030058,,,
45.5625000000,5,2.0328218937,,,
45.5781250000,5,1.8298799992,,,
45.5937500000,5,1.1768490076,,,
45.6093750000,5,0.2029877007,,,
45.6250000000,5,-0.8083801270,,,
45.6406250000,5,-1.4987490177,,,
45.6562500000,5,-1.5874179602,,,
45.6718750000,5,-0.9896240234,,,
45.6875000000,5,0.1338195950,,,
45.7031250000,5,1.4774930477,,,
45.7187500000,5,2.6343541145,,,
45.7343750000,5,3.3366389275,,,
45.7500000000,5,3.4947049618,,,
45.7656250000,5,3.2140500546,,,
45.7812500000,5,2.7596280575,,,
45.7968750000,5,2.3487238884,,,
45.8125000000,5,2.1246030331,,,
45.8281250000,5,2.0509190559,,,
45.8437500000,5,2.0066831112,,,
45.8593750000,5,1.8408809900,,,
45.8750000000,5,1.5158840418,,,
45.8906250000,5,1.0614010096,,,
45.9062500000,5,0.5983886719,,,
45.9218750000,5,0.2308502048,,,
45.9375000000,5,-0.0420074500,,,
45.9531250000,5,-0.3228302002,,,
45.9687500000,5,-0.7141571045,,,
45.9843750000,5,-1.2353210449,,,
46.0000000000,5,-1.7358859777,,,
46.0156250000,5,-1.9518589973,,,
46.0312500000,5,-1.6659549475,,,
46.0468750000,5,-0.8905487061,,,
46.0625000000,5,0.1458587945,,,
46.0781250000,5,1.0380400419,,,
46.0937500000,5,1.4730069637,,,
46.1093750000,5,1.3507839441,,,
46.1250000000,5,0.7704315186,,,
46.1406250000,5,-0.0737304688,,,
46.1562500000,5,-0.9926146865,,,
46.1718750000,5,-1.9223480225,,,
46.1875000000,5,-2.8159480095,,,
46.2031250000,5,-3.5782780647,,,
46.2187500000,5,-4.0644989014,,,
46.2343750000,5,-4.1181030273,,,
46.2500000000,5,-3.7181549072,,,
46.2656250000,5,-3.0072479248,,,
46.2812500000,5,-2.2411189079,,,
46.2968750000,5,-1.6437840462,,,
46.3125000000,5,-1.3001710176,,,
46.3281250000,5,-1.1183470488,,,
46.3437500000,5,-0.8951416016,,,
46.3593750000,5,-0.4823913872,,,
46.3750000000,5,0.1272429973,,,
46.3906250000,5,0.7691802979,,,
46.4062500000,5,1.2171020508,,,
46.4218750000,5,1.3155360222,,,
46.4375000000,5,1.0546720028,,,
46.4531250000,5,0.5773010254,,,
46.4687500000,5,0.0803527832,,,
46.4843750000,5,-0.2920531929,,,
46.5000000000,5,-0.4690856934,,,
46.5156250000,5,-0.4861145020,,,
46.5312500000,5,-0.4047240913,,,
46.5468750000,5,-0.2602997124,,,
46.5625000000,5,0.0077667241,,,
46.5781250000,5,0.4653624892,,,
46.5937500000,5,1.1514129639,,,
46.6093750000,5,1.9754489660,,,
46.6250000000,5,2.7531590462,,,
46.6406250000,5,3.2640690804,,,
46.6562500000,5,3.3998570442,,,
46.6718750000,5,3.1597900391,,,
46.6875000000,5,2.6870269775,,,
46.7031250000,5,2.1087338924,,,
46.7187500000,5,1.5036469698,,,
46.7343750000,5,0.8781586289,,,
46.7500000000,5,0.2127380073,,,
46.7656250000,5,-0.4394684136,,,
46.7812500000,5,-0.9775695801,,,
46.7968750000,5,-1.2507319450,,,
46.8125000000,5,-1.1809539795,,,
46.8281250000,5,-0.7787628174,,,
46.8437500000,5,-0.1886291951,,,
46.8593750000,5,0.4142302871,,,
46.8750000000,5,0.8422545791,,,
46.8906250000,5,1.0037540197,,,
46.9062500000,5,0.8905333877,,,
46.9218750000,5,0.5518494248,,,
46.9375000000,5,0.0250701904,,,
46.9531250000,5,-0.6658782959,,,
46.9687500000,5,-1.4642490149,,,
46.9843750000,5,-2.2757420540,,,
47.0000000000,5,-2.9473109245,,,
47.0156250000,5,-3.3018040657,,,
47.0312500000,5,-3.2066040039,,,
47.0468750000,5,-2.6769258976,,,
47.0625000000,5,-1.8558039665,,,
47.0781250000,5,-1.0321040154,,,
47.0937500000,5,-0.4582062066,,,
47.1093750000,5,-0.2458800972,,,
47.1250000000,5,-0.2818756104,,,
47.1406250000,5,-0.2973021865,,,
47.1562500000,5,-0.0464019813,,,
47.1718750000,5,0.5567169189,,,
47.1875000000,5,1.3587650061,,,
47.2031250000,5,2.0987548828,,,
47.2187500000,5,2.5073850155,,,
47.2343750000,5,2.5219879150,,,
47.2500000000,5,2.2231600285,,,
47.2656250000,5,1.7863919735,,,
47.2812500000,5,1.3550109863,,,
47.2968750000,5,0.9951934814,,,
47.3125000000,5,0.7176361084,,,
47.3281250000,5,0.5646820068,,,
47.3437500000,5,0.6294403076,,,
47.3593750000,5,0.9962158203,,,
47.3750000000,5,1.6480710506,,,
47.3906250000,5,2.4012761116,,,
47.4062500000,5,2.9730069637,,,
47.4218750000,5,3.1412200928,,,
47.4375000000,5,2.8510129452,,,
47.4531250000,5,2.2294459343,,,
47.4687500000,5,1.5449219942,,,
47.4843750000,5,1.0452580452,,,
47.5000000000,5,0.8053284287,,,
47.5156250000,5,0.7425078750,,,
47.5312500000,5,0.6546782851,,,
47.5468750000,5,0.3062438965,,,
47.5625000000,5,-0.3864746094,,,
47.5781250000,5,-1.2990419865,,,
47.5937500000,5,-2.2005000114,,,
47.6093750000,5,-2.8092501163,,,
47.6250000000,5,-2.9354550838,,,
47.6406250000,5,-2.6131899357,,,
47.6562500000,5,-2.0111999512,,,
47.6718750000,5,-1.3578339815,,,
47.6875000000,5,-0.7817841172,,,
47.7031250000,5,-0.3170318902,,,
47.7187500000,5,0.1419983059,,,
47.7343750000,5,0.6046143174,,,
47.7500000000,5,1.0278170109,,,
47.7656250000,5,1.2841490507,,,
47.7812500000,5,1.2583010197,,,
47.7968750000,5,0.9406281114,,,
47.8125000000,5,0.4153594971,,,
47.8281250000,5,-0.1940612942,,,
47.8437500000,5,-0.8225861192,,,
47.8593750000,5,-1.4485629797,,,
47.8750000000,5,-2.0609130859,,,
47.8906250000,5,-2.5546879768,,,
47.9062500000,5,-2.7640230656,,,
47.9218750000,5,-2.5521850586,,,
47.9375000000,5,-1.9374389648,,,
47.9531250000,5,-1.1248320341,,,
47.9687500000,5,-0.3871918023,,,
47.9843750000,5,0.0522918701,,,
48.0000000000,6,0.1678771973,,,
48.0156250000,6,0.1022797003,,,
48.0312500000,6,0.1058043987,,,
48.0468750000,6,0.3043518066,,,
48.0625000000,6,0.6171112061,,,
48.0781250000,6,0.8526154160,,,
48.0937500000,6,0.7900847793,,,
48.1093750000,6,0.3500213921,,,
48.1250000000,6,-0.3494262993,,,
48.1406250000,6,-1.0489350557,,,
48.1562500000,6,-1.4752199650,,,
48.1718750000,6,-1.4762419462,,,
48.1875000000,6,-1.0474549532,,,
48.2031250000,6,-0.3719635010,,,
48.2187500000,6,0.3715209961,,,
48.2343750000,6,1.0152130127,,,
48.2500000000,6,1.5092159510,,,
48.2656250000,6,1.8573609591,,,
48.2812500000,6,2.1164400578,,,
48.2968750000,6,2.3175199032,,,
48.3125000000,6,2.4750061035,,,
48.3281250000,6,2.5526580811,,,
48.3437500000,6,2.5335690975,,,
48.3593750000,6,2.4089360237,,,
48.3750000000,6,2.1324770451,,,
48.3906250000,6,1.6036679745,,,
48.4062500000,6,0.7487639785,,,
48.4218750000,6,-0.4229584038,,,
48.4375000000,6,-1.7524410486,,,
48.4531250000,6,-2.9324190617,,,
48.4687500000,6,-3.6529080868,,,
48.4843750000,6,-3.7380371094,,,
48.5000000000,6,-3.2408449650,,,
48.5156250000,6,-2.4016571045,,,
48.5312500000,6,-1.4973599911,,,
48.5468750000,6,-0.7045897841,,,
48.5625000000,6,-0.0242614709,,,
48.5781250000,6,0.6221923828,,,
48.5937500000,6,1.2447659969,,,
48.6093750000,6,1.7410130501,,,
48.6250000000,6,1.9090729952,,,
48.6406250000,6,1.6109470129,,,
48.6562500000,6,0.8665465713,,,
48.6718750000,6,-0.0783843994,,,
48.6875000000,6,-0.9108886719,,,
48.7031250000,6,-1.3777619600,,,
48.7187500000,6,-1.3889009953,,,
48.7343750000,6,-1.0702669621,,,
48.7500000000,6,-0.5888519287,,,
48.7656250000,6,-0.1187286004,,,
48.7812500000,6,0.2497252971,,,
48.7968750000,6,0.5037078857,,,
48.8125000000,6,0.7141724229,,,
48.8281250000,6,0.8832396865,,,
48.8437500000,6,1.0072629452,,,
48.8593750000,6,1.0542759895,,,
48.8750000000,6,0.9676207900,,,
48.8906250000,6,0.7074127197,,,
48.9062500000,6,0.3208008111,,,
48.9218750000,6,-0.1225586012,,,
48.9375000000,6,-0.5247802734,,,
48.9531250000,6,-0.8553771973,,,
48.9687500000,6,-1.1638180017,,,
48.9843750000,6,-1.5126039982,,,
49.0000000000,6,-1.9208530188,,,
49.0156250000,6,-2.3027191162,,,
49.0312500000,6,-2.4899749756,,,
49.0468750000,6,-2.2911069393,,,
49.0625000000,6,-1.6674189568,,,
49.0781250000,6,-0.7290344238,,,
49.0937500000,6,0.2553406060,,,
49.1093750000,6,1.0014040470,,,
49.1250000000,6,1.3489530087,,,
49.1406250000,6,1.3264009953,,,
49.1562500000,6,1.0842900276,,,
49.1718750000,6,0.8206024170,,,
49.1875000000,6,0.6281586289,,,
49.2031250000,6,0.4647217095,,,
49.2187500000,6,0.2161712945,,,
49.2343750000,6,-0.2197722942,,,
49.2500000000,6,-0.8363494873,,,
49.2656250000,6,-1.4877170324,,,
49.2812500000,6,-1.9408260584,,,
49.2968750000,6,-1.9987490177,,,
49.3125000000,6,-1.5612790585,,,
49.3281250000,6,-0.7378082275,,,
49.3437500000,6,0.2265625000,,,
49.3593750000,6,1.0482480526,,,
49.3750000000,6,1.5422970057,,,
49.3906250000,6,1.6553499699,,,
49.4062500000,6,1.5181269646,,,
49.4218750000,6,1.2839510441,,,
49.4375000000,6,1.0632929802,,,
49.4531250000,6,0.8582457900,,,
49.4687500000,6,0.5807952881,,,
49.4843750000,6,0.1538849026,,,
49.5000000000,6,-0.4176788032,,,
49.5156250000,6,-1.0325160027,,,
49.5312500000,6,-1.5664060116,,,
49.5468750000,6,-1.9048919678,,,
49.5625000000,6,-2.0142359734,,,
49.5781250000,6,-1.9133759737,,,
49.5937500000,6,-1.6560670137,,,
49.6093750000,6,-1.2925570011,,,
49.6250000000,6,-0.8438416123,,,
49.6406250000,6,-0.3531494141,,,
49.6562500000,6,0.1070557013,,,
49.6718750000,6,0.4530639946,,,
49.6875000000,6,0.5993499756,,,
49.7031250000,6,0.5490875244,,,
49.7187500000,6,0.3335418999,,,
49.7343750000,6,0.0564575195,,,
49.7500000000,6,-0.1984862983,,,
49.7656250000,6,-0.3466339111,,,
49.7812500000,6,-0.3639068902,,,
49.7968750000,6,-0.2477722019,,,
49.8125000000,6,-0.0190582294,,,
49.8281250000,6,0.2949523926,,,
49.8437500000,6,0.6664580703,,,
49.8593750000,6,1.0833890438,,,
49.8750000000,6,1.5606080294,,,
49.8906250000,6,2.0720520020,,,
49.9062500000,6,2.6098630428,,,
49.9218750000,6,3.1151580811,,,
49.9375000000,6,3.5216369629,,,
49.9531250000,6,3.7569119930,,,
49.9687500000,6,3.7714080811,,,
49.9843750000,6,3.4682919979,,,
50.0000000000,6,2.8336939812,,,
50.0156250000,6,1.8810729980,,,
50.0312500000,6,0.7331542969,,,
50.0468750000,6,-0.4055022895,,,
50.0625000000,6,-1.3244780302,,,
50.0781250000,6,-1.8549499512,,,
50.0937500000,6,-1.9500269890,,,
50.1093750000,6,-1.6580660343,,,
50.1250000000,6,-1.0877530575,,,
50.1406250000,6,-0.3348236084,,,
50.1562500000,6,0.4808807075,,,
50.1718750000,6,1.2668759823,,,
50.1875000000,6,1.8537139893,,,
50.2031250000,6,2.0789179802,,,
50.2187500000,6,1.8247070313,,,
50.2343750000,6,1.1170200109,,,
50.2500000000,6,0.1134338006,,,
50.2656250000,6,-0.9124755859,,,
50.2812500000,6,-1.7034909725,,,
50.2968750000,6,-2.1164250374,,,
50.3125000000,6,-2.1576080322,,,
50.3281250000,6,-1.9373170137,,,
50.3437500000,6,-1.6000820398,,,
50.3593750000,6,-1.2944790125,,,
50.3750000000,6,-1.0740200281,,,
50.3906250000,6,-0.9705657959,,,
50.4062500000,6,-0.9518585205,,,
50.4218750000,6,-0.9799652100,,,
50.4375000000,6,-1.0028229952,,,
50.4531250000,6,-0.9934691787,,,
50.4687500000,6,-0.9062653184,,,
50.4843750000,6,-0.7180786133,,,
50.5000000000,6,-0.4036406875,,,
50.5156250000,6,-0.0077514648,,,
50.5312500000,6,0.3727416992,,,
50.5468750000,6,0.6200562119,,,
50.5625000000,6,0.6279907227,,,
50.5781250000,6,0.4189758003,,,
50.5937500000,6,0.1061706990,,,
50.6093750000,6,-0.0953674316,,,
50.6250000000,6,-0.0361022912,,,
50.6406250000,6,0.3227081001,,,
50.6562500000,6,0.8320006728,,,
50.6718750000,6,1.2801970243,,,
50.6875000000,6,1.5164639950,,,
50.7031250000,6,1.5313260555,,,
50.7187500000,6,1.4575649500,,,
50.7343750000,6,1.4772800207,,,
50.7500000000,6,1.7167509794,,,
50.7656250000,6,2.1215059757,,,
50.7812500000,6,2.5346679688,,,
50.7968750000,6,2.7791290283,,,
50.8125000000,6,2.7064819336,,,
50.8281250000,6,2.3034670353,,,
50.8437500000,6,1.6502690315,,,
50.8593750000,6,0.8524780273,,,
50.8750000000,6,0.0270843506,,,
50.8906250000,6,-0.7430878282,,,
50.9062500000,6,-1.3997960091,,,
50.9218750000,6,-1.8788150549,,,
50.9375000000,6,-2.1257479191,,,
50.9531250000,6,-2.1577448845,,,
50.9687500000,6,-2.0344998837,,,
50.9843750000,6,-1.8554990292,,,
51.0000000000,6,-1.6990360022,,,
51.0156250000,6,-1.6049959660,,,
51.0312500000,6,-1.5357509851,,,
51.0468750000,6,-1.4245450497,,,
51.0625000000,6,-1.2221219540,,,
51.0781250000,6,-0.9294434190,,,
51.0937500000,6,-0.6183928847,,,
51.1093750000,6,-0.4002532959,,,
51.1250000000,6,-0.3281250000,,,
51.1406250000,6,-0.3674621880,,,
51.1562500000,6,-0.4129944146,,,
51.1718750000,6,-0.3125916123,,,
51.1875000000,6,0.0087585449,,,
51.2031250000,6,0.5148468018,,,
51.2187500000,6,1.0476230383,,,
51.2343750000,6,1.4047850370,,,
51.2500000000,6,1.4791409969,,,
51.2656250000,6,1.3218539953,,,
51.2812500000,6,1.0659790039,,,
51.2968750000,6,0.9039916992,,,
51.3125000000,6,0.9148406982,,,
51.3281250000,6,1.0108950138,,,
51.3437500000,6,0.9939270020,,,
51.3593750000,6,0.7157135010,,,
51.3750000000,6,0.1615601033,,,
51.3906250000,6,-0.5128325820,,,
51.4062500000,6,-1.1115419865,,,
51.4218750000,6,-1.5103909969,,,
51.4375000000,6,-1.7138210535,,,
51.4531250000,6,-1.8371889591,,,
51.4687500000,6,-1.9655760527,,,
51.4843750000,6,-2.0658109188,,,
51.5000000000,6,-2.0024569035,,,
51.5156250000,6,-1.6319580078,,,
51.5312500000,6,-0.9295958877,,,
51.5468750000,6,-0.0531005897,,,
51.5625000000,6,0.7244263291,,,
51.5781250000,6,1.1295930147,,,
51.5937500000,6,1.0522919893,,,
51.6093750000,6,0.6084290147,,,
51.6250000000,6,0.0702819824,,,
51.6406250000,6,-0.2763671875,,,
51.6562500000,6,-0.2974700928,,,
51.6718750000,6,-0.0612640418,,,
51.6875000000,6,0.2175292969,,,
51.7031250000,6,0.3393706977,,,
51.7187500000,6,0.2159118950,,,
51.7343750000,6,-0.0505371094,,,
51.7500000000,6,-0.2370605022,,,
51.7656250000,6,-0.1469268948,,,
51.7812500000,6,0.2275085002,,,
51.7968750000,6,0.6962432861,,,
51.8125000000,6,0.9594116211,,,
51.8281250000,6,0.7947844863,,,
51.8437500000,6,0.1965178996,,,
51.8593750000,6,-0.5770416260,,,
51.8750000000,6,-1.1914520264,,,
51.8906250000,6,-1.4145510197,,,
51.9062500000,6,-1.2402499914,,,
51.9218750000,6,-0.8959807754,,,
51.9375000000,6,-0.6318206787,,,
51.9531250000,6,-0.6218413711,,,
51.9687500000,6,-0.8361206055,,,
51.9843750000,6,-1.0961459875,,,
52.0000000000,6,-1.1881409883,,,
52.0156250000,6,-0.9849700928,,,
52.0312500000,6,-0.4826659858,,,
52.0468750000,6,0.2026824951,,,
52.0625000000,6,0.8959351182,,,
52.0781250000,6,1.4725190401,,,
52.0937500000,6,1.8219759464,,,
52.1093750000,6,1.9200290442,,,
52.1250000000,6,1.7844539881,,,
52.1406250000,6,1.4790040255,,,
52.1562500000,6,1.1135710478,,,
52.1718750000,6,0.7641602159,,,
52.1875000000,6,0.4175261855,,,
52.2031250000,6,0.0140838604,,,
52.2187500000,6,-0.5288085938,,,
52.2343750000,6,-1.2072139978,,,
52.2500000000,6,-1.8457030058,,,
52.2656250000,6,-2.1761469841,,,
52.2812500000,6,-1.9711149931,,,
52.2968750000,6,-1.1883850098,,,
52.3125000000,6,-0.0436096191,,,
52.3281250000,6,1.1045229435,,,
52.3437500000,6,1.8830720186,,,
52.3593750000,6,2.1173100471,,,
52.3750000000,6,1.8675689697,,,
52.3906250000,6,1.3859560490,,,
52.4062500000,6,0.9200438857,,,
52.4218750000,6,0.5965880752,,,
52.4375000000,6,0.3813323975,,,
52.4531250000,6,0.1596222073,,,
52.4687500000,6,-0.1590881050,,,
52.4843750000,6,-0.5437468886,,,
52.5000000000,6,-0.8655701280,,,
52.5156250000,6,-1.0393830538,,,
52.5312500000,6,-1.0413360596,,,
52.5468750000,6,-0.9273071289,,,
52.5625000000,6,-0.7832794189,,,
52.5781250000,6,-0.6376190186,,,
52.5937500000,6,-0.4380492866,,,
52.6093750000,6,-0.0987091064,,,
52.6250000000,6,0.4486542046,,,
52.6406250000,6,1.1449429989,,,
52.6562500000,6,1.8715360165,,,
52.6718750000,6,2.4613189697,,,
52.6875000000,6,2.7799680233,,,
52.7031250000,6,2.7670290470,,,
52.7187500000,6,2.4279019833,,,
52.7343750000,6,1.8063050508,,,
52.7500000000,6,0.9642487168,,,
52.7656250000,6,-0.0182189904,,,
52.7812500000,6,-1.0176090002,,,
52.7968750000,6,-1.8889310360,,,
52.8125000000,6,-2.4975280762,,,
52.8281250000,6,-2.7099299431,,,
52.8437500000,6,-2.4954829216,,,
52.8593750000,6,-1.8991700411,,,
52.8750000000,6,-1.1102290154,,,
52.8906250000,6,-0.3382568061,,,
52.9062500000,6,0.1929474026,,,
52.9218750000,6,0.3842773139,,,
52.9375000000,6,0.2463836968,,,
52.9531250000,6,-0.0788574219,,,
52.9687500000,6,-0.4326477051,,,
52.9843750000,6,-0.6712036133,,,
53.0000000000,6,-0.7473145127,,,
53.0156250000,6,-0.7028350830,,,
53.0312500000,6,-0.6260375977,,,
53.0468750000,6,-0.5693665147,,,
53.0625000000,6,-0.4992218018,,,
53.0781250000,6,-0.3721008003,,,
53.0937500000,6,-0.1484528035,,,
53.1093750000,6,0.1228485033,,,
53.1250000000,6,0.3718566895,,,
53.1406250000,6,0.5303344727,,,
53.1562500000,6,0.6158447266,,,
53.1718750000,6,0.7005919814,,,
53.1875000000,6,0.8637847900,,,
53.2031250000,6,1.1161960363,,,
53.2187500000,6,1.3747409582,,,
53.2343750000,6,1.5127110481,,,
53.2500000000,6,1.4233700037,,,
53.2656250000,6,1.0616459846,,,
53.2812500000,6,0.5223236084,,,
53.2968750000,6,-0.0369262695,,,
53.3125000000,6,-0.4458312988,,,
53.3281250000,6,-0.5772551894,,,
53.3437500000,6,-0.4271697998,,,
53.3593750000,6,-0.0469970703,,,
53.3750000000,6,0.4293060005,,,
53.3906250000,6,0.8898621202,,,
53.4062500000,6,1.2625429630,,,
53.4218750000,6,1.5367579460,,,
53.4375000000,6,1.7191469669,,,
53.4531250000,6,1.8239289522,,,
53.4687500000,6,1.7909849882,,,
53.4843750000,6,1.5329899788,,,
53.5000000000,6,0.9969481826,,,
53.5156250000,6,0.2450408936,,,
53.5312500000,6,-0.5845642090,,,
53.5468750000,6,-1.2702939510,,,
53.5625000000,6,-1.6220090389,,,
53.5781250000,6,-1.6160279512,,,
53.5937500000,6,-1.3318940401,,,
53.6093750000,6,-0.9431763291,,,
53.6250000000,6,-0.6123657227,,,
53.6406250000,6,-0.4364776909,,,
53.6562500000,6,-0.4315338135,,,
53.6718750000,6,-0.5778198242,,,
53.6875000000,6,-0.8216704726,,,
53.7031250000,6,-1.0869450569,,,
53.7187500000,6,-1.2682950497,,,
53.7343750000,6,-1.2375179529,,,
53.7500000000,6,-0.9050446153,,,
53.7656250000,6,-0.2928313911,,,
53.7812500000,6,0.4781188965,,,
53.7968750000,6,1.1805570126,,,
53.8125000000,6,1.5881350040,,,
53.8281250000,6,1.5669859648,,,
53.8437500000,6,1.1453549862,,,
53.8593750000,6,0.5023040771,,,
53.8750000000,6,-0.0924835205,,,
53.8906250000,6,-0.4326323867,,,
53.9062500000,6,-0.4431914985,,,
53.9218750000,6,-0.1973267049,,,
53.9375000000,6,0.1212769002,,,
53.9531250000,6,0.3470000923,,,
53.9687500000,6,0.4187316895,,,
53.9843750000,6,0.3722839057,,,
54.0000000000,6,0.3098297119,,,
54.0156250000,6,0.3407745063,,,
54.0312500000,6,0.4105224907,,,
54.0468750000,6,0.3961029053,,,
54.0625000000,6,0.1362915039,,,
54.0781250000,6,-0.4094848931,,,
54.0937500000,6,-1.1397089958,,,
54.1093750000,6,-1.8018490076,,,
54.1250000000,6,-2.1574249268,,,
54.1406250000,6,-2.0998380184,,,
54.1562500000,6,-1.6932679415,,,
54.1718750000,6,-1.1552580595,,,
54.1875000000,6,-0.6887207031,,,
54.2031250000,6,-0.4692840874,,,
54.2187500000,6,-0.5380706787,,,
54.2343750000,6,-0.8643798828,,,
54.2500000000,6,-1.3103940487,,,
54.2656250000,6,-1.7185209990,,,
54.2812500000,6,-1.8851929903,,,
54.2968750000,6,-1.6624759436,,,
54.3125000000,6,-0.9946898818,,,
54.3281250000,6,0.0288848896,,,
54.3437500000,6,1.1642760038,,,
54.3593750000,6,2.0996549129,,,
54.3750000000,6,2.6295619011,,,
54.3906250000,6,2.6965179443,,,
54.4062500000,6,2.3937230110,,,
54.4218750000,6,1.8666529655,,,
54.4375000000,6,1.2062530518,,,
54.4531250000,6,0.4347533882,,,
54.4687500000,6,-0.4298096001,,,
54.4843750000,6,-1.2469940186,,,
54.5000000000,6,-1.7993619442,,,
54.5156250000,6,-1.8332060575,,,
54.5312500000,6,-1.2813570499,,,
54.5468750000,6,-0.3182067871,,,
54.5625000000,6,0.7087860107,,,
54.5781250000,6,1.4376679659,,,
54.5937500000,6,1.6762080193,,,
54.6093750000,6,1.4831999540,,,
54.6250000000,6,1.1098480225,,,
54.6406250000,6,0.8429564834,,,
54.6562500000,6,0.8149567246,,,
54.6718750000,6,0.9766082764,,,
54.6875000000,6,1.1504210234,,,
54.7031250000,6,1.1870119572,,,
54.7187500000,6,1.0772249699,,,
54.7343750000,6,1.0039980412,,,
54.7500000000,6,1.1876980066,,,
54.7656250000,6,1.7389980555,,,
54.7812500000,6,2.5272519588,,,
54.7968750000,6,3.1736910343,,,
54.8125000000,6,3.2792820930,,,
54.8281250000,6,2.6515660286,,,
54.8437500000,6,1.4752810001,,,
54.8593750000,6,0.2180633992,,,
54.8750000000,6,-0.5837401748,,,
54.8906250000,6,-0.6661223769,,,
54.9062500000,6,-0.1828307956,,,
54.9218750000,6,0.3956299126,,,
54.9375000000,6,0.5523223877,,,
54.9531250000,6,0.0421600305,,,
54.9687500000,6,-0.9813538194,,,
54.9843750000,6,-2.0545039177,,,
55.0000000000,6,-2.7057800293,,,
55.0156250000,6,-2.6533050537,,,
55.0312500000,6,-1.9781190157,,,
55.0468750000,6,-1.0414119959,,,
55.0625000000,6,-0.2484589070,,,
55.0781250000,6,0.1387176961,,,
55.0937500000,6,0.1114654988,,,
55.1093750000,6,-0.1360473931,,,
55.1250000000,6,-0.3604430854,,,
55.1406250000,6,-0.3759002984,,,
55.1562500000,6,-0.1920012981,,,
55.1718750000,6,0.0319366492,,,
55.1875000000,6,0.0926666334,,,
55.2031250000,6,-0.0988769531,,,
55.2187500000,6,-0.4813232124,,,
55.2343750000,6,-0.8444061279,,,
55.2500000000,6,-0.9953156114,,,
55.2656250000,6,-0.8605651855,,,
55.2812500000,6,-0.4931488037,,,
55.2968750000,6,-0.0206756592,,,
55.3125000000,6,0.4099425972,,,
55.3281250000,6,0.7065125108,,,
55.3437500000,6,0.8125305176,,,
55.3593750000,6,0.6829224229,,,
55.3750000000,6,0.3105773926,,,
55.3906250000,6,-0.2342528999,,,
55.4062500000,6,-0.8080750108,,,
55.4218750000,6,-1.1963959932,,,
55.4375000000,6,-1.2396390438,,,
55.4531250000,6,-0.9532470703,,,
55.4687500000,6,-0.5445709229,,,
55.4843750000,6,-0.3237456977,,,
55.5000000000,6,-0.5308684707,,,
55.5156250000,6,-1.1635129452,,,
55.5312500000,6,-1.9832609892,,,
55.5468750000,6,-2.6320040226,,,
55.5625000000,6,-2.8160099983,,,
55.5781250000,6,-2.4279479980,,,
55.5937500000,6,-1.6067199707,,,
55.6093750000,6,-0.6124268174,,,
55.6250000000,6,0.3019256890,,,
55.6406250000,6,0.9844970703,,,
55.6562500000,6,1.4167180061,,,
55.6718750000,6,1.6139069796,,,
55.6875000000,6,1.6146240234,,,
55.7031250000,6,1.4033659697,,,
55.7187500000,6,0.9718781114,,,
55.7343750000,6,0.3520660102,,,
55.7500000000,6,-0.2894896865,,,
55.7656250000,6,-0.7396697998,,,
55.7812500000,6,-0.8190460205,,,
55.7968750000,6,-0.4630432129,,,
55.8125000000,6,0.1842803955,,,
55.8281250000,6,0.8694763184,,,
55.8437500000,6,1.3278959990,,,
55.8593750000,6,1.4408570528,,,
55.8750000000,6,1.2662659883,,,
55.8906250000,6,0.9676207900,,,
55.9062500000,6,0.6633452773,,,
55.9218750000,6,0.3463593125,,,
55.9375000000,6,-0.0651397705,,,
55.9531250000,6,-0.6535034180,,,
55.9687500000,6,-1.3337860107,,,
55.9843750000,6,-1.9309689999,,,
56.0000000000,7,-2.2182459831,,,
56.0156250000,7,-2.0778350830,,,
56.0312500000,7,-1.6071779728,,,
56.0468750000,7,-1.0475620031,,,
56.0625000000,7,-0.6377562881,,,
56.0781250000,7,-0.5051879883,,,
56.0937500000,7,-0.6207274795,,,
56.1093750000,7,-0.8557739258,,,
56.1250000000,7,-1.0941009521,,,
56.1406250000,7,-1.2428890467,,,
56.1562500000,7,-1.2520600557,,,
56.1718750000,7,-1.1006159782,,,
56.1875000000,7,-0.7452086806,,,
56.2031250000,7,-0.2032928020,,,
56.2187500000,7,0.4498443902,,,
