Time:64Hz,Epoch,Channel 1,Event Id,Event Date,Event Duration
0.0000000000,0,-0.4290237129,,,
0.0156250000,0,-0.8540729880,,,
0.0312500000,0,-1.2375860214,,,
0.0468750000,0,-1.5020190477,,,
0.0625000000,0,-1.5857629776,,,
0.0781250000,0,-1.4542800188,,,
0.0937500000,0,-1.1347210407,,,
0.1093750000,0,-0.6961488724,,,
0.1250000000,0,-0.2252831012,,,
0.1406250000,0,0.1924066991,,,
0.1562500000,0,0.4863229096,,,
0.1718750000,0,0.5974630713,,,
0.1875000000,0,0.5263003707,,,
0.2031250000,0,0.3138189018,,,
0.2187500000,0,0.0465817489,,,
0.2343750000,0,-0.1698383987,,,
0.2500000000,0,-0.2433380932,,,
0.2656250000,0,-0.1462077945,,,
0.2812500000,0,0.0808978081,,,
0.2968750000,0,0.3461180031,,,
0.3125000000,0,0.5268979073,,,
0.3281250000,0,0.5524106026,,,
0.3437500000,0,0.4146313965,,,
0.3593750000,0,0.1643266976,,,
0.3750000000,0,-0.1050897017,,,
0.3906250000,0,-0.3134574890,,,
0.4062500000,0,-0.4075098038,,,
0.4218750000,0,-0.3729667962,,,
0.4375000000,0,-0.2213473022,,,
0.4531250000,0,-0.0048208241,,,
0.4687500000,0,0.2227073014,,,
0.4843750000,0,0.3932980895,,,
0.5000000000,0,0.4471654892,,,
0.5156250000,0,0.3625245094,,,
0.5312500000,0,0.1547722965,,,
0.5468750000,0,-0.1147437021,,,
0.5625000000,0,-0.3649921119,,,
0.5781250000,0,-0.5045400262,,,
0.5937500000,0,-0.5005331039,,,
0.6093750000,0,-0.3723616898,,,
0.6250000000,0,-0.1989250034,,,
0.6406250000,0,-0.0633831024,,,
0.6562500000,0,-0.0081362724,,,
0.6718750000,0,-0.0237007104,,,
0.6875000000,0,-0.0374393500,,,
0.7031250000,0,0.0236220397,,,
0.7187500000,0,0.1837320030,,,
0.7343750000,0,0.3905901909,,,
0.7500000000,0,0.5438495278,,,
0.7656250000,0,0.5299028754,,,
0.7812500000,0,0.2952398956,,,
0.7968750000,0,-0.1097354963,,,
0.8125000000,0,-0.5643144250,,,
0.8281250000,0,-0.9183053970,,,
0.8437500000,0,-1.0554679632,,,
0.8593750000,0,-0.9521722794,,,
0.8750000000,0,-0.6666545868,,,
0.8906250000,0,-0.3162718117,,,
0.9062500000,0,-0.0127015105,,,
0.9218750000,0,0.1647095978,,,
0.9375000000,0,0.1948775947,,,
0.9531250000,0,0.0891776085,,,
0.9687500000,0,-0.1039519012,,,
0.9843750000,0,-0.3356837928,,,
1.0000000000,0,-0.5474572182,,,
1.0156250000,0,-0.7167134285,,,
1.0312500000,0,-0.8301401138,,,
1.0468750000,0,-0.9045534134,,,
1.0625000000,0,-0.9604830742,,,
1.0781250000,0,-0.9696779251,,,
1.0937500000,0,-0.9161428809,,,
1.1093750000,0,-0.7532786727,,,
1.1250000000,0,-0.4858540893,,,
1.1406250000,0,-0.1607366055,,,
1.1562500000,0,0.1276555061,,,
1.1718750000,0,0.2843604088,,,
1.1875000000,0,0.2576332092,,,
1.2031250000,0,0.0745301172,,,
1.2187500000,0,-0.1553720981,,,
1.2343750000,0,-0.3084678948,,,
1.2500000000,0,-0.2747707069,,,
1.2656250000,0,-0.0353131294,,,
1.2812500000,0,0.3378056884,,,
1.2968750000,0,0.7318820953,,,
1.3125000000,0,1.0435329676,,,
1.3281250000,0,1.2151679993,,,
1.3437500000,0,1.2430800200,,,
1.3593750000,0,1.1443350315,,,
1.3750000000,0,0.9401736259,,,
1.3906250000,0,0.6575136185,,,
1.4062500000,0,0.3349252045,,,
1.4218750000,0,0.0341477394,,,
1.4375000000,0,-0.1609144062,,,
1.4531250000,0,-0.1720447987,,,
1.4687500000,0,0.0241999608,,,
1.4843750000,0,0.3578023911,,,
1.5000000000,0,0.6972097754,,,
1.5156250000,0,0.8793858886,,,
1.5312500000,0,0.8190283775,,,
1.5468750000,0,0.5213541985,,,
1.5625000000,0,0.0766754225,,,
1.5781250000,0,-0.3805541992,,,
1.5937500000,0,-0.7833200097,,,
1.6093750000,0,-1.1020150185,,,
1.6250000000,0,-1.3721430302,,,
1.6406250000,0,-1.6042200327,,,
1.6562500000,0,-1.7791279554,,,
1.6718750000,0,-1.8288609982,,,
1.6875000000,0,-1.6882890463,,,
1.7031250000,0,-1.3350620270,,,
1.7187500000,0,-0.8110404015,,,
1.7343750000,0,-0.2378945053,,,
1.7500000000,0,0.2502870858,,,
1.7656250000,0,0.5567060113,,,
1.7812500000,0,0.6511840820,,,
1.7968750000,0,0.5647873878,,,
1.8125000000,0,0.3693108857,,,
1.8281250000,0,0.1383996010,,,
1.8437500000,0,-0.0430970192,,,
1.8593750000,0,-0.1080785021,,,
1.8750000000,0,-0.0093421936,,,
1.8906250000,0,0.2629742920,,,
1.9062500000,0,0.6659135818,,,
1.9218750000,0,1.0958650112,,,
1.9375000000,0,1.4191399813,,,
1.9531250000,0,1.5295909643,,,
1.9687500000,0,1.3919500113,,,
1.9843750000,0,1.0634469986,,,
2.0000000000,0,0.6712841988,,,
2.0156250000,0,0.3274306953,,,
2.0312500000,0,0.0935420990,,,
2.0468750000,0,-0.0527496301,,,
2.0625000000,0,-0.1647558063,,,
2.0781250000,0,-0.2512683868,,,
2.0937500000,0,-0.2762537003,,,
2.1093750000,0,-0.1621852070,,,
2.1250000000,0,0.1178961024,,,
2.1406250000,0,0.5125122070,,,
2.1562500000,0,0.9002500176,,,
2.1718750000,0,1.1717679501,,,
2.1875000000,0,1.2767859697,,,
2.2031250000,0,1.2590579987,,,
2.2187500000,0,1.2105649710,,,
2.2343750000,0,1.2079420090,,,
2.2500000000,0,1.2526090145,,,
2.2656250000,0,1.2992800474,,,
2.2812500000,0,1.2829079628,,,
2.2968750000,0,1.1746079922,,,
2.3125000000,0,0.9884619713,,,
2.3281250000,0,0.7692360878,,,
2.3437500000,0,0.5653954148,,,
2.3593750000,0,0.4049425125,,,
2.3750000000,0,0.3199706078,,,
2.3906250000,0,0.3218894005,,,
2.4062500000,0,0.4079155922,,,
2.4218750000,0,0.5251988769,,,
2.4375000000,0,0.5823640823,,,
2.4531250000,0,0.4897064865,,,
2.4687500000,0,0.2144708931,,,
2.4843750000,0,-0.2057590038,,,
2.5000000000,0,-0.6621407866,,,
2.5156250000,0,-1.0375560522,,,
2.5312500000,0,-1.2693409920,,,
2.5468750000,0,-1.3499699831,,,
2.5625000000,0,-1.3150290251,,,
2.5781250000,0,-1.1817669868,,,
2.5937500000,0,-0.9511250854,,,
2.6093750000,0,-0.6216173172,,,
2.6250000000,0,-0.2422112972,,,
2.6406250000,0,0.0957264900,,,
2.6562500000,0,0.2653951943,,,
2.6718750000,0,0.1912260056,,,
2.6875000000,0,-0.0970349312,,,
2.7031250000,0,-0.4770273864,,,
2.7187500000,0,-0.7643104196,,,
2.7343750000,0,-0.8321533203,,,
2.7500000000,0,-0.6516708732,,,
2.7656250000,0,-0.3115864098,,,
2.7812500000,0,0.0350852013,,,
2.7968750000,0,0.2520413101,,,
2.8125000000,0,0.2675858140,,,
2.8281250000,0,0.1235318035,,,
2.8437500000,0,-0.0860652924,,,
2.8593750000,0,-0.2408813983,,,
2.8750000000,0,-0.2513003051,,,
2.8906250000,0,-0.0864472389,,,
2.9062500000,0,0.2181230038,,,
2.9218750000,0,0.5769113898,,,
2.9375000000,0,0.8812612891,,,
2.9531250000,0,1.0417850018,,,
2.9687500000,0,1.0145030022,,,
2.9843750000,0,0.7966638207,,,
3.0000000000,0,0.4441662133,,,
3.0156250000,0,0.0627698898,,,
3.0312500000,0,-0.2460542023,,,
3.0468750000,0,-0.4067755044,,,
3.0625000000,0,-0.3911232948,,,
3.0781250000,0,-0.2306094021,,,
3.0937500000,0,0.0051517491,,,
3.1093750000,0,0.2483125031,,,
3.1250000000,0,0.4344454110,,,
3.1406250000,0,0.5510445237,,,
3.1562500000,0,0.5954833031,,,
3.1718750000,0,0.5730299950,,,
3.1875000000,0,0.5023717880,,,
3.2031250000,0,0.3923178017,,,
3.2187500000,0,0.2662934959,,,
3.2343750000,0,0.1327710003,,,
3.2500000000,0,0.0070738788,,,
3.2656250000,0,-0.1109281033,,,
3.2812500000,0,-0.2067999989,,,
3.2968750000,0,-0.2458509952,,,
3.3125000000,0,-0.1917386055,,,
3.3281250000,0,-0.0244784392,,,
3.3437500000,0,0.2326001972,,,
3.3593750000,0,0.5069121718,,,
3.3750000000,0,0.7070732117,,,
3.3906250000,0,0.7571982741,,,
3.4062500000,0,0.6550735831,,,
3.4218750000,0,0.4336814880,,,
3.4375000000,0,0.1483840942,,,
3.4531250000,0,-0.1700568050,,,
3.4687500000,0,-0.4919910133,,,
3.4843750000,0,-0.8053998947,,,
3.5000000000,0,-1.0661640167,,,
3.5156250000,0,-1.1996710300,,,
3.5312500000,0,-1.1476160288,,,
3.5468750000,0,-0.9257174134,,,
3.5625000000,0,-0.6263794899,,,
3.5781250000,0,-0.3798528016,,,
3.5937500000,0,-0.2743883133,,,
3.6093750000,0,-0.3083128929,,,
3.6250000000,0,-0.4015417099,,,
3.6406250000,0,-0.4503859878,,,
3.6562500000,0,-0.4178347886,,,
3.6718750000,0,-0.3404856026,,,
3.6875000000,0,-0.2995671928,,,
3.7031250000,0,-0.3463225067,,,
3.7187500000,0,-0.4646826088,,,
3.7343750000,0,-0.5913414955,,,
3.7500000000,0,-0.6623191833,,,
3.7656250000,0,-0.6630176902,,,
3.7812500000,0,-0.6413506866,,,
3.7968750000,0,-0.6519641876,,,
3.8125000000,0,-0.7102565765,,,
3.8281250000,0,-0.7837820053,,,
3.8437500000,0,-0.8036556244,,,
3.8593750000,0,-0.7132201195,,,
3.8750000000,0,-0.4777602851,,,
3.8906250000,0,-0.1362925023,,,
3.9062500000,0,0.2268394977,,,
3.9218750000,0,0.5005049706,,,
3.9375000000,0,0.5897883773,,,
3.9531250000,0,0.4495095909,,,
3.9687500000,0,0.1495900005,,,
3.9843750000,0,-0.1801228970,,,
4.0000000000,0,-0.3921203911,,,
4.0156250000,0,-0.3937554061,,,
4.0312500000,0,-0.1998396069,,,
4.0468750000,0,0.0713062286,,,
4.0625000000,0,0.2704020143,,,
4.0781250000,0,0.3101314902,,,
4.0937500000,0,0.2112541050,,,
4.1093750000,0,0.1057953984,,,
4.1250000000,0,0.1295914948,,,
4.1406250000,0,0.3431820869,,,
4.1562500000,0,0.6609197259,,,
4.1718750000,0,0.9245371819,,,
4.1875000000,0,0.9789853096,,,
4.2031250000,0,0.7926679254,,,
4.2187500000,0,0.4668593109,,,
4.2343750000,0,0.1587591022,,,
4.2500000000,0,-0.0307736397,,,
4.2656250000,0,-0.1060947999,,,
4.2812500000,0,-0.1720715016,,,
4.2968750000,0,-0.3282242119,,,
4.3125000000,0,-0.5876268744,,,
4.3281250000,0,-0.8529791832,,,
4.3437500000,0,-0.9892954826,,,
4.3593750000,0,-0.9269189835,,,
4.3750000000,0,-0.7096310258,,,
4.3906250000,0,-0.4761785865,,,
4.4062500000,0,-0.3570662141,,,
4.4218750000,0,-0.3727011979,,,
4.4375000000,0,-0.4294114113,,,
4.4531250000,0,-0.3949841857,,,
4.4687500000,0,-0.2026838958,,,
4.4843750000,0,0.0890889168,,,
4.5000000000,0,0.3427892029,,,
4.5156250000,0,0.4335264862,,,
4.5312500000,0,0.3478474915,,,
4.5468750000,0,0.1706037968,,,
4.5625000000,0,0.0326709710,,,
4.5781250000,0,0.0334672891,,,
4.5937500000,0,0.1837583035,,,
4.6093750000,0,0.4386582077,,,
4.6250000000,0,0.7042865753,,,
4.6406250000,0,0.8936223984,,,
4.6562500000,0,0.9421916008,,,
4.6718750000,0,0.8337264061,,,
4.6875000000,0,0.5984473228,,,
4.7031250000,0,0.2965345085,,,
4.7187500000,0,-0.0095086098,,,
4.7343750000,0,-0.2578130066,,,
4.7500000000,0,-0.4346227944,,,
4.7656250000,0,-0.5332818031,,,
4.7812500000,0,-0.5645914078,,,
4.7968750000,0,-0.5186070800,,,
4.8125000000,0,-0.3857732117,,,
4.8281250000,0,-0.1733068973,,,
4.8437500000,0,0.0938420296,,,
4.8593750000,0,0.3453279138,,,
4.8750000000,0,0.5237603188,,,
4.8906250000,0,0.5919880867,,,
4.9062500000,0,0.5689839721,,,
4.9218750000,0,0.5216022134,,,
4.9375000000,0,0.5269216895,,,
4.9531250000,0,0.6314129829,,,
4.9687500000,0,0.8174095154,,,
4.9843750000,0,1.0080430508,,,
5.0000000000,0,1.1015139818,,,
5.0156250000,0,1.0203510523,,,
5.0312500000,0,0.7327271104,,,
5.0468750000,0,0.2964763939,,,
5.0625000000,0,-0.1833171993,,,
5.0781250000,0,-0.5634083748,,,
5.0937500000,0,-0.7451571822,,,
5.1093750000,0,-0.6877809167,,,
5.1250000000,0,-0.4280334115,,,
5.1406250000,0,-0.0537815094,,,
5.1562500000,0,0.3258390129,,,
5.1718750000,0,0.6238092780,,,
5.1875000000,0,0.7835211754,,,
5.2031250000,0,0.7852529883,,,
5.2187500000,0,0.6199303269,,,
5.2343750000,0,0.3335128129,,,
5.2500000000,0,-0.0069775581,,,
5.2656250000,0,-0.2990278900,,,
5.2812500000,0,-0.4589577019,,,
5.2968750000,0,-0.4494405091,,,
5.3125000000,0,-0.2991446853,,,
5.3281250000,0,-0.0775847435,,,
5.3437500000,0,0.1395802051,,,
5.3593750000,0,0.2919439971,,,
5.3750000000,0,0.3648738861,,,
5.3906250000,0,0.3670701981,,,
5.4062500000,0,0.3223569095,,,
5.4218750000,0,0.2549911141,,,
5.4375000000,0,0.1902575046,,,
5.4531250000,0,0.1337940991,,,
5.4687500000,0,0.0792455673,,,
5.4843750000,0,-0.0201654397,,,
5.5000000000,0,-0.2142916024,,,
5.5156250000,0,-0.5326241851,,,
5.5312500000,0,-0.9560685158,,,
5.5468750000,0,-1.3987669945,,,
5.5625000000,0,-1.7476719618,,,
5.5781250000,0,-1.9003210068,,,
5.5937500000,0,-1.8245769739,,,
5.6093750000,0,-1.5548880100,,,
5.6250000000,0,-1.1961619854,,,
5.6406250000,0,-0.8588674068,,,
5.6562500000,0,-0.6277205944,,,
5.6718750000,0,-0.5351719856,,,
5.6875000000,0,-0.5763785839,,,
5.7031250000,0,-0.6904004216,,,
5.7187500000,0,-0.8097804189,,,
5.7343750000,0,-0.8570712209,,,
5.7500000000,0,-0.7828214169,,,
5.7656250000,0,-0.5779728889,,,
5.7812500000,0,-0.2852546871,,,
5.7968750000,0,0.0173063297,,,
5.8125000000,0,0.2436272949,,,
5.8281250000,0,0.3505165875,,,
5.8437500000,0,0.3412199020,,,
5.8593750000,0,0.2433135957,,,
5.8750000000,0,0.0904576778,,,
5.8906250000,0,-0.0953421593,,,
5.9062500000,0,-0.2877602875,,,
5.9218750000,0,-0.4193044007,,,
5.9375000000,0,-0.3879533112,,,
5.9531250000,0,-0.1111901030,,,
5.9687500000,0,0.4030351937,,,
5.9843750000,0,0.9910948277,,,
6.0000000000,0,1.4054529667,,,
6.0156250000,0,1.4126429558,,,
6.0312500000,0,0.9475098252,,,
6.0468750000,0,0.1689687073,,,
6.0625000000,0,-0.5884056091,,,
6.0781250000,0,-1.0065629482,,,
6.0937500000,0,-0.9390736222,,,
6.1093750000,0,-0.4671674073,,,
6.1250000000,0,0.1366676986,,,
6.1406250000,0,0.5883131027,,,
6.1562500000,0,0.7218288779,,,
6.1718750000,0,0.5536212921,,,
6.1875000000,0,0.2103442997,,,
6.2031250000,0,-0.1500467956,,,
6.2187500000,0,-0.4434686005,,,
6.2343750000,0,-0.6542664170,,,
6.2500000000,0,-0.8116540909,,,
6.2656250000,0,-0.9231219292,,,
6.2812500000,0,-0.9808310866,,,
6.2968750000,0,-0.9570546150,,,
6.3125000000,0,-0.8337221146,,,
6.3281250000,0,-0.6263970733,,,
6.3437500000,0,-0.3735699952,,,
6.3593750000,0,-0.1059350967,,,
6.3750000000,0,0.1553415954,,,
6.3906250000,0,0.4116925895,,,
6.4062500000,0,0.6572142243,,,
6.4218750000,0,0.8760843277,,,
6.4375000000,0,1.0510159731,,,
6.4531250000,0,1.1674289703,,,
6.4687500000,0,1.2473429441,,,
6.4843750000,0,1.2901190519,,,
6.5000000000,0,1.3037949800,,,
6.5156250000,0,1.2702380419,,,
6.5312500000,0,1.1623549461,,,
6.5468750000,0,0.9688482285,,,
6.5625000000,0,0.7428092957,,,
6.5781250000,0,0.5733088851,,,
6.5937500000,0,0.5339208245,,,
6.6093750000,0,0.6452937126,,,
6.6250000000,0,0.8424963951,,,
6.6406250000,0,1.0166399479,,,
6.6562500000,0,1.0476369858,,,
6.6718750000,0,0.8909016252,,,
6.6875000000,0,0.5660328865,,,
6.7031250000,0,0.1503205001,,,
6.7187500000,0,-0.2814149857,,,
6.7343750000,0,-0.6804705262,,,
6.7500000000,0,-1.0087889433,,,
6.7656250000,0,-1.2196079493,,,
6.7812500000,0,-1.2689919472,,,
6.7968750000,0,-1.1312370300,,,
6.8125000000,0,-0.8344827294,,,
6.8281250000,0,-0.4646716118,,,
6.8437500000,0,-0.1499824971,,,
6.8593750000,0,0.0265459996,,,
6.8750000000,0,0.0557880402,,,
6.8906250000,0,0.0232772809,,,
6.9062500000,0,0.0272660293,,,
6.9218750000,0,0.1129389033,,,
6.9375000000,0,0.2308979034,,,
6.9531250000,0,0.2699609101,,,
6.9687500000,0,0.1595149040,,,
6.9843750000,0,-0.1013341025,,,
7.0000000000,0,-0.4083943069,,,
7.0156250000,0,-0.6180539131,,,
7.0312500000,0,-0.6256256104,,,
7.0468750000,0,-0.4370903969,,,
7.0625000000,0,-0.1444111019,,,
7.0781250000,0,0.1241569966,,,
7.0937500000,0,0.2713508904,,,
7.1093750000,0,0.2687120140,,,
7.1250000000,0,0.1524720043,,,
7.1406250000,0,0.0063905721,,,
7.1562500000,0,-0.1096339002,,,
7.1718750000,0,-0.1540693939,,,
7.1875000000,0,-0.1280035973,,,
7.2031250000,0,-0.0500831604,,,
7.2187500000,0,0.0453753509,,,
7.2343750000,0,0.1219500974,,,
7.2500000000,0,0.1645559967,,,
7.2656250000,0,0.1859654933,,,
7.2812500000,0,0.2109021991,,,
7.2968750000,0,0.2588514984,,,
7.3125000000,0,0.3344312012,,,
7.3281250000,0,0.4106993973,,,
7.3437500000,0,0.4618793130,,,
7.3593750000,0,0.4699521065,,,
7.3750000000,0,0.4483700097,,,
7.3906250000,0,0.4094271958,,,
7.4062500000,0,0.3429484069,,,
7.4218750000,0,0.2356428951,,,
7.4375000000,0,0.0596899986,,,
7.4531250000,0,-0.1819481999,,,
7.4687500000,0,-0.4486885071,,,
7.4843750000,0,-0.6699028015,,,
7.5000000000,0,-0.7846689224,,,
7.5156250000,0,-0.7684473991,,,
7.5312500000,0,-0.6435065269,,,
7.5468750000,0,-0.4597997963,,,
7.5625000000,0,-0.2644509971,,,
7.5781250000,0,-0.0717449188,,,
7.5937500000,0,0.1376256943,,,
7.6093750000,0,0.3959208131,,,
7.6250000000,0,0.7086582184,,,
7.6406250000,0,1.0312399864,,,
7.6562500000,0,1.2688599825,,,
7.6718750000,0,1.3229069710,,,
7.6875000000,0,1.1396809816,,,
7.7031250000,0,0.7538036704,,,
7.7187500000,0,0.2852612138,,,
7.7343750000,0,-0.1209663972,,,
7.7500000000,0,-0.3541693985,,,
7.7656250000,0,-0.4029245079,,,
7.7812500000,0,-0.3473482132,,,
7.7968750000,0,-0.3067060113,,,
7.8125000000,0,-0.3733524978,,,
7.8281250000,0,-0.5534009933,,,
7.8437500000,0,-0.7785233855,,,
7.8593750000,0,-0.9416828156,,,
7.8750000000,0,-0.9766426086,,,
7.8906250000,0,-0.8791990280,,,
7.9062500000,0,-0.7060236931,,,
7.9218750000,0,-0.5114079118,,,
7.9375000000,0,-0.3368068039,,,
7.9531250000,0,-0.1823592037,,,
7.9687500000,0,-0.0411915816,,,
7.9843750000,0,0.0781979635,,,
8.0000000000,1,0.1539549977,,,
8.0156250000,1,0.1655849963,,,
8.0312500000,1,0.1218099967,,,
8.0468750000,1,0.0799040794,,,
8.0625000000,1,0.1166134030,,,
8.0781250000,1,0.2931694984,,,
8.0937500000,1,0.6242293715,,,
8.1093750000,1,1.0386639833,,,
8.1250000000,1,1.4227039814,,,
8.1406250000,1,1.6629730463,,,
8.1562500000,1,1.6837610006,,,
8.1718750000,1,1.4769690037,,,
8.1875000000,1,1.0876879692,,,
8.2031250000,1,0.5863881111,,,
8.2187500000,1,0.0642480925,,,
8.2343750000,1,-0.4033922851,,,
8.2500000000,1,-0.7495527267,,,
8.2656250000,1,-0.9498404860,,,
8.2812500000,1,-1.0134609938,,,
8.2968750000,1,-0.9686779976,,,
8.3125000000,1,-0.8314610124,,,
8.3281250000,1,-0.6241921782,,,
8.3437500000,1,-0.3801327050,,,
8.3593750000,1,-0.1361951977,,,
8.3750000000,1,0.0471582413,,,
8.3906250000,1,0.1093678027,,,
8.4062500000,1,0.0295023900,,,
8.4218750000,1,-0.1565943062,,,
8.4375000000,1,-0.3623313904,,,
8.4531250000,1,-0.4851346016,,,
8.4687500000,1,-0.4734416008,,,
8.4843750000,1,-0.3561787903,,,
8.5000000000,1,-0.2349853963,,,
8.5156250000,1,-0.2052121013,,,
8.5312500000,1,-0.3038372993,,,
8.5468750000,1,-0.4709357917,,,
8.5625000000,1,-0.5859178901,,,
8.5781250000,1,-0.5537524223,,,
8.5937500000,1,-0.3508372009,,,
8.6093750000,1,-0.0468096696,,,
8.6250000000,1,0.2368092984,,,
8.6406250000,1,0.3871150017,,,
8.6562500000,1,0.3436011970,,,
8.6718750000,1,0.1276946068,,,
8.6875000000,1,-0.1655316055,,,
8.7031250000,1,-0.4377174079,,,
8.7187500000,1,-0.6023908257,,,
8.7343750000,1,-0.6326169968,,,
8.7500000000,1,-0.5533028245,,,
8.7656250000,1,-0.4223575890,,,
8.7812500000,1,-0.3031378090,,,
8.7968750000,1,-0.2459606975,,,
8.8125000000,1,-0.2482824028,,,
8.8281250000,1,-0.2785392106,,,
8.8437500000,1,-0.2819662094,,,
8.8593750000,1,-0.2207664996,,,
8.8750000000,1,-0.0916590691,,,
8.8906250000,1,0.0695385933,,,
8.9062500000,1,0.2117027938,,,
8.9218750000,1,0.2781505883,,,
8.9375000000,1,0.2473540008,,,
8.9531250000,1,0.1275743991,,,
8.9687500000,1,-0.0548367500,,,
8.9843750000,1,-0.2569656074,,,
9.0000000000,1,-0.4414700866,,,
9.0156250000,1,-0.5690689087,,,
9.0312500000,1,-0.6206117272,,,
9.0468750000,1,-0.5943092704,,,
9.0625000000,1,-0.5031871796,,,
9.0781250000,1,-0.3625302017,,,
9.0937500000,1,-0.1951598972,,,
9.1093750000,1,-0.0040888791,,,
9.1250000000,1,0.2036176026,,,
9.1406250000,1,0.4328450859,,,
9.1562500000,1,0.6607307792,,,
9.1718750000,1,0.8386396766,,,
9.1875000000,1,0.9106373787,,,
9.2031250000,1,0.8348460197,,,
9.2187500000,1,0.6095457077,,,
9.2343750000,1,0.2842774093,,,
9.2500000000,1,-0.0480051003,,,
9.2656250000,1,-0.2742719948,,,
9.2812500000,1,-0.3060122132,,,
9.2968750000,1,-0.0933713913,,,
9.3125000000,1,0.3390950859,,,
9.3281250000,1,0.8977308273,,,
9.3437500000,1,1.4284679890,,,
9.3593750000,1,1.7672369480,,,
9.3750000000,1,1.8052500486,,,
9.3906250000,1,1.5527009964,,,
9.4062500000,1,1.1258660555,,,
9.4218750000,1,0.6845645905,,,
9.4375000000,1,0.3549681008,,,
9.4531250000,1,0.1796717942,,,
9.4687500000,1,0.1122879982,,,
9.4843750000,1,0.0809860229,,,
9.5000000000,1,0.0564441718,,,
9.5156250000,1,0.0596990585,,,
9.5312500000,1,0.1128982976,,,
9.5468750000,1,0.1997070014,,,
9.5625000000,1,0.2381978035,,,
9.5781250000,1,0.1384702027,,,
9.5937500000,1,-0.1157893986,,,
9.6093750000,1,-0.4361200035,,,
9.6250000000,1,-0.6579579711,,,
9.6406250000,1,-0.6385120749,,,
9.6562500000,1,-0.3608421981,,,
9.6718750000,1,0.0571184196,,,
9.6875000000,1,0.4141921997,,,
9.7031250000,1,0.5610905290,,,
9.7187500000,1,0.4496684074,,,
9.7343750000,1,0.1560245007,,,
9.7500000000,1,-0.1956830025,,,
9.7656250000,1,-0.5093336105,,,
9.7812500000,1,-0.7527536750,,,
9.7968750000,1,-0.9394031167,,,
9.8125000000,1,-1.0832550526,,,
9.8281250000,1,-1.1509710550,,,
9.8437500000,1,-1.0904029608,,,
9.8593750000,1,-0.8827167153,,,
9.8750000000,1,-0.5522046089,,,
9.8906250000,1,-0.1904983968,,,
9.9062500000,1,0.1066623032,,,
9.9218750000,1,0.2812271118,,,
9.9375000000,1,0.3390350044,,,
9.9531250000,1,0.3330444992,,,
9.9687500000,1,0.3291755021,,,
9.9843750000,1,0.3607305884,,,
10.0000000000,1,0.4207400978,,,
10.0156250000,1,0.4926585853,,,
10.0312500000,1,0.5524172783,,,
10.0468750000,1,0.5838375092,,,
10.0625000000,1,0.5733923912,,,
10.0781250000,1,0.5088840127,,,
10.0937500000,1,0.4032740891,,,
10.1093750000,1,0.2809748948,,,
10.1250000000,1,0.1762681007,,,
10.1406250000,1,0.1087232009,,,
10.1562500000,1,0.0512180291,,,
10.1718750000,1,-0.0507168807,,,
10.1875000000,1,-0.2543334961,,,
10.2031250000,1,-0.5557832718,,,
10.2187500000,1,-0.8957272172,,,
10.2343750000,1,-1.1656279564,,,
10.2500000000,1,-1.2634439468,,,
10.2656250000,1,-1.1573740244,,,
10.2812500000,1,-0.8964728713,,,
10.2968750000,1,-0.5917391777,,,
10.3125000000,1,-0.3656572998,,,
10.3281250000,1,-0.2900190055,,,
10.3437500000,1,-0.3768044114,,,
10.3593750000,1,-0.5836495757,,,
10.3750000000,1,-0.8213210106,,,
10.3906250000,1,-1.0016130209,,,
10.4062500000,1,-1.0544699430,,,
10.4218750000,1,-0.9701203704,,,
10.4375000000,1,-0.8006753922,,,
10.4531250000,1,-0.6358804703,,,
10.4687500000,1,-0.5514773726,,,
10.4843750000,1,-0.5528339744,,,
10.5000000000,1,-0.5785275102,,,
10.5156250000,1,-0.5160326958,,,
10.5312500000,1,-0.2850981057,,,
10.5468750000,1,0.1139483005,,,
10.5625000000,1,0.5886902809,,,
10.5781250000,1,0.9795331955,,,
10.5937500000,1,1.1453900337,,,
10.6093750000,1,1.0240819454,,,
10.6250000000,1,0.6631054878,,,
10.6406250000,1,0.1967635006,,,
10.6562500000,1,-0.2182870060,,,
10.6718750000,1,-0.4755525887,,,
10.6875000000,1,-0.5511531830,,,
10.7031250000,1,-0.4925523102,,,
10.7187500000,1,-0.3824223876,,,
10.7343750000,1,-0.2782382965,,,
10.7500000000,1,-0.1862984002,,,
10.7656250000,1,-0.0585889816,,,
10.7812500000,1,0.1423449963,,,
10.7968750000,1,0.4055494964,,,
10.8125000000,1,0.6610383987,,,
10.8281250000,1,0.8093448281,,,
10.8437500000,1,0.8015847206,,,
10.8593750000,1,0.6537442207,,,
10.8750000000,1,0.4326018989,,,
10.8906250000,1,0.2154778987,,,
10.9062500000,1,0.0518198013,,,
10.9218750000,1,-0.0526099205,,,
10.9375000000,1,-0.1081976965,,,
10.9531250000,1,-0.1159347966,,,
10.9687500000,1,-0.0672554970,,,
10.9843750000,1,0.0432620011,,,
11.0000000000,1,0.1794352978,,,
11.0156250000,1,0.2679347992,,,
11.0312500000,1,0.2230181992,,,
11.0468750000,1,-0.0162534695,,,
11.0625000000,1,-0.4493961036,,,
11.0781250000,1,-1.0101959705,,,
11.0937500000,1,-1.5742030144,,,
11.1093750000,1,-2.0099470615,,,
11.1250000000,1,-2.2033410072,,,
11.1406250000,1,-2.0803840160,,,
11.1562500000,1,-1.6381330490,,,
11.1718750000,1,-0.9491291046,,,
11.1875000000,1,-0.1541357040,,,
11.2031250000,1,0.5658907890,,,
11.2187500000,1,1.0495690107,,,
11.2343750000,1,1.2143260241,,,
11.2500000000,1,1.0511610508,,,
11.2656250000,1,0.6461266875,,,
11.2812500000,1,0.1337676048,,,
11.2968750000,1,-0.3402543068,,,
11.3125000000,1,-0.6457313895,,,
11.3281250000,1,-0.7075963020,,,
11.3437500000,1,-0.5156388283,,,
11.3593750000,1,-0.1322322041,,,
11.3750000000,1,0.3492718041,,,
11.3906250000,1,0.8183712959,,,
11.4062500000,1,1.2061250210,,,
11.4218750000,1,1.4848389626,,,
11.4375000000,1,1.6540739536,,,
11.4531250000,1,1.7229379416,,,
11.4687500000,1,1.7059329748,,,
11.4843750000,1,1.6101230383,,,
11.5000000000,1,1.4583549500,,,
11.5156250000,1,1.2877939939,,,
11.5312500000,1,1.1252360344,,,
11.5468750000,1,0.9807214737,,,
11.5625000000,1,0.8413934708,,,
11.5781250000,1,0.6802300811,,,
11.5937500000,1,0.5006093979,,,
11.6093750000,1,0.3382030129,,,
11.6250000000,1,0.2435497940,,,
11.6406250000,1,0.2612324059,,,
11.6562500000,1,0.3797211945,,,
11.6718750000,1,0.5321773887,,,
11.6875000000,1,0.6260023117,,,
11.7031250000,1,0.6027836800,,,
11.7187500000,1,0.4595327079,,,
11.7343750000,1,0.2807058990,,,
11.7500000000,1,0.1423788071,,,
11.7656250000,1,0.0706462935,,,
11.7812500000,1,0.0152983703,,,
11.7968750000,1,-0.1194353029,,,
11.8125000000,1,-0.4070496857,,,
11.8281250000,1,-0.8030930161,,,
11.8437500000,1,-1.1567749977,,,
11.8593750000,1,-1.2957259417,,,
11.8750000000,1,-1.1238659620,,,
11.8906250000,1,-0.7100142837,,,
11.9062500000,1,-0.2692889869,,,
11.9218750000,1,-0.0347590409,,,
11.9375000000,1,-0.1208892018,,,
11.9531250000,1,-0.4536108971,,,
11.9687500000,1,-0.7925754189,,,
11.9843750000,1,-0.8929023743,,,
12.0000000000,1,-0.6422275901,,,
12.0156250000,1,-0.0996737480,,,
12.0312500000,1,0.5302299857,,,
12.0468750000,1,1.0351090431,,,
12.0625000000,1,1.2831250429,,,
12.0781250000,1,1.2640750408,,,
12.0937500000,1,1.0568009615,,,
12.1093750000,1,0.7612419128,,,
12.1250000000,1,0.4618611038,,,
12.1406250000,1,0.2065721005,,,
12.1562500000,1,0.0090785027,,,
12.1718750000,1,-0.1195001975,,,
12.1875000000,1,-0.1758455932,,,
12.2031250000,1,-0.1568693966,,,
12.2187500000,1,-0.0785903931,,,
12.2343750000,1,0.0140376100,,,
12.2500000000,1,0.0553111993,,,
12.2656250000,1,-0.0079989433,,,
12.2812500000,1,-0.1925731003,,,
12.2968750000,1,-0.4403471947,,,
12.3125000000,1,-0.6429752707,,,
12.3281250000,1,-0.6876826286,,,
12.3437500000,1,-0.5089573860,,,
12.3593750000,1,-0.1427565068,,,
12.3750000000,1,0.2845664024,,,
12.3906250000,1,0.6206598282,,,
12.4062500000,1,0.7558202744,,,
12.4218750000,1,0.6702857018,,,
12.4375000000,1,0.4367065132,,,
12.4531250000,1,0.1714868993,,,
12.4687500000,1,-0.0197515506,,,
12.4843750000,1,-0.0976686478,,,
12.5000000000,1,-0.0800347328,,,
12.5156250000,1,-0.0110917101,,,
12.5312500000,1,0.0566048585,,,
12.5468750000,1,0.0990018770,,,
12.5625000000,1,0.1141624004,,,
12.5781250000,1,0.1160288006,,,
12.5937500000,1,0.1250161976,,,
12.6093750000,1,0.1537875980,,,
12.6250000000,1,0.2041945010,,,
12.6406250000,1,0.2833294868,,,
12.6562500000,1,0.3969002068,,,
12.6718750000,1,0.5657753944,,,
12.6875000000,1,0.7783628106,,,
12.7031250000,1,0.9904255867,,,
12.7187500000,1,1.1209590435,,,
12.7343750000,1,1.0747120380,,,
12.7500000000,1,0.8052917123,,,
12.7656250000,1,0.3623338044,,,
12.7812500000,1,-0.1244774014,,,
12.7968750000,1,-0.4764910042,,,
12.8125000000,1,-0.5589699745,,,
12.8281250000,1,-0.3456521034,,,
12.8437500000,1,0.0741000175,,,
12.8593750000,1,0.5189809799,,,
12.8750000000,1,0.8088306785,,,
12.8906250000,1,0.8268647194,,,
12.9062500000,1,0.5667433739,,,
12.9218750000,1,0.1245670021,,,
12.9375000000,1,-0.3577579856,,,
12.9531250000,1,-0.7533298135,,,
12.9687500000,1,-0.9840645790,,,
12.9843750000,1,-1.0578869581,,,
13.0000000000,1,-1.0518139601,,,
13.0156250000,1,-1.0640350580,,,
13.0312500000,1,-1.1548750401,,,
13.0468750000,1,-1.3366980553,,,
13.0625000000,1,-1.5515969992,,,
13.0781250000,1,-1.7090140581,,,
13.0937500000,1,-1.7483450174,,,
13.1093750000,1,-1.6326990128,,,
13.1250000000,1,-1.3705910444,,,
13.1406250000,1,-0.9955372810,,,
13.1562500000,1,-0.5573534966,,,
13.1718750000,1,-0.1136960983,,,
13.1875000000,1,0.2536019981,,,
13.2031250000,1,0.4706745148,,,
13.2187500000,1,0.4928650856,,,
13.2343750000,1,0.3277502060,,,
13.2500000000,1,0.0563435592,,,
13.2656250000,1,-0.1952089965,,,
13.2812500000,1,-0.3222832978,,,
13.2968750000,1,-0.2671298981,,,
13.3125000000,1,-0.0726242065,,,
13.3281250000,1,0.1704096943,,,
13.3437500000,1,0.3691239059,,,
13.3593750000,1,0.4912281036,,,
13.3750000000,1,0.5681992173,,,
13.3906250000,1,0.6603521705,,,
13.4062500000,1,0.7958288193,,,
13.4218750000,1,0.9458122253,,,
13.4375000000,1,1.0361839533,,,
13.4531250000,1,0.9898095131,,,
13.4687500000,1,0.7756810188,,,
13.4843750000,1,0.4180999100,,,
13.5000000000,1,-0.0267605800,,,
13.5156250000,1,-0.4835920036,,,
13.5312500000,1,-0.8618617058,,,
13.5468750000,1,-1.0785440207,,,
13.5625000000,1,-1.0678080320,,,
13.5781250000,1,-0.8037018776,,,
13.5937500000,1,-0.3438220024,,,
13.6093750000,1,0.1796050072,,,
13.6250000000,1,0.5895323753,,,
13.6406250000,1,0.7386646271,,,
13.6562500000,1,0.5885620117,,,
13.6718750000,1,0.2281623036,,,
13.6875000000,1,-0.1600203961,,,
13.7031250000,1,-0.3984350860,,,
13.7187500000,1,-0.3874674141,,,
13.7343750000,1,-0.1713218987,,,
13.7500000000,1,0.1148276031,,,
13.7656250000,1,0.3077001870,,,
13.7812500000,1,0.3036684990,,,
13.7968750000,1,0.1019987985,,,
13.8125000000,1,-0.2125387043,,,
13.8281250000,1,-0.5098885894,,,
13.8437500000,1,-0.6838263869,,,
13.8593750000,1,-0.6901230812,,,
13.8750000000,1,-0.5354170799,,,
13.8906250000,1,-0.2720474899,,,
13.9062500000,1,0.0413322411,,,
13.9218750000,1,0.3589535058,,,
13.9375000000,1,0.6619586945,,,
13.9531250000,1,0.9314780235,,,
13.9687500000,1,1.1499589682,,,
13.9843750000,1,1.3032209873,,,
14.0000000000,1,1.3763589859,,,
14.0156250000,1,1.3687429428,,,
14.0312500000,1,1.2682030201,,,
14.0468750000,1,1.0610740185,,,
14.0625000000,1,0.7382926941,,,
14.0781250000,1,0.3195019066,,,
14.0937500000,1,-0.1376376003,,,
14.1093750000,1,-0.5266414285,,,
14.1250000000,1,-0.7542428970,,,
14.1406250000,1,-0.7727336884,,,
14.1562500000,1,-0.6269679070,,,
14.1718750000,1,-0.4184603989,,,
14.1875000000,1,-0.2586370111,,,
14.2031250000,1,-0.2022963017,,,
14.2187500000,1,-0.2264976948,,,
14.2343750000,1,-0.2834630013,,,
14.2500000000,1,-0.3311538994,,,
14.2656250000,1,-0.3774003983,,,
14.2812500000,1,-0.4479227066,,,
14.2968750000,1,-0.5502061844,,,
14.3125000000,1,-0.6468567848,,,
14.3281250000,1,-0.6750751138,,,
14.3437500000,1,-0.5969480872,,,
14.3593750000,1,-0.4475088120,,,
14.3750000000,1,-0.3224869072,,,
14.3906250000,1,-0.3120116889,,,
14.4062500000,1,-0.4393729866,,,
14.4218750000,1,-0.6340175271,,,
14.4375000000,1,-0.7672256827,,,
14.4531250000,1,-0.7391229272,,,
14.4687500000,1,-0.5265092850,,,
14.4843750000,1,-0.2050666958,,,
14.5000000000,1,0.1017493978,,,
14.5156250000,1,0.3038077056,,,
14.5312500000,1,0.3680500984,,,
14.5468750000,1,0.3219194114,,,
14.5625000000,1,0.2291827053,,,
14.5781250000,1,0.1580228955,,,
14.5937500000,1,0.1498270035,,,
14.6093750000,1,0.2364010960,,,
14.6250000000,1,0.4004726112,,,
14.6406250000,1,0.5968050957,,,
14.6562500000,1,0.7506247163,,,
14.6718750000,1,0.8063364029,,,
14.6875000000,1,0.7473645210,,,
14.7031250000,1,0.6097835898,,,
14.7187500000,1,0.4629450142,,,
14.7343750000,1,0.3667277992,,,
14.7500000000,1,0.3425788879,,,
14.7656250000,1,0.3409996033,,,
14.7812500000,1,0.2972435951,,,
14.7968750000,1,0.1541219056,,,
14.8125000000,1,-0.0713295937,,,
14.8281250000,1,-0.2976388931,,,
14.8437500000,1,-0.4002403915,,,
14.8593750000,1,-0.2767673135,,,
14.8750000000,1,0.0860462189,,,
14.8906250000,1,0.6061307788,,,
14.9062500000,1,1.1181470156,,,
14.9218750000,1,1.4713829756,,,
14.9375000000,1,1.5868870020,,,
14.9531250000,1,1.4808540344,,,
14.9687500000,1,1.2524670362,,,
14.9843750000,1,1.0053590536,,,
15.0000000000,1,0.7855473161,,,
15.0156250000,1,0.5665786266,,,
15.0312500000,1,0.2958034873,,,
15.0468750000,1,-0.0477790795,,,
15.0625000000,1,-0.4309811890,,,
15.0781250000,1,-0.7606316209,,,
15.0937500000,1,-0.9776095748,,,
15.1093750000,1,-1.0685379505,,,
15.1250000000,1,-1.0693809986,,,
15.1406250000,1,-1.0309920311,,,
15.1562500000,1,-0.9916347861,,,
15.1718750000,1,-0.9540848732,,,
15.1875000000,1,-0.9243187904,,,
15.2031250000,1,-0.9219822884,,,
15.2187500000,1,-0.9717257023,,,
15.2343750000,1,-1.0591690540,,,
15.2500000000,1,-1.1399780512,,,
15.2656250000,1,-1.1562639475,,,
15.2812500000,1,-1.0711170435,,,
15.2968750000,1,-0.9226251245,,,
15.3125000000,1,-0.8000410199,,,
15.3281250000,1,-0.7825152874,,,
15.3437500000,1,-0.8860868812,,,
15.3593750000,1,-1.0396250486,,,
15.3750000000,1,-1.1284359694,,,
15.3906250000,1,-1.0739170313,,,
15.4062500000,1,-0.8811181188,,,
15.4218750000,1,-0.6507595181,,,
15.4375000000,1,-0.5136265755,,,
15.4531250000,1,-0.5678390861,,,
15.4687500000,1,-0.8071928024,,,
15.4843750000,1,-1.1366549730,,,
15.5000000000,1,-1.4074959755,,,
15.5156250000,1,-1.4942350388,,,
15.5312500000,1,-1.3446209431,,,
15.5468750000,1,-0.9868767262,,,
15.5625000000,1,-0.5214385986,,,
15.5781250000,1,-0.0470399894,,,
15.5937500000,1,0.3669286072,,,
15.6093750000,1,0.7108479142,,,
15.6250000000,1,1.0115489960,,,
15.6406250000,1,1.2932840586,,,
15.6562500000,1,1.5292899609,,,
15.6718750000,1,1.6607860327,,,
15.6875000000,1,1.6303889751,,,
15.7031250000,1,1.4250930548,,,
15.7187500000,1,1.0950829983,,,
15.7343750000,1,0.7321692109,,,
15.7500000000,1,0.4083890915,,,
15.7656250000,1,0.1661099941,,,
15.7812500000,1,0.0075626369,,,
15.7968750000,1,-0.0851588175,,,
15.8125000000,1,-0.1262798011,,,
15.8281250000,1,-0.1145524979,,,
15.8437500000,1,-0.0515270196,,,
15.8593750000,1,0.0580263101,,,
15.8750000000,1,0.2013192028,,,
15.8906250000,1,0.3519073129,,,
15.9062500000,1,0.4943380058,,,
15.9218750000,1,0.6175299287,,,
15.9375000000,1,0.7113360763,,,
15.9531250000,1,0.7625712752,,,
15.9687500000,1,0.7643718719,,,
15.9843750000,1,0.7117013931,,,
16.0000000000,2,0.6050528884,,,
16.0156250000,2,0.4538182914,,,
16.0312500000,2,0.2753576934,,,
16.0468750000,2,0.1015376970,,,
16.0625000000,2,-0.0187778492,,,
16.0781250000,2,-0.0397415198,,,
16.0937500000,2,0.0479240417,,,
16.1093750000,2,0.1952448040,,,
16.1250000000,2,0.2997798920,,,
16.1406250000,2,0.2717457116,,,
16.1562500000,2,0.0911054611,,,
16.1718750000,2,-0.1688742936,,,
16.1875000000,2,-0.3777942955,,,
16.2031250000,2,-0.4442053139,,,
16.2187500000,2,-0.3576298058,,,
16.2343750000,2,-0.1936011016,,,
16.2500000000,2,-0.0497517586,,,
16.2656250000,2,0.0191402398,,,
16.2812500000,2,0.0345740318,,,
16.2968750000,2,0.0499696694,,,
16.3125000000,2,0.1122594029,,,
16.3281250000,2,0.2140498012,,,
16.3437500000,2,0.3145284951,,,
16.3593750000,2,0.3635830879,,,
16.3750000000,2,0.3514313996,,,
16.3906250000,2,0.2819733918,,,
16.4062500000,2,0.1862144023,,,
16.4218750000,2,0.0845422670,,,
16.4375000000,2,-0.0003404617,,,
16.4531250000,2,-0.0584459305,,,
16.4687500000,2,-0.0748844072,,,
16.4843750000,2,-0.0647606775,,,
16.5000000000,2,-0.0739541128,,,
16.5156250000,2,-0.1656655967,,,
16.5312500000,2,-0.3659420013,,,
16.5468750000,2,-0.6324372292,,,
16.5625000000,2,-0.8502169251,,,
16.5781250000,2,-0.8882151246,,,
16.5937500000,2,-0.6686964035,,,
16.6093750000,2,-0.2128777951,,,
16.6250000000,2,0.3581194878,,,
16.6406250000,2,0.8804007173,,,
16.6562500000,2,1.2035570145,,,
16.6718750000,2,1.2589260340,,,
16.6875000000,2,1.0914750099,,,
16.7031250000,2,0.8087006211,,,
16.7187500000,2,0.5383167267,,,
16.7343750000,2,0.3586044014,,,
16.7500000000,2,0.2626990974,,,
16.7656250000,2,0.1761240959,,,
16.7812500000,2,0.0229611397,,,
16.7968750000,2,-0.2101555020,,,
16.8125000000,2,-0.4400886893,,,
16.8281250000,2,-0.5302690864,,,
16.8437500000,2,-0.3789778054,,,
16.8593750000,2,0.0025930400,,,
16.8750000000,2,0.4823718071,,,
16.8906250000,2,0.8576893806,,,
16.9062500000,2,0.9893960953,,,
16.9218750000,2,0.8707560897,,,
16.9375000000,2,0.6331310272,,,
16.9531250000,2,0.4424375892,,,
16.9687500000,2,0.3960475922,,,
16.9843750000,2,0.4569945037,,,
17.0000000000,2,0.4991837144,,,
17.0156250000,2,0.3814291954,,,
17.0312500000,2,0.0825300217,,,
17.0468750000,2,-0.2936005890,,,
17.0625000000,2,-0.5915927887,,,
17.0781250000,2,-0.6960659027,,,
17.0937500000,2,-0.6244106293,,,
17.1093750000,2,-0.5060204864,,,
17.1250000000,2,-0.4892272949,,,
17.1406250000,2,-0.6360135078,,,
17.1562500000,2,-0.8737077713,,,
17.1718750000,2,-1.0522789955,,,
17.1875000000,2,-1.0219039917,,,
17.2031250000,2,-0.7443795204,,,
17.2187500000,2,-0.3118191063,,,
17.2343750000,2,0.1088228002,,,
17.2500000000,2,0.3745631874,,,
17.2656250000,2,0.4226006866,,,
17.2812500000,2,0.2953143120,,,
17.2968750000,2,0.0927834511,,,
17.3125000000,2,-0.1016459018,,,
17.3281250000,2,-0.2483925968,,,
17.3437500000,2,-0.3738350868,,,
17.3593750000,2,-0.5137147903,,,
17.3750000000,2,-0.6756014824,,,
17.3906250000,2,-0.8238319755,,,
17.4062500000,2,-0.8870983124,,,
17.4218750000,2,-0.8085575104,,,
17.4375000000,2,-0.5764545798,,,
17.4531250000,2,-0.2576985061,,,
17.4687500000,2,0.0424399413,,,
17.4843750000,2,0.2108211964,,,
17.5000000000,2,0.1927060932,,,
17.5156250000,2,0.0021014209,,,
17.5312500000,2,-0.2977857888,,,
17.5468750000,2,-0.6232538223,,,
17.5625000000,2,-0.9198865891,,,
17.5781250000,2,-1.1573150158,,,
17.5937500000,2,-1.3151689768,,,
17.6093750000,2,-1.3471510410,,,
17.6250000000,2,-1.2006030083,,,
17.6406250000,2,-0.8406276703,,,
17.6562500000,2,-0.2992348969,,,
17.6718750000,2,0.3066006005,,,
17.6875000000,2,0.8165584207,,,
17.7031250000,2,1.0738300085,,,
17.7187500000,2,1.0169689655,,,
17.7343750000,2,0.6820607185,,,
17.7500000000,2,0.2214774936,,,
17.7656250000,2,-0.1758022010,,,
17.7812500000,2,-0.3578391075,,,
17.7968750000,2,-0.2581458092,,,
17.8125000000,2,0.0803942680,,,
17.8281250000,2,0.5502771735,,,
17.8437500000,2,1.0333230495,,,
17.8593750000,2,1.4668450356,,,
17.8750000000,2,1.8427599669,,,
17.8906250000,2,2.1884610653,,,
17.9062500000,2,2.4977889061,,,
17.9218750000,2,2.7195110321,,,
17.9375000000,2,2.7588169575,,,
17.9531250000,2,2.5373470783,,,
17.9687500000,2,2.0496699810,,,
17.9843750000,2,1.3742879629,,,
18.0000000000,2,0.6605939865,,,
18.0156250000,2,0.0475773811,,,
18.0312500000,2,-0.3774667084,,,
18.0468750000,2,-0.6169580817,,,
18.0625000000,2,-0.7234116197,,,
18.0781250000,2,-0.7765069008,,,
18.0937500000,2,-0.8457378745,,,
18.1093750000,2,-0.9462112784,,,
18.1250000000,2,-1.0858479738,,,
18.1406250000,2,-1.2431889772,,,
18.1562500000,2,-1.3986430168,,,
18.1718750000,2,-1.5275510550,,,
18.1875000000,2,-1.5896179676,,,
18.2031250000,2,-1.5425839424,,,
18.2187500000,2,-1.3655070066,,,
18.2343750000,2,-1.0843590498,,,
18.2500000000,2,-0.7721558213,,,
18.2656250000,2,-0.5341444016,,,
18.2812500000,2,-0.4562239945,,,
18.2968750000,2,-0.5683460236,,,
18.3125000000,2,-0.7933393121,,,
18.3281250000,2,-0.9994874001,,,
18.3437500000,2,-1.0505729914,,,
18.3593750000,2,-0.8944072723,,,
18.3750000000,2,-0.5779690742,,,
18.3906250000,2,-0.2068872005,,,
18.4062500000,2,0.1219974011,,,
18.4218750000,2,0.3864435852,,,
18.4375000000,2,0.6228622794,,,
18.4531250000,2,0.8720350266,,,
18.4687500000,2,1.1040300131,,,
18.4843750000,2,1.2325069904,,,
18.5000000000,2,1.1687250137,,,
18.5156250000,2,0.8919482231,,,
18.5312500000,2,0.5192732811,,,
18.5468750000,2,0.2132353932,,,
18.5625000000,2,0.1071143001,,,
18.5781250000,2,0.2045440972,,,
18.5937500000,2,0.3781856894,,,
18.6093750000,2,0.4770011902,,,
18.6250000000,2,0.4140129089,,,
18.6406250000,2,0.2432480007,,,
18.6562500000,2,0.1129693985,,,
18.6718750000,2,0.1473255008,,,
18.6875000000,2,0.3600077927,,,
18.7031250000,2,0.6345720291,,,
18.7187500000,2,0.7851037979,,,
18.7343750000,2,0.6864519119,,,
18.7500000000,2,0.3277898133,,,
18.7656250000,2,-0.1893420070,,,
18.7812500000,2,-0.6982241273,,,
18.7968750000,2,-1.0699770451,,,
18.8125000000,2,-1.2208620310,,,
18.8281250000,2,-1.1464530230,,,
18.8437500000,2,-0.8775172234,,,
18.8593750000,2,-0.4759283066,,,
18.8750000000,2,-0.0058708191,,,
18.8906250000,2,0.4600616097,,,
18.9062500000,2,0.8694959283,,,
18.9218750000,2,1.1780600548,,,
18.9375000000,2,1.3637499809,,,
18.9531250000,2,1.4186840057,,,
18.9687500000,2,1.3428050280,,,
18.9843750000,2,1.1620429754,,,
19.0000000000,2,0.9311131835,,,
19.0156250000,2,0.7219491005,,,
19.0312500000,2,0.6056056023,,,
19.0468750000,2,0.6150193214,,,
19.0625000000,2,0.7146872878,,,
19.0781250000,2,0.8168559074,,,
19.0937500000,2,0.8227329254,,,
19.1093750000,2,0.6661924720,,,
19.1250000000,2,0.3566451073,,,
19.1406250000,2,-0.0511221886,,,
19.1562500000,2,-0.4867697060,,,
19.1718750000,2,-0.9082664847,,,
19.1875000000,2,-1.2877869606,,,
19.2031250000,2,-1.6071829796,,,
19.2187500000,2,-1.8370579481,,,
19.2343750000,2,-1.9379819632,,,
19.2500000000,2,-1.8878699541,,,
19.2656250000,2,-1.7096110582,,,
19.2812500000,2,-1.4703099728,,,
19.2968750000,2,-1.2509380579,,,
19.3125000000,2,-1.1061509848,,,
19.3281250000,2,-1.0293229818,,,
19.3437500000,2,-0.9605522156,,,
19.3593750000,2,-0.8272538185,,,
19.3750000000,2,-0.5818768144,,,
19.3906250000,2,-0.2581306100,,,
19.4062500000,2,0.0623803101,,,
19.4218750000,2,0.2808508873,,,
19.4375000000,2,0.3290190995,,,
19.4531250000,2,0.2060990036,,,
19.4687500000,2,-0.0158958398,,,
19.4843750000,2,-0.2438645065,,,
19.5000000000,2,-0.3841867149,,,
19.5156250000,2,-0.3805718124,,,
19.5312500000,2,-0.2176080048,,,
19.5468750000,2,0.0655560493,,,
19.5625000000,2,0.4021419883,,,
19.5781250000,2,0.7098937035,,,
19.5937500000,2,0.9008842111,,,
19.6093750000,2,0.9134336114,,,
19.6250000000,2,0.7332577705,,,
19.6406250000,2,0.3887372017,,,
19.6562500000,2,-0.0440430604,,,
19.6718750000,2,-0.4642038047,,,
19.6875000000,2,-0.7673063278,,,
19.7031250000,2,-0.8830456734,,,
19.7187500000,2,-0.7848883271,,,
19.7343750000,2,-0.5164055824,,,
19.7500000000,2,-0.1691828072,,,
19.7656250000,2,0.1117864028,,,
19.7812500000,2,0.2052650005,,,
19.7968750000,2,0.0580525398,,,
19.8125000000,2,-0.2583976090,,,
19.8281250000,2,-0.5695434213,,,
19.8437500000,2,-0.6645979881,,,
19.8593750000,2,-0.4279203117,,,
19.8750000000,2,0.0986657068,,,
19.8906250000,2,0.7181705832,,,
19.9062500000,2,1.1877830029,,,
19.9218750000,2,1.3651620150,,,
19.9375000000,2,1.2661139965,,,
19.9531250000,2,1.0386430025,,,
19.9687500000,2,0.8555222154,,,
19.9843750000,2,0.7969111800,,,
20.0000000000,2,0.8155794144,,,
20.0156250000,2,0.8071966171,,,
20.0312500000,2,0.7002773285,,,
20.0468750000,2,0.5084791183,,,
20.0625000000,2,0.3193182945,,,
20.0781250000,2,0.2252831012,,,
20.0937500000,2,0.2512044907,,,
20.1093750000,2,0.3432078063,,,
20.1250000000,2,0.4173964858,,,
20.1406250000,2,0.3956140876,,,
20.1562500000,2,0.2651695907,,,
20.1718750000,2,0.0487837791,,,
20.1875000000,2,-0.2086353004,,,
20.2031250000,2,-0.4702740014,,,
20.2187500000,2,-0.7021232247,,,
20.2343750000,2,-0.8817114830,,,
20.2500000000,2,-0.9794158936,,,
20.2656250000,2,-0.9779109955,,,
20.2812500000,2,-0.8517060280,,,
20.2968750000,2,-0.5982862115,,,
20.3125000000,2,-0.2421731949,,,
20.3281250000,2,0.1467871964,,,
20.3437500000,2,0.4756017029,,,
20.3593750000,2,0.6427407265,,,
20.3750000000,2,0.5897865295,,,
20.3906250000,2,0.3435688019,,,
20.4062500000,2,0.0458836593,,,
20.4218750000,2,-0.1304865032,,,
20.4375000000,2,-0.0777378082,,,
20.4531250000,2,0.1686912030,,,
20.4687500000,2,0.4518646896,,,
20.4843750000,2,0.5791702271,,,
20.5000000000,2,0.4445782006,,,
20.5156250000,2,0.1014109030,,,
20.5312500000,2,-0.3004078865,,,
20.5468750000,2,-0.5898013115,,,
20.5625000000,2,-0.7045660019,,,
20.5781250000,2,-0.6724072099,,,
20.5937500000,2,-0.5731329918,,,
20.6093750000,2,-0.4514608085,,,
20.6250000000,2,-0.2800678909,,,
20.6406250000,2,-0.0070471759,,,
20.6562500000,2,0.3774962127,,,
20.6718750000,2,0.7967453003,,,
20.6875000000,2,1.1026339531,,,
20.7031250000,2,1.1420600414,,,
20.7187500000,2,0.8525167108,,,
20.7343750000,2,0.2935237885,,,
20.7500000000,2,-0.3844538033,,,
20.7656250000,2,-1.0128589869,,,
20.7812500000,2,-1.4584610462,,,
20.7968750000,2,-1.6599639654,,,
20.8125000000,2,-1.6214220524,,,
20.8281250000,2,-1.4154579639,,,
20.8437500000,2,-1.1243989468,,,
20.8593750000,2,-0.8164029121,,,
20.8750000000,2,-0.5202322006,,,
20.8906250000,2,-0.2373514026,,,
20.9062500000,2,0.0390882492,,,
20.9218750000,2,0.3033241928,,,
20.9375000000,2,0.5066155791,,,
20.9531250000,2,0.5866550803,,,
20.9687500000,2,0.5172709823,,,
20.9843750000,2,0.3124361038,,,
21.0000000000,2,0.0292143803,,,
21.0156250000,2,-0.2635484040,,,
21.0312500000,2,-0.5321816802,,,
21.0468750000,2,-0.7612771988,,,
21.0625000000,2,-0.9450898170,,,
21.0781250000,2,-1.0587120056,,,
21.0937500000,2,-1.0572799444,,,
21.1093750000,2,-0.8955950737,,,
21.1250000000,2,-0.5742887855,,,
21.1406250000,2,-0.1432251930,,,
21.1562500000,2,0.2913050950,,,
21.1718750000,2,0.6258059144,,,
21.1875000000,2,0.7993770242,,,
21.2031250000,2,0.8036870956,,,
21.2187500000,2,0.6711984277,,,
21.2343750000,2,0.4580498040,,,
21.2500000000,2,0.2215071023,,,
21.2656250000,2,0.0136032104,,,
21.2812500000,2,-0.1067242995,,,
21.2968750000,2,-0.0812621117,,,
21.3125000000,2,0.1237706989,,,
21.3281250000,2,0.4762625992,,,
21.3437500000,2,0.8929777145,,,
21.3593750000,2,1.2372419834,,,
21.3750000000,2,1.3709690571,,,
21.3906250000,2,1.2319550514,,,
21.4062500000,2,0.8354949951,,,
21.4218750000,2,0.3067306876,,,
21.4375000000,2,-0.1860084981,,,
21.4531250000,2,-0.5023679733,,,
21.4687500000,2,-0.5785213113,,,
21.4843750000,2,-0.4521413147,,,
21.5000000000,2,-0.2347050011,,,
21.5156250000,2,-0.0326051712,,,
21.5312500000,2,0.1110439003,,,
21.5468750000,2,0.2080115974,,,
21.5625000000,2,0.3098787963,,,
21.5781250000,2,0.4398202896,,,
21.5937500000,2,0.5601109862,,,
21.6093750000,2,0.6110482216,,,
21.6250000000,2,0.5372294784,,,
21.6406250000,2,0.3613744080,,,
21.6562500000,2,0.1596436948,,,
21.6718750000,2,0.0499415398,,,
21.6875000000,2,0.0950970575,,,
21.7031250000,2,0.2670493126,,,
21.7187500000,2,0.4450846016,,,
21.7343750000,2,0.4862742126,,,
21.7500000000,2,0.3309684098,,,
21.7656250000,2,0.0272455197,,,
21.7812500000,2,-0.2811903954,,,
21.7968750000,2,-0.4328522980,,,
21.8125000000,2,-0.3241463006,,,
21.8281250000,2,0.0095801353,,,
21.8437500000,2,0.4500288963,,,
21.8593750000,2,0.8356552124,,,
21.8750000000,2,1.0382119417,,,
21.8906250000,2,1.0184439421,,,
21.9062500000,2,0.8447908759,,,
21.9218750000,2,0.6211162210,,,
21.9375000000,2,0.4499163926,,,
21.9531250000,2,0.3699693978,,,
21.9687500000,2,0.3489536941,,,
21.9843750000,2,0.3266912103,,,
22.0000000000,2,0.2661618888,,,
22.0156250000,2,0.1721902043,,,
22.0312500000,2,0.1088361964,,,
22.0468750000,2,0.1260790974,,,
22.0625000000,2,0.2253976017,,,
22.0781250000,2,0.3356876075,,,
22.0937500000,2,0.3362508118,,,
22.1093750000,2,0.1502843052,,,
22.1250000000,2,-0.2012649029,,,
22.1406250000,2,-0.6029533744,,,
22.1562500000,2,-0.9165148735,,,
22.1718750000,2,-1.0413199663,,,
22.1875000000,2,-0.9857211113,,,
22.2031250000,2,-0.8293548226,,,
22.2187500000,2,-0.6750659943,,,
22.2343750000,2,-0.5765076280,,,
22.2500000000,2,-0.5343194008,,,
22.2656250000,2,-0.5157098770,,,
22.2812500000,2,-0.4913300872,,,
22.2968750000,2,-0.4540194869,,,
22.3125000000,2,-0.4010376930,,,
22.3281250000,2,-0.3375768960,,,
22.3437500000,2,-0.2569923103,,,
22.3593750000,2,-0.1519412994,,,
22.3750000000,2,-0.0192117691,,,
22.3906250000,2,0.1362324059,,,
22.4062500000,2,0.3213720024,,,
22.4218750000,2,0.5513014793,,,
22.4375000000,2,0.8231626153,,,
22.4531250000,2,1.0860400200,,,
22.4687500000,2,1.2468930483,,,
22.4843750000,2,1.1961510181,,,
22.5000000000,2,0.8993105888,,,
22.5156250000,2,0.4287753105,,,
22.5312500000,2,-0.0480313301,,,
22.5468750000,2,-0.3628191948,,,
22.5625000000,2,-0.4305185974,,,
22.5781250000,2,-0.3016380966,,,
22.5937500000,2,-0.1235670969,,,
22.6093750000,2,-0.0398793183,,,
22.6250000000,2,-0.1089721024,,,
22.6406250000,2,-0.2766065896,,,
22.6562500000,2,-0.4347029030,,,
22.6718750000,2,-0.4812388122,,,
22.6875000000,2,-0.4044604003,,,
22.7031250000,2,-0.2522701919,,,
22.7187500000,2,-0.1109761968,,,
22.7343750000,2,-0.0306105595,,,
22.7500000000,2,-0.0066890721,,,
22.7656250000,2,0.0088386536,,,
22.7812500000,2,0.0640773773,,,
22.7968750000,2,0.1841354072,,,
22.8125000000,2,0.3602232933,,,
22.8281250000,2,0.5372871757,,,
22.8437500000,2,0.6509910226,,,
22.8593750000,2,0.6390948296,,,
22.8750000000,2,0.4596000016,,,
22.8906250000,2,0.1376547962,,,
22.9062500000,2,-0.2634654045,,,
22.9218750000,2,-0.6406350136,,,
22.9375000000,2,-0.8868321776,,,
22.9531250000,2,-0.9467453957,,,
22.9687500000,2,-0.8286294937,,,
22.9843750000,2,-0.5936502814,,,
23.0000000000,2,-0.3432975113,,,
23.0156250000,2,-0.1371116936,,,
23.0312500000,2,0.0119070997,,,
23.0468750000,2,0.1272429973,,,
23.0625000000,2,0.2325554043,,,
23.0781250000,2,0.3163132966,,,
23.0937500000,2,0.3370704949,,,
23.1093750000,2,0.2593393028,,,
23.1250000000,2,0.0920963287,,,
23.1406250000,2,-0.0822477266,,,
23.1562500000,2,-0.1630219966,,,
23.1718750000,2,-0.0598216094,,,
23.1875000000,2,0.2198679000,,,
23.2031250000,2,0.5716490746,,,
23.2187500000,2,0.8441352844,,,
23.2343750000,2,0.8972926140,,,
23.2500000000,2,0.6847258210,,,
23.2656250000,2,0.2677359879,,,
23.2812500000,2,-0.2205877006,,,
23.2968750000,2,-0.6331735253,,,
23.3125000000,2,-0.8705443740,,,
23.3281250000,2,-0.9151051044,,,
23.3437500000,2,-0.8203390241,,,
23.3593750000,2,-0.6688346863,,,
23.3750000000,2,-0.5540366173,,,
23.3906250000,2,-0.5312681198,,,
23.4062500000,2,-0.6025981903,,,
23.4218750000,2,-0.7334126830,,,
23.4375000000,2,-0.8565320969,,,
23.4531250000,2,-0.9196547866,,,
23.4687500000,2,-0.9064989090,,,
23.4843750000,2,-0.8521378040,,,
23.5000000000,2,-0.8206620216,,,
23.5156250000,2,-0.8523883820,,,
23.5312500000,2,-0.9284886718,,,
23.5468750000,2,-0.9683856964,,,
23.5625000000,2,-0.8743525147,,,
23.5781250000,2,-0.5960298181,,,
23.5937500000,2,-0.1722538024,,,
23.6093750000,2,0.2773303986,,,
23.6250000000,2,0.6044878960,,,
23.6406250000,2,0.7265753746,,,
23.6562500000,2,0.6612253189,,,
23.6718750000,2,0.5140200257,,,
23.6875000000,2,0.4018126130,,,
23.7031250000,2,0.3839592934,,,
23.7187500000,2,0.4332875907,,,
23.7343750000,2,0.4632472992,,,
23.7500000000,2,0.4041548073,,,
23.7656250000,2,0.2409472018,,,
23.7812500000,2,0.0274448395,,,
23.7968750000,2,-0.1651235074,,,
23.8125000000,2,-0.2810612023,,,
23.8281250000,2,-0.3036170006,,,
23.8437500000,2,-0.2399501950,,,
23.8593750000,2,-0.1076902971,,,
23.8750000000,2,0.0769672394,,,
23.8906250000,2,0.2980727851,,,
23.9062500000,2,0.5246539116,,,
23.9218750000,2,0.7096843719,,,
23.9375000000,2,0.7987846732,,,
23.9531250000,2,0.7540665269,,,
23.9687500000,2,0.5957694054,,,
23.9843750000,2,0.3785161972,,,
24.0000000000,3,0.1616467983,,,
24.0156250000,3,-0.0061793332,,,
24.0312500000,3,-0.1047677994,,,
24.0468750000,3,-0.1136626974,,,
24.0625000000,3,0.0032191279,,,
24.0781250000,3,0.2759805024,,,
24.0937500000,3,0.6901183128,,,
24.1093750000,3,1.1794170141,,,
24.1250000000,3,1.5915759802,,,
24.1406250000,3,1.7887630463,,,
24.1562500000,3,1.6972980499,,,
24.1718750000,3,1.3421319723,,,
24.1875000000,3,0.8207988739,,,
24.2031250000,3,0.2660103142,,,
24.2187500000,3,-0.2200088948,,,
24.2343750000,3,-0.5898060799,,,
24.2500000000,3,-0.8268312812,,,
24.2656250000,3,-0.9407095909,,,
24.2812500000,3,-0.9416995049,,,
24.2968750000,3,-0.8624681830,,,
24.3125000000,3,-0.7430182099,,,
24.3281250000,3,-0.6402230263,,,
24.3437500000,3,-0.5901784897,,,
24.3593750000,3,-0.5892118812,,,
24.3750000000,3,-0.6033486724,,,
24.3906250000,3,-0.5851765275,,,
24.4062500000,3,-0.5280948281,,,
24.4218750000,3,-0.4541960061,,,
24.4375000000,3,-0.3942385018,,,
24.4531250000,3,-0.3514795005,,,
24.4687500000,3,-0.3053092957,,,
24.4843750000,3,-0.2307744026,,,
24.5000000000,3,-0.1440601051,,,
24.5156250000,3,-0.1036238968,,,
24.5312500000,3,-0.1839179993,,,
24.5468750000,3,-0.4173769951,,,
24.5625000000,3,-0.7461376190,,,
24.5781250000,3,-1.0604499578,,,
24.5937500000,3,-1.2498070002,,,
24.6093750000,3,-1.2392289639,,,
24.6250000000,3,-1.0357559919,,,
24.6406250000,3,-0.6946892738,,,
24.6562500000,3,-0.3085103035,,,
24.6718750000,3,0.0455722809,,,
24.6875000000,3,0.2765732110,,,
24.7031250000,3,0.3208079040,,,
24.7187500000,3,0.1480216980,,,
24.7343750000,3,-0.2199992985,,,
24.7500000000,3,-0.6989613175,,,
24.7656250000,3,-1.1679110527,,,
24.7812500000,3,-1.4986029863,,,
24.7968750000,3,-1.6304240227,,,
24.8125000000,3,-1.5736850500,,,
24.8281250000,3,-1.3928099871,,,
24.8437500000,3,-1.1541479826,,,
24.8593750000,3,-0.8879566193,,,
24.8750000000,3,-0.5634260178,,,
24.8906250000,3,-0.1281103939,,,
24.9062500000,3,0.4284347892,,,
24.9218750000,3,1.0397909880,,,
24.9375000000,3,1.5631020069,,,
24.9531250000,3,1.8516739607,,,
24.9687500000,3,1.8094899654,,,
24.9843750000,3,1.4579819441,,,
25.0000000000,3,0.9490389824,,,
25.0156250000,3,0.5105423927,,,
25.0312500000,3,0.3492397964,,,
25.0468750000,3,0.5617852211,,,
25.0625000000,3,1.0839799643,,,
25.0781250000,3,1.7121160030,,,
25.0937500000,3,2.2017929554,,,
25.1093750000,3,2.3643219471,,,
25.1250000000,3,2.1458179951,,,
25.1406250000,3,1.6208239794,,,
25.1562500000,3,0.9349370003,,,
25.1718750000,3,0.2648581862,,,
25.1875000000,3,-0.2545833886,,,
25.2031250000,3,-0.5543599129,,,
25.2187500000,3,-0.6300386786,,,
25.2343750000,3,-0.5415329933,,,
25.2500000000,3,-0.3959116936,,,
25.2656250000,3,-0.2980990112,,,
25.2812500000,3,-0.3215031922,,,
25.2968750000,3,-0.4711652100,,,
25.3125000000,3,-0.6891074181,,,
25.3281250000,3,-0.8981351852,,,
25.3437500000,3,-1.0200719833,,,
25.3593750000,3,-1.0354770422,,,
25.3750000000,3,-0.9532241821,,,
25.3906250000,3,-0.8033699989,,,
25.4062500000,3,-0.6075953841,,,
25.4218750000,3,-0.3758091927,,,
25.4375000000,3,-0.1171350032,,,
25.4531250000,3,0.1446737945,,,
25.4687500000,3,0.3862127960,,,
25.4843750000,3,0.5644016266,,,
25.5000000000,3,0.6639608741,,,
25.5156250000,3,0.6790599823,,,
25.5312500000,3,0.5950207710,,,
25.5468750000,3,0.4125480950,,,
25.5625000000,3,0.1423062980,,,
25.5781250000,3,-0.1590923965,,,
25.5937500000,3,-0.4258765876,,,
25.6093750000,3,-0.5814409256,,,
25.6250000000,3,-0.5763940811,,,
25.6406250000,3,-0.3980689049,,,
25.6562500000,3,-0.0727128983,,,
25.6718750000,3,0.3395375907,,,
25.6875000000,3,0.7581834793,,,
25.7031250000,3,1.0846220255,,,
25.7187500000,3,1.2402869463,,,
25.7343750000,3,1.1901739836,,,
25.7500000000,3,0.9971622825,,,
25.7656250000,3,0.7983655930,,,
25.7812500000,3,0.7291737199,,,
25.7968750000,3,0.8694735169,,,
25.8125000000,3,1.1754330397,,,
25.8281250000,3,1.5078569651,,,
25.8437500000,3,1.7170430422,,,
25.8593750000,3,1.7315399647,,,
25.8750000000,3,1.5726430416,,,
25.8906250000,3,1.3200540543,,,
25.9062500000,3,1.0537379980,,,
25.9218750000,3,0.8119053841,,,
25.9375000000,3,0.5999627113,,,
25.9531250000,3,0.4028187096,,,
25.9687500000,3,0.2383213043,,,
25.9843750000,3,0.0957302973,,,
26.0000000000,3,-0.0526089706,,,
26.0156250000,3,-0.2536863983,,,
26.0312500000,3,-0.5368847847,,,
26.0468750000,3,-0.8749775887,,,
26.0625000000,3,-1.1872090101,,,
26.0781250000,3,-1.3606139421,,,
26.0937500000,3,-1.3727710247,,,
26.1093750000,3,-1.2844400406,,,
26.1250000000,3,-1.2313270569,,,
26.1406250000,3,-1.2963110209,,,
26.1562500000,3,-1.4549670219,,,
26.1718750000,3,-1.5649919510,,,
26.1875000000,3,-1.4603209496,,,
26.2031250000,3,-1.0643119812,,,
26.2187500000,3,-0.4342885017,,,
26.2343750000,3,0.2225517929,,,
26.2500000000,3,0.6815866828,,,
26.2656250000,3,0.7999119759,,,
26.2812500000,3,0.5554695129,,,
26.2968750000,3,0.0730152130,,,
26.3125000000,3,-0.4578461945,,,
26.3281250000,3,-0.8740835190,,,
26.3437500000,3,-1.1054430008,,,
26.3593750000,3,-1.1695790291,,,
26.3750000000,3,-1.1471740007,,,
26.3906250000,3,-1.1210000515,,,
26.4062500000,3,-1.1198719740,,,
26.4218750000,3,-1.1014389992,,,
26.4375000000,3,-0.9942349792,,,
26.4531250000,3,-0.7288908958,,,
26.4687500000,3,-0.2927221954,,,
26.4843750000,3,0.2520670891,,,
26.5000000000,3,0.7992315292,,,
26.5156250000,3,1.2344700098,,,
26.5312500000,3,1.4663980007,,,
26.5468750000,3,1.4505499601,,,
26.5625000000,3,1.2003730536,,,
26.5781250000,3,0.7887650132,,,
26.5937500000,3,0.3303480148,,,
26.6093750000,3,-0.0292496700,,,
26.6250000000,3,-0.1796088070,,,
26.6406250000,3,-0.0775704384,,,
26.6562500000,3,0.2345861942,,,
26.6718750000,3,0.6478453279,,,
26.6875000000,3,1.0399550200,,,
26.7031250000,3,1.3327150345,,,
26.7187500000,3,1.5004889965,,,
26.7343750000,3,1.5539909601,,,
26.7500000000,3,1.4971209764,,,
26.7656250000,3,1.3260159492,,,
26.7812500000,3,1.0160930157,,,
26.7968750000,3,0.5867853165,,,
26.8125000000,3,0.1203012019,,,
26.8281250000,3,-0.2742696106,,,
26.8437500000,3,-0.5158709884,,,
26.8593750000,3,-0.6009783745,,,
26.8750000000,3,-0.6094551086,,,
26.8906250000,3,-0.6456522942,,,
26.9062500000,3,-0.7601584792,,,
26.9218750000,3,-0.9040226936,,,
26.9375000000,3,-0.9644175172,,,
26.9531250000,3,-0.8355923295,,,
26.9687500000,3,-0.5066714287,,,
26.9843750000,3,-0.1018342972,,,
27.0000000000,3,0.1987113953,,,
27.0156250000,3,0.2620854080,,,
27.0312500000,3,0.0770440102,,,
27.0468750000,3,-0.2275815010,,,
27.0625000000,3,-0.4723972976,,,
27.0781250000,3,-0.5301784873,,,
27.0937500000,3,-0.4046044052,,,
27.1093750000,3,-0.2017921954,,,
27.1250000000,3,-0.0613784790,,,
27.1406250000,3,-0.0646348000,,,
27.1562500000,3,-0.1827301979,,,
27.1718750000,3,-0.3220334053,,,
27.1875000000,3,-0.3950819969,,,
27.2031250000,3,-0.3603524864,,,
27.2187500000,3,-0.2569470108,,,
27.2343750000,3,-0.1547445953,,,
27.2500000000,3,-0.1084980965,,,
27.2656250000,3,-0.1297416985,,,
27.2812500000,3,-0.1902942955,,,
27.2968750000,3,-0.2485250980,,,
27.3125000000,3,-0.2707386017,,,
27.3281250000,3,-0.2571425140,,,
27.3437500000,3,-0.2229772061,,,
27.3593750000,3,-0.1953749955,,,
27.3750000000,3,-0.1924262047,,,
27.3906250000,3,-0.2220159024,,,
27.4062500000,3,-0.2680793107,,,
27.4218750000,3,-0.3143377006,,,
27.4375000000,3,-0.3297334015,,,
27.4531250000,3,-0.3061985970,,,
27.4687500000,3,-0.2389445007,,,
27.4843750000,3,-0.1614547074,,,
27.5000000000,3,-0.1111859977,,,
27.5156250000,3,-0.1203951985,,,
27.5312500000,3,-0.2032790035,,,
27.5468750000,3,-0.3385334015,,,
27.5625000000,3,-0.4765649140,,,
27.5781250000,3,-0.5540800095,,,
27.5937500000,3,-0.5191159248,,,
27.6093750000,3,-0.3642311096,,,
27.6250000000,3,-0.1468109936,,,
27.6406250000,3,0.0447545089,,,
27.6562500000,3,0.1366772950,,,
27.6718750000,3,0.1135782972,,,
27.6875000000,3,0.0457329787,,,
27.7031250000,3,0.0307416897,,,
27.7187500000,3,0.1492065936,,,
27.7343750000,3,0.4050846100,,,
27.7500000000,3,0.7275447845,,,
27.7656250000,3,1.0088499784,,,
27.7812500000,3,1.1439369917,,,
27.7968750000,3,1.0950720310,,,
27.8125000000,3,0.8790779114,,,
27.8281250000,3,0.5527176857,,,
27.8437500000,3,0.1811995953,,,
27.8593750000,3,-0.1784835011,,,
27.8750000000,3,-0.4803610146,,,
27.8906250000,3,-0.6748942733,,,
27.9062500000,3,-0.6989697814,,,
27.9218750000,3,-0.5322533250,,,
27.9375000000,3,-0.2020550072,,,
27.9531250000,3,0.1928057969,,,
27.9687500000,3,0.5482645035,,,
27.9843750000,3,0.7753520012,,,
28.0000000000,3,0.8474935889,,,
28.0156250000,3,0.7913293839,,,
28.0312500000,3,0.6481575966,,,
28.0468750000,3,0.4539141953,,,
28.0625000000,3,0.2322645038,,,
28.0781250000,3,-0.0101208696,,,
28.0937500000,3,-0.2459668964,,,
28.1093750000,3,-0.4383549988,,,
28.1250000000,3,-0.5538982749,,,
28.1406250000,3,-0.5641884804,,,
28.1562500000,3,-0.4654684067,,,
28.1718750000,3,-0.2657479942,,,
28.1875000000,3,0.0040106769,,,
28.2031250000,3,0.2987208068,,,
28.2187500000,3,0.5535573959,,,
28.2343750000,3,0.7164936066,,,
28.2500000000,3,0.7402821183,,,
28.2656250000,3,0.6305137277,,,
28.2812500000,3,0.4549294114,,,
28.2968750000,3,0.3182677925,,,
28.3125000000,3,0.3006153107,,,
28.3281250000,3,0.4089421928,,,
28.3437500000,3,0.5707560182,,,
28.3593750000,3,0.6731566787,,,
28.3750000000,3,0.6530023217,,,
28.3906250000,3,0.5225368142,,,
28.4062500000,3,0.3653708100,,,
28.4218750000,3,0.2663927078,,,
28.4375000000,3,0.2544851005,,,
28.4531250000,3,0.2690443993,,,
28.4687500000,3,0.2179841995,,,
28.4843750000,3,0.0213069897,,,
28.5000000000,3,-0.3079170883,,,
28.5156250000,3,-0.6731944084,,,
28.5312500000,3,-0.9397783279,,,
28.5468750000,3,-1.0199929476,,,
28.5625000000,3,-0.9120426178,,,
28.5781250000,3,-0.7107872963,,,
28.5937500000,3,-0.5427784920,,,
28.6093750000,3,-0.5082607269,,,
28.6250000000,3,-0.6205058098,,,
28.6406250000,3,-0.8100991249,,,
28.6562500000,3,-0.9924554825,,,
28.6718750000,3,-1.0901910067,,,
28.6875000000,3,-1.0993649960,,,
28.7031250000,3,-1.0551079512,,,
28.7187500000,3,-1.0052289963,,,
28.7343750000,3,-0.9474821091,,,
28.7500000000,3,-0.8297237754,,,
28.7656250000,3,-0.6166687012,,,
28.7812500000,3,-0.3105649948,,,
28.7968750000,3,0.0064420700,,,
28.8125000000,3,0.2196422070,,,
28.8281250000,3,0.2405886948,,,
28.8437500000,3,0.0802040100,,,
28.8593750000,3,-0.1563649029,,,
28.8750000000,3,-0.3288030922,,,
28.8906250000,3,-0.3255147934,,,
28.9062500000,3,-0.1478372067,,,
28.9218750000,3,0.1054892987,,,
28.9375000000,3,0.2946290970,,,
28.9531250000,3,0.3120689094,,,
28.9687500000,3,0.1529211998,,,
28.9843750000,3,-0.0988178328,,,
29.0000000000,3,-0.3046818078,,,
29.0156250000,3,-0.3647260964,,,
29.0312500000,3,-0.2546848953,,,
29.0468750000,3,-0.0392317809,,,
29.0625000000,3,0.1752814949,,,
29.0781250000,3,0.3011884987,,,
29.0937500000,3,0.3061170876,,,
29.1093750000,3,0.2022753060,,,
29.1250000000,3,0.0235185605,,,
29.1406250000,3,-0.1924066991,,,
29.1562500000,3,-0.4287081063,,,
29.1718750000,3,-0.6529316902,,,
29.1875000000,3,-0.8224974275,,,
29.2031250000,3,-0.8657832146,,,
29.2187500000,3,-0.7345767021,,,
29.2343750000,3,-0.4230628014,,,
29.2500000000,3,0.0102744102,,,
29.2656250000,3,0.4664911926,,,
29.2812500000,3,0.8490043283,,,
29.2968750000,3,1.0894780159,,,
29.3125000000,3,1.1757290363,,,
29.3281250000,3,1.1061480045,,,
29.3437500000,3,0.8895410895,,,
29.3593750000,3,0.5501536727,,,
29.3750000000,3,0.1321664006,,,
29.3906250000,3,-0.2756614983,,,
29.4062500000,3,-0.5813713074,,,
29.4218750000,3,-0.7088379860,,,
29.4375000000,3,-0.6359643936,,,
29.4531250000,3,-0.4083428085,,,
29.4687500000,3,-0.0852675363,,,
29.4843750000,3,0.2725996971,,,
29.5000000000,3,0.6428027153,,,
29.5156250000,3,1.0087519884,,,
29.5312500000,3,1.3303610086,,,
29.5468750000,3,1.5328789949,,,
29.5625000000,3,1.5156489611,,,
29.5781250000,3,1.2242430449,,,
29.5937500000,3,0.6955193877,,,
29.6093750000,3,0.0536990203,,,
29.6250000000,3,-0.5186328888,,,
29.6406250000,3,-0.8741292953,,,
29.6562500000,3,-0.9640492797,,,
29.6718750000,3,-0.8389859200,,,
29.6875000000,3,-0.6211966872,,,
29.7031250000,3,-0.4244933128,,,
29.7187500000,3,-0.3069762886,,,
29.7343750000,3,-0.2327775955,,,
29.7500000000,3,-0.1347270012,,,
29.7656250000,3,0.0549936295,,,
29.7812500000,3,0.3465605080,,,
29.7968750000,3,0.6620326042,,,
29.8125000000,3,0.8957992196,,,
29.8281250000,3,0.9469295144,,,
29.8437500000,3,0.7733287811,,,
29.8593750000,3,0.4162493050,,,
29.8750000000,3,-0.0076861382,,,
29.8906250000,3,-0.3658747971,,,
29.9062500000,3,-0.5803471208,,,
29.9218750000,3,-0.6404656768,,,
29.9375000000,3,-0.5919036865,,,
29.9531250000,3,-0.4921292961,,,
29.9687500000,3,-0.3520308137,,,
29.9843750000,3,-0.1509146988,,,
30.0000000000,3,0.1431494057,,,
30.0156250000,3,0.5092257857,,,
30.0312500000,3,0.8618878722,,,
30.0468750000,3,1.0713410378,,,
30.0625000000,3,1.0525759459,,,
30.0781250000,3,0.8155632019,,,
30.0937500000,3,0.4814986885,,,
30.1093750000,3,0.2063731998,,,
30.1250000000,3,0.1129831970,,,
30.1406250000,3,0.2191558033,,,
30.1562500000,3,0.4232163131,,,
30.1718750000,3,0.5773686767,,,
30.1875000000,3,0.5659503937,,,
30.2031250000,3,0.3644427955,,,
30.2187500000,3,0.0404276811,,,
30.2343750000,3,-0.2896699905,,,
30.2500000000,3,-0.5185418129,,,
30.2656250000,3,-0.5962542892,,,
30.2812500000,3,-0.5300455093,,,
30.2968750000,3,-0.3697305024,,,
30.3125000000,3,-0.1784015000,,,
30.3281250000,3,-0.0041699409,,,
30.3437500000,3,0.1289377064,,,
30.3593750000,3,0.1950730979,,,
30.3750000000,3,0.1788278073,,,
30.3906250000,3,0.0817332268,,,
30.4062500000,3,-0.0939855576,,,
30.4218750000,3,-0.3112258911,,,
30.4375000000,3,-0.5262417793,,,
30.4531250000,3,-0.6766027808,,,
30.4687500000,3,-0.7242798805,,,
30.4843750000,3,-0.6632605195,,,
30.5000000000,3,-0.5131912231,,,
30.5156250000,3,-0.3281159103,,,
30.5312500000,3,-0.1490345001,,,
30.5468750000,3,-0.0094485283,,,
30.5625000000,3,0.0758976936,,,
30.5781250000,3,0.0892858505,,,
30.5937500000,3,0.0254321098,,,
30.6093750000,3,-0.1132865027,,,
30.6250000000,3,-0.2838968933,,,
30.6406250000,3,-0.4072284997,,,
30.6562500000,3,-0.4115400016,,,
30.6718750000,3,-0.2700357139,,,
30.6875000000,3,-0.0407533608,,,
30.7031250000,3,0.1676331013,,,
30.7187500000,3,0.2556223869,,,
30.7343750000,3,0.1937431991,,,
30.7500000000,3,0.0611777306,,,
30.7656250000,3,0.0028185840,,,
30.7812500000,3,0.1283317059,,,
30.7968750000,3,0.4523338974,,,
30.8125000000,3,0.8732538223,,,
30.8281250000,3,1.2268699408,,,
30.8437500000,3,1.3865380287,,,
30.8593750000,3,1.3266730309,,,
30.8750000000,3,1.1194339991,,,
30.8906250000,3,0.8817667961,,,
30.9062500000,3,0.6890888214,,,
30.9218750000,3,0.5692229271,,,
30.9375000000,3,0.4892100990,,,
30.9531250000,3,0.4321322143,,,
30.9687500000,3,0.4033736885,,,
30.9843750000,3,0.4376415908,,,
31.0000000000,3,0.5845245719,,,
31.0156250000,3,0.8505324721,,,
31.0312500000,3,1.1754499674,,,
31.0468750000,3,1.4524140358,,,
31.0625000000,3,1.5624070168,,,
31.0781250000,3,1.4106169939,,,
31.0937500000,3,1.0025010109,,,
31.1093750000,3,0.4233990014,,,
31.1250000000,3,-0.1812943965,,,
31.1406250000,3,-0.6705718040,,,
31.1562500000,3,-0.9736651778,,,
31.1718750000,3,-1.1176689863,,,
31.1875000000,3,-1.2053409815,,,
31.2031250000,3,-1.3240000010,,,
31.2187500000,3,-1.5147269964,,,
31.2343750000,3,-1.7182040215,,,
31.2500000000,3,-1.8291269541,,,
31.2656250000,3,-1.7565690279,,,
31.2812500000,3,-1.4950710535,,,
31.2968750000,3,-1.1376789808,,,
31.3125000000,3,-0.8261743188,,,
31.3281250000,3,-0.6717948914,,,
31.3437500000,3,-0.6973319054,,,
31.3593750000,3,-0.8382133842,,,
31.3750000000,3,-0.9688925743,,,
31.3906250000,3,-0.9926251769,,,
31.4062500000,3,-0.8938283920,,,
31.4218750000,3,-0.7260323167,,,
31.4375000000,3,-0.5804129243,,,
31.4531250000,3,-0.5095800757,,,
31.4687500000,3,-0.5324978828,,,
31.4843750000,3,-0.6122155190,,,
31.5000000000,3,-0.7022371292,,,
31.5156250000,3,-0.7408856750,,,
31.5312500000,3,-0.6888331771,,,
31.5468750000,3,-0.5163493156,,,
31.5625000000,3,-0.1974034011,,,
31.5781250000,3,0.2318443954,,,
31.5937500000,3,0.6856278777,,,
31.6093750000,3,1.0306489468,,,
31.6250000000,3,1.1453280449,,,
31.6406250000,3,0.9857305884,,,
31.6562500000,3,0.6292685866,,,
31.6718750000,3,0.2242804021,,,
31.6875000000,3,-0.0617146492,,,
31.7031250000,3,-0.1298161000,,,
31.7187500000,3,0.0023241041,,,
31.7343750000,3,0.2351603955,,,
31.7500000000,3,0.4542908967,,,
31.7656250000,3,0.5786405206,,,
31.7812500000,3,0.6023005843,,,
31.7968750000,3,0.5701761246,,,
31.8125000000,3,0.5369638801,,,
31.8281250000,3,0.5350512862,,,
31.8437500000,3,0.5679450035,,,
31.8593750000,3,0.5847454071,,,
31.8750000000,3,0.5442237854,,,
31.8906250000,3,0.4378209114,,,
31.9062500000,3,0.2831268013,,,
31.9218750000,3,0.1380949020,,,
31.9375000000,3,0.0475220717,,,
31.9531250000,3,0.0390319787,,,
31.9687500000,3,0.1008400992,,,
31.9843750000,3,0.1983952969,,,
32.0000000000,4,0.2892442048,,,
32.0156250000,4,0.3410130143,,,
32.0312500000,4,0.3546419144,,,
32.0468750000,4,0.3250246048,,,
32.0625000000,4,0.2576946914,,,
32.0781250000,4,0.1671853065,,,
32.0937500000,4,0.0604147911,,,
32.1093750000,4,-0.0533094406,,,
32.1250000000,4,-0.1725410968,,,
32.1406250000,4,-0.3034949005,,,
32.1562500000,4,-0.4359570146,,,
32.1718750000,4,-0.5376272202,,,
32.1875000000,4,-0.5463380814,,,
32.2031250000,4,-0.3914260864,,,
32.2187500000,4,-0.0635623932,,,
32.2343750000,4,0.3447523117,,,
32.2500000000,4,0.6704583168,,,
32.2656250000,4,0.7530941963,,,
32.2812500000,4,0.5408502221,,,
32.2968750000,4,0.1303458065,,,
32.3125000000,4,-0.2774043083,,,
32.3281250000,4,-0.5000042915,,,
32.3437500000,4,-0.4674454033,,,
32.3593750000,4,-0.2606315911,,,
32.3750000000,4,-0.0536513291,,,
32.3906250000,4,0.0263395291,,,
32.4062500000,4,-0.0693035126,,,
32.4218750000,4,-0.2721318901,,,
32.4375000000,4,-0.4933538139,,,
32.4531250000,4,-0.6914206147,,,
32.4687500000,4,-0.8696203232,,,
32.4843750000,4,-1.0550080538,,,
32.5000000000,4,-1.2316850424,,,
32.5156250000,4,-1.3464820385,,,
32.5312500000,4,-1.3101799488,,,
32.5468750000,4,-1.0968459845,,,
32.5625000000,4,-0.7597293854,,,
32.5781250000,4,-0.4076676071,,,
32.5937500000,4,-0.1364569962,,,
32.6093750000,4,0.0327663384,,,
32.6250000000,4,0.1558088958,,,
32.6406250000,4,0.3136230111,,,
32.6562500000,4,0.5530138016,,,
32.6718750000,4,0.8395224214,,,
32.6875000000,4,1.0869250298,,,
32.7031250000,4,1.2311860323,,,
32.7187500000,4,1.2491229773,,,
32.7343750000,4,1.1838419437,,,
32.7500000000,4,1.0925769806,,,
32.7656250000,4,1.0108540058,,,
32.7812500000,4,0.9402350783,,,
32.7968750000,4,0.8625140190,,,
32.8125000000,4,0.7788711190,,,
32.8281250000,4,0.7165803909,,,
32.8437500000,4,0.7095065117,,,
32.8593750000,4,0.7701979280,,,
32.8750000000,4,0.8467832208,,,
32.8906250000,4,0.8573493958,,,
32.9062500000,4,0.7184361815,,,
32.9218750000,4,0.4206342995,,,
32.9375000000,4,0.0383324586,,,
32.9531250000,4,-0.3104695976,,,
32.9687500000,4,-0.5256723762,,,
32.9843750000,4,-0.5667396188,,,
33.0000000000,4,-0.4856482148,,,
33.0156250000,4,-0.3975492120,,,
33.0312500000,4,-0.3906869888,,,
33.0468750000,4,-0.5208715796,,,
33.0625000000,4,-0.7544593811,,,
33.0781250000,4,-1.0246030092,,,
33.0937500000,4,-1.2533140182,,,
33.1093750000,4,-1.3924930096,,,
33.1250000000,4,-1.4132709503,,,
33.1406250000,4,-1.3162330389,,,
33.1562500000,4,-1.1072449684,,,
33.1718750000,4,-0.8131108284,,,
33.1875000000,4,-0.4920873940,,,
33.2031250000,4,-0.2090521008,,,
33.2187500000,4,-0.0203170795,,,
33.2343750000,4,0.0734148026,,,
33.2500000000,4,0.0973262787,,,
33.2656250000,4,0.1079407036,,,
33.2812500000,4,0.1261654049,,,
33.2968750000,4,0.1240004972,,,
33.3125000000,4,0.0429205894,,,
33.3281250000,4,-0.1714783013,,,
33.3437500000,4,-0.5083889961,,,
33.3593750000,4,-0.8668612838,,,
33.3750000000,4,-1.1015360355,,,
33.3906250000,4,-1.0847879648,,,
33.4062500000,4,-0.7728595734,,,
33.4218750000,4,-0.2262368053,,,
33.4375000000,4,0.4122171104,,,
33.4531250000,4,0.9792131782,,,
33.4687500000,4,1.3394080400,,,
33.4843750000,4,1.4308949709,,,
33.5000000000,4,1.2506680489,,,
33.5156250000,4,0.8569983840,,,
33.5312500000,4,0.3473953903,,,
33.5468750000,4,-0.1810451001,,,
33.5625000000,4,-0.6297069192,,,
33.5781250000,4,-0.9409394264,,,
33.5937500000,4,-1.0789719820,,,
33.6093750000,4,-1.0623860359,,,
33.6250000000,4,-0.9306092262,,,
33.6406250000,4,-0.7616220117,,,
33.6562500000,4,-0.6386923790,,,
33.6718750000,4,-0.6292982101,,,
33.6875000000,4,-0.7612528801,,,
33.7031250000,4,-1.0034480095,,,
33.7187500000,4,-1.2822190523,,,
33.7343750000,4,-1.4993859529,,,
33.7500000000,4,-1.5701500177,,,
33.7656250000,4,-1.4431329966,,,
33.7812500000,4,-1.1097999811,,,
33.7968750000,4,-0.6002349854,,,
33.8125000000,4,0.0241217595,,,
33.8281250000,4,0.6665300727,,,
33.8437500000,4,1.2215789557,,,
33.8593750000,4,1.5969480276,,,
33.8750000000,4,1.7517420053,,,
33.8906250000,4,1.7119460106,,,
33.9062500000,4,1.5547209978,,,
33.9218750000,4,1.3610850573,,,
33.9375000000,4,1.1880880594,,,
33.9531250000,4,1.0401040316,,,
33.9687500000,4,0.8823500276,,,
33.9843750000,4,0.7091917992,,,
34.0000000000,4,0.5317283273,,,
34.0156250000,4,0.4026846886,,,
34.0312500000,4,0.3472146988,,,
34.0468750000,4,0.3415246010,,,
34.0625000000,4,0.3302350044,,,
34.0781250000,4,0.2647661865,,,
34.0937500000,4,0.1541890949,,,
34.1093750000,4,0.0625314713,,,
34.1250000000,4,0.0949478075,,,
34.1406250000,4,0.3228349984,,,
34.1562500000,4,0.7380762100,,,
34.1718750000,4,1.2354409695,,,
34.1875000000,4,1.6686329842,,,
34.2031250000,4,1.9100650549,,,
34.2187500000,4,1.9055219889,,,
34.2343750000,4,1.6694769859,,,
34.2500000000,4,1.2885129452,,,
34.2656250000,4,0.8415750861,,,
34.2812500000,4,0.3907060921,,,
34.2968750000,4,-0.0286173802,,,
34.3125000000,4,-0.3836260140,,,
34.3281250000,4,-0.6245914102,,,
34.3437500000,4,-0.7043581009,,,
34.3593750000,4,-0.6106209755,,,
34.3750000000,4,-0.3936032951,,,
34.3906250000,4,-0.1393228024,,,
34.4062500000,4,0.0487976111,,,
34.4218750000,4,0.0958075523,,,
34.4375000000,4,-0.0023317339,,,
34.4531250000,4,-0.1808757931,,,
34.4687500000,4,-0.3651852906,,,
34.4843750000,4,-0.4792585075,,,
34.5000000000,4,-0.4928131104,,,
34.5156250000,4,-0.4100142121,,,
34.5312500000,4,-0.2789225876,,,
34.5468750000,4,-0.1737350971,,,
34.5625000000,4,-0.1710271984,,,
34.5781250000,4,-0.3055810928,,,
34.5937500000,4,-0.5368236899,,,
34.6093750000,4,-0.7548022270,,,
34.6250000000,4,-0.8155689240,,,
34.6406250000,4,-0.6242694855,,,
34.6562500000,4,-0.1893739998,,,
34.6718750000,4,0.3704580963,,,
34.6875000000,4,0.9004750252,,,
34.7031250000,4,1.2692769766,,,
34.7187500000,4,1.4278490543,,,
34.7343750000,4,1.3857990503,,,
34.7500000000,4,1.1801400185,,,
34.7656250000,4,0.8517612815,,,
34.7812500000,4,0.4633040130,,,
34.7968750000,4,0.0911059380,,,
34.8125000000,4,-0.1784128994,,,
34.8281250000,4,-0.2836084068,,,
34.8437500000,4,-0.2190742046,,,
34.8593750000,4,-0.0383105315,,,
34.8750000000,4,0.1641788036,,,
34.8906250000,4,0.3284721076,,,
34.9062500000,4,0.4302115142,,,
34.9218750000,4,0.4801774025,,,
34.9375000000,4,0.4802879989,,,
34.9531250000,4,0.4184418023,,,
34.9687500000,4,0.2730354965,,,
34.9843750000,4,0.0481920205,,,
35.0000000000,4,-0.1866903007,,,
35.0156250000,4,-0.3426552117,,,
35.0312500000,4,-0.3592267036,,,
35.0468750000,4,-0.2663773894,,,
35.0625000000,4,-0.1746868938,,,
35.0781250000,4,-0.2158551067,,,
35.0937500000,4,-0.4584346116,,,
35.1093750000,4,-0.8622254729,,,
35.1250000000,4,-1.2902810574,,,
35.1406250000,4,-1.5697829723,,,
35.1562500000,4,-1.5823459625,,,
35.1718750000,4,-1.3135130405,,,
35.1875000000,4,-0.8609433174,,,
35.2031250000,4,-0.3950253129,,,
35.2187500000,4,-0.0942931175,,,
35.2343750000,4,-0.0545611382,,,
35.2500000000,4,-0.2577852905,,,
35.2656250000,4,-0.5936145782,,,
35.2812500000,4,-0.9009876251,,,
35.2968750000,4,-1.0536079407,,,
35.3125000000,4,-1.0040819645,,,
35.3281250000,4,-0.8037462234,,,
35.3437500000,4,-0.5648465157,,,
35.3593750000,4,-0.3802142143,,,
35.3750000000,4,-0.2906632125,,,
35.3906250000,4,-0.2496881038,,,
35.4062500000,4,-0.1859406978,,,
35.4218750000,4,-0.0371055603,,,
35.4375000000,4,0.1940079033,,,
35.4531250000,4,0.4389095008,,,
35.4687500000,4,0.6021289825,,,
35.4843750000,4,0.6278933883,,,
35.5000000000,4,0.5363258719,,,
35.5156250000,4,0.4108386040,,,
35.5312500000,4,0.3491005898,,,
35.5468750000,4,0.4060755074,,,
35.5625000000,4,0.5532702804,,,
35.5781250000,4,0.6803640723,,,
35.5937500000,4,0.6577053070,,,
35.6093750000,4,0.4260492027,,,
35.6250000000,4,0.0407295190,,,
35.6406250000,4,-0.3394055068,,,
35.6562500000,4,-0.5460261703,,,
35.6718750000,4,-0.4945436120,,,
35.6875000000,4,-0.2388830036,,,
35.7031250000,4,0.0662999228,,,
35.7187500000,4,0.2548561096,,,
35.7343750000,4,0.2302809060,,,
35.7500000000,4,0.0375699997,,,
35.7656250000,4,-0.1993083954,,,
35.7812500000,4,-0.3413057029,,,
35.7968750000,4,-0.3066869080,,,
35.8125000000,4,-0.1049847975,,,
35.8281250000,4,0.1975279003,,,
35.8437500000,4,0.5154247284,,,
35.8593750000,4,0.7804312706,,,
35.8750000000,4,0.9376192093,,,
35.8906250000,4,0.9628667831,,,
35.9062500000,4,0.8463854790,,,
35.9218750000,4,0.6201605797,,,
35.9375000000,4,0.3525119126,,,
35.9531250000,4,0.1317481995,,,
35.9687500000,4,0.0188159905,,,
35.9843750000,4,0.0236282293,,,
36.0000000000,4,0.1115278974,,,
36.0156250000,4,0.2275934070,,,
36.0312500000,4,0.3058319092,,,
36.0468750000,4,0.3002299964,,,
36.0625000000,4,0.1741971970,,,
36.0781250000,4,-0.0719676018,,,
36.0937500000,4,-0.3961110115,,,
36.1093750000,4,-0.7049803734,,,
36.1250000000,4,-0.8985733986,,,
36.1406250000,4,-0.9000282288,,,
36.1562500000,4,-0.7181715965,,,
36.1718750000,4,-0.4662094116,,,
36.1875000000,4,-0.2981482148,,,
36.2031250000,4,-0.3156976998,,,
36.2187500000,4,-0.5001273155,,,
36.2343750000,4,-0.7276812196,,,
36.2500000000,4,-0.8494567871,,,
36.2656250000,4,-0.8153042793,,,
36.2812500000,4,-0.7117099762,,,
36.2968750000,4,-0.6881632805,,,
36.3125000000,4,-0.8300781250,,,
36.3281250000,4,-1.0735119581,,,
36.3437500000,4,-1.2382739782,,,
36.3593750000,4,-1.1256979704,,,
36.3750000000,4,-0.6738476753,,,
36.3906250000,4,0.0110793104,,,
36.4062500000,4,0.6934022903,,,
36.4218750000,4,1.1431239843,,,
36.4375000000,4,1.2512489557,,,
36.4531250000,4,1.0587769747,,,
36.4687500000,4,0.7265148163,,,
36.4843750000,4,0.4183678925,,,
36.5000000000,4,0.2472452968,,,
36.5156250000,4,0.2413783073,,,
36.5312500000,4,0.3487701118,,,
36.5468750000,4,0.4919753075,,,
36.5625000000,4,0.5828853250,,,
36.5781250000,4,0.5679330826,,,
36.5937500000,4,0.4388351142,,,
36.6093750000,4,0.2321887016,,,
36.6250000000,4,0.0220069904,,,
36.6406250000,4,-0.1315235943,,,
36.6562500000,4,-0.2149153054,,,
36.6718750000,4,-0.2671875954,,,
36.6875000000,4,-0.3551015854,,,
36.7031250000,4,-0.5097289085,,,
36.7187500000,4,-0.7120804787,,,
36.7343750000,4,-0.8892220855,,,
36.7500000000,4,-0.9555472732,,,
36.7656250000,4,-0.8755158782,,,
36.7812500000,4,-0.6812620163,,,
36.7968750000,4,-0.4592399895,,,
36.8125000000,4,-0.3093200028,,,
36.8281250000,4,-0.2742475867,,,
36.8437500000,4,-0.3411735892,,,
36.8593750000,4,-0.4404839873,,,
36.8750000000,4,-0.5068889260,,,
36.8906250000,4,-0.4891901016,,,
36.9062500000,4,-0.3953594863,,,
36.9218750000,4,-0.2556743920,,,
36.9375000000,4,-0.0952644274,,,
36.9531250000,4,0.0765576437,,,
36.9687500000,4,0.2757214904,,,
36.9843750000,4,0.5107387900,,,
37.0000000000,4,0.7697277069,,,
37.0156250000,4,1.0234849453,,,
37.0312500000,4,1.2410340309,,,
37.0468750000,4,1.4108419418,,,
37.0625000000,4,1.5328149796,,,
37.0781250000,4,1.6033619642,,,
37.0937500000,4,1.5904970169,,,
37.1093750000,4,1.4383280277,,,
37.1250000000,4,1.1077909470,,,
37.1406250000,4,0.6050075889,,,
37.1562500000,4,0.0024175639,,,
37.1718750000,4,-0.5702590942,,,
37.1875000000,4,-0.9942502975,,,
37.2031250000,4,-1.2016110420,,,
37.2187500000,4,-1.2187880278,,,
37.2343750000,4,-1.1258599758,,,
37.2500000000,4,-0.9940276146,,,
37.2656250000,4,-0.8541020751,,,
37.2812500000,4,-0.6652665138,,,
37.2968750000,4,-0.3729839027,,,
37.3125000000,4,0.0226001702,,,
37.3281250000,4,0.4320806861,,,
37.3437500000,4,0.7200378776,,,
37.3593750000,4,0.7784457207,,,
37.3750000000,4,0.5997338295,,,
37.3906250000,4,0.3033680916,,,
37.4062500000,4,0.0461459197,,,
37.4218750000,4,-0.0595650710,,,
37.4375000000,4,-0.0198721904,,,
37.4531250000,4,0.0655665398,,,
37.4687500000,4,0.0807061195,,,
37.4843750000,4,-0.0209121704,,,
37.5000000000,4,-0.1794795990,,,
37.5156250000,4,-0.2727999985,,,
37.5312500000,4,-0.2114944011,,,
37.5468750000,4,-0.0121178599,,,
37.5625000000,4,0.2241158038,,,
37.5781250000,4,0.3627333939,,,
37.5937500000,4,0.3309960067,,,
37.6093750000,4,0.1470046043,,,
37.6250000000,4,-0.0884261131,,,
37.6406250000,4,-0.2738251984,,,
37.6562500000,4,-0.3454180062,,,
37.6718750000,4,-0.2971683145,,,
37.6875000000,4,-0.1602149010,,,
37.7031250000,4,0.0406756401,,,
37.7187500000,4,0.2758732140,,,
37.7343750000,4,0.5144175887,,,
37.7500000000,4,0.7094197273,,,
37.7656250000,4,0.7810649872,,,
37.7812500000,4,0.6718186736,,,
37.7968750000,4,0.3649429977,,,
37.8125000000,4,-0.0618572198,,,
37.8281250000,4,-0.4999584854,,,
37.8437500000,4,-0.8334612846,,,
37.8593750000,4,-1.0109390020,,,
37.8750000000,4,-1.0423760414,,,
37.8906250000,4,-0.9665060043,,,
37.9062500000,4,-0.8294901848,,,
37.9218750000,4,-0.6565241814,,,
37.9375000000,4,-0.4733639061,,,
37.9531250000,4,-0.3021455109,,,
37.9687500000,4,-0.1600670964,,,
37.9843750000,4,-0.0384807587,,,
38.0000000000,4,0.1121167988,,,
38.0156250000,4,0.3445748985,,,
38.0312500000,4,0.6865835190,,,
38.0468750000,4,1.0769250393,,,
38.0625000000,4,1.3980610371,,,
38.0781250000,4,1.5076140165,,,
38.0937500000,4,1.3274890184,,,
38.1093750000,4,0.9030538201,,,
38.1250000000,4,0.3695291877,,,
38.1406250000,4,-0.0996775627,,,
38.1562500000,4,-0.3751688004,,,
38.1718750000,4,-0.4132441878,,,
38.1875000000,4,-0.2636832893,,,
38.2031250000,4,-0.0132002803,,,
38.2187500000,4,0.2226181030,,,
38.2343750000,4,0.3444556892,,,
38.2500000000,4,0.3118439019,,,
38.2656250000,4,0.1316332966,,,
38.2812500000,4,-0.1077122986,,,
38.2968750000,4,-0.3157969117,,,
38.3125000000,4,-0.4026126862,,,
38.3281250000,4,-0.3613038063,,,
38.3437500000,4,-0.2437061965,,,
38.3593750000,4,-0.1484460980,,,
38.3750000000,4,-0.1557879001,,,
38.3906250000,4,-0.2731986046,,,
38.4062500000,4,-0.4378834069,,,
38.4218750000,4,-0.5484480858,,,
38.4375000000,4,-0.5240368843,,,
38.4531250000,4,-0.3361850083,,,
38.4687500000,4,-0.0490264893,,,
38.4843750000,4,0.2341217995,,,
38.5000000000,4,0.4284053147,,,
38.5156250000,4,0.4844456017,,,
38.5312500000,4,0.4527029991,,,
38.5468750000,4,0.4260711968,,,
38.5625000000,4,0.5065845847,,,
38.5781250000,4,0.7316632271,,,
38.5937500000,4,1.0380020142,,,
38.6093750000,4,1.2984429598,,,
38.6250000000,4,1.3683110476,,,
38.6406250000,4,1.1659940481,,,
38.6562500000,4,0.7187060714,,,
38.6718750000,4,0.1447840035,,,
38.6875000000,4,-0.4009856880,,,
38.7031250000,4,-0.7984920144,,,
38.7187500000,4,-1.0154479742,,,
38.7343750000,4,-1.1039919853,,,
38.7500000000,4,-1.1318210363,,,
38.7656250000,4,-1.1700919867,,,
38.7812500000,4,-1.2171659470,,,
38.7968750000,4,-1.2552560568,,,
38.8125000000,4,-1.2422109842,,,
38.8281250000,4,-1.1805599928,,,
38.8437500000,4,-1.0788680315,,,
38.8593750000,4,-0.9584674835,,,
38.8750000000,4,-0.8231039047,,,
38.8906250000,4,-0.6386590004,,,
38.9062500000,4,-0.3648610115,,,
38.9218750000,4,0.0137143098,,,
38.9375000000,4,0.4379963875,,,
38.9531250000,4,0.8014730811,,,
38.9687500000,4,0.9695330262,,,
38.9843750000,4,0.8663082123,,,
39.0000000000,4,0.5368937850,,,
39.0156250000,4,0.1276406944,,,
39.0312500000,4,-0.1708673984,,,
39.0468750000,4,-0.2300868034,,,
39.0625000000,4,-0.0485944711,,,
39.0781250000,4,0.2484488040,,,
39.0937500000,4,0.4891152084,,,
39.1093750000,4,0.5465298295,,,
39.1250000000,4,0.4007106125,,,
39.1406250000,4,0.1464457959,,,
39.1562500000,4,-0.0613431893,,,
39.1718750000,4,-0.0973224565,,,
39.1875000000,4,0.0824084282,,,
39.2031250000,4,0.4294185936,,,
39.2187500000,4,0.8367280960,,,
39.2343750000,4,1.1704299450,,,
39.2500000000,4,1.3428629637,,,
39.2656250000,4,1.3082690239,,,
39.2812500000,4,1.0968470573,,,
39.2968750000,4,0.7776660919,,,
39.3125000000,4,0.4539656937,,,
39.3281250000,4,0.2016797066,,,
39.3437500000,4,0.0432710610,,,
39.3593750000,4,-0.0490298308,,,
39.3750000000,4,-0.1243958026,,,
39.3906250000,4,-0.2039331943,,,
39.4062500000,4,-0.2414107025,,,
39.4218750000,4,-0.1572694927,,,
39.4375000000,4,0.0957474709,,,
39.4531250000,4,0.4814400971,,,
39.4687500000,4,0.8569654822,,,
39.4843750000,4,1.0428789854,,,
39.5000000000,4,0.9134964943,,,
39.5156250000,4,0.4714869857,,,
39.5312500000,4,-0.1477465928,,,
39.5468750000,4,-0.7371172905,,,
39.5625000000,4,-1.1174559593,,,
39.5781250000,4,-1.2300750017,,,
39.5937500000,4,-1.1413760185,,,
39.6093750000,4,-0.9777293205,,,
39.6250000000,4,-0.8635572791,,,
39.6406250000,4,-0.8521894813,,,
39.6562500000,4,-0.9287310243,,,
39.6718750000,4,-1.0333620310,,,
39.6875000000,4,-1.0891519785,,,
39.7031250000,4,-1.0419009924,,,
39.7187500000,4,-0.8667259216,,,
39.7343750000,4,-0.5894374847,,,
39.7500000000,4,-0.2651824951,,,
39.7656250000,4,0.0317754708,,,
39.7812500000,4,0.2537955940,,,
39.7968750000,4,0.3888759911,,,
39.8125000000,4,0.4653854072,,,
39.8281250000,4,0.5292320251,,,
39.8437500000,4,0.6255897880,,,
39.8593750000,4,0.7572755814,,,
39.8750000000,4,0.8865175247,,,
39.8906250000,4,0.9539061189,,,
39.9062500000,4,0.9130386710,,,
39.9218750000,4,0.7615047097,,,
39.9375000000,4,0.5568357110,,,
39.9531250000,4,0.3898335099,,,
39.9687500000,4,0.3259254098,,,
39.9843750000,4,0.3824053109,,,
40.0000000000,5,0.4966860116,,,
40.0156250000,5,0.5743923187,,,
40.0312500000,5,0.5260158181,,,
40.0468750000,5,0.3286066055,,,
40.0625000000,5,0.0501732789,,,
40.0781250000,5,-0.1864071041,,,
40.0937500000,5,-0.2754693031,,,
40.1093750000,5,-0.1954383999,,,
40.1250000000,5,-0.0292921104,,,
40.1406250000,5,0.1012839973,,,
40.1562500000,5,0.1053213999,,,
40.1718750000,5,-0.0202632006,,,
40.1875000000,5,-0.1957941055,,,
40.2031250000,5,-0.3255648911,,,
40.2187500000,5,-0.3513621986,,,
40.2343750000,5,-0.2902961075,,,
40.2500000000,5,-0.2082815021,,,
40.2656250000,5,-0.1862493008,,,
40.2812500000,5,-0.2706651986,,,
40.2968750000,5,-0.4406295121,,,
40.3125000000,5,-0.6382756233,,,
40.3281250000,5,-0.8008751869,,,
40.3437500000,5,-0.8716855049,,,
40.3593750000,5,-0.8295549750,,,
40.3750000000,5,-0.6806188226,,,
40.3906250000,5,-0.4566827118,,,
40.4062500000,5,-0.2038255036,,,
40.4218750000,5,0.0198059101,,,
40.4375000000,5,0.1624626964,,,
40.4531250000,5,0.1987977028,,,
40.4687500000,5,0.1377106011,,,
40.4843750000,5,0.0261197109,,,
40.5000000000,5,-0.0717024803,,,
40.5156250000,5,-0.0865502432,,,
40.5312500000,5,-0.0011510850,,,
40.5468750000,5,0.1574186981,,,
40.5625000000,5,0.3046436012,,,
40.5781250000,5,0.3604454994,,,
40.5937500000,5,0.2870616913,,,
40.6093750000,5,0.1282372028,,,
40.6250000000,5,-0.0401587486,,,
40.6406250000,5,-0.1386304051,,,
40.6562500000,5,-0.1599617004,,,
40.6718750000,5,-0.1482591927,,,
40.6875000000,5,-0.1445579976,,,
40.7031250000,5,-0.1489944011,,,
40.7187500000,5,-0.1080140993,,,
40.7343750000,5,0.0226965006,,,
40.7500000000,5,0.2201814950,,,
40.7656250000,5,0.3794761002,,,
40.7812500000,5,0.3710752130,,,
40.7968750000,5,0.1536937058,,,
40.8125000000,5,-0.1811767071,,,
40.8281250000,5,-0.4622679055,,,
40.8437500000,5,-0.5381531715,,,
40.8593750000,5,-0.3756180108,,,
40.8750000000,5,-0.0894837379,,,
40.8906250000,5,0.1351108998,,,
40.9062500000,5,0.1631079018,,,
40.9218750000,5,-0.0168571491,,,
40.9375000000,5,-0.3156943023,,,
40.9531250000,5,-0.6074213982,,,
40.9687500000,5,-0.8074908257,,,
40.9843750000,5,-0.9009171128,,,
41.0000000000,5,-0.9184337258,,,
41.0156250000,5,-0.8760461807,,,
41.0312500000,5,-0.7717638016,,,
41.0468750000,5,-0.5816360116,,,
41.0625000000,5,-0.3032413125,,,
41.0781250000,5,0.0279035605,,,
41.0937500000,5,0.3431687057,,,
41.1093750000,5,0.5972561836,,,
41.1250000000,5,0.7585731149,,,
41.1406250000,5,0.8495864868,,,
41.1562500000,5,0.8893247247,,,
41.1718750000,5,0.8878775239,,,
41.1875000000,5,0.8327422142,,,
41.2031250000,5,0.6965498924,,,
41.2187500000,5,0.4662188888,,,
41.2343750000,5,0.1669192016,,,
41.2500000000,5,-0.1476278007,,,
41.2656250000,5,-0.4130634964,,,
41.2812500000,5,-0.5774397850,,,
41.2968750000,5,-0.6187735200,,,
41.3125000000,5,-0.5311893821,,,
41.3281250000,5,-0.3372477889,,,
41.3437500000,5,-0.0775294304,,,
41.3593750000,5,0.2137084007,,,
41.3750000000,5,0.4935187995,,,
41.3906250000,5,0.7236161232,,,
41.4062500000,5,0.8876485825,,,
41.4218750000,5,0.9863051772,,,
41.4375000000,5,1.0388619900,,,
41.4531250000,5,1.0447160006,,,
41.4687500000,5,0.9779071808,,,
41.4843750000,5,0.8163948059,,,
41.5000000000,5,0.5438904762,,,
41.5156250000,5,0.2053623050,,,
41.5312500000,5,-0.1266245991,,,
41.5468750000,5,-0.3648461998,,,
41.5625000000,5,-0.4630280137,,,
41.5781250000,5,-0.4346733093,,,
41.5937500000,5,-0.3365631104,,,
41.6093750000,5,-0.2272033989,,,
41.6250000000,5,-0.1378584057,,,
41.6406250000,5,-0.0686397627,,,
41.6562500000,5,0.0065116882,,,
41.6718750000,5,0.0925607681,,,
41.6875000000,5,0.1651324928,,,
41.7031250000,5,0.1667061001,,,
41.7187500000,5,0.0322032012,,,
41.7343750000,5,-0.2544403076,,,
41.7500000000,5,-0.6542500854,,,
41.7656250000,5,-1.0671629906,,,
41.7812500000,5,-1.3709050417,,,
41.7968750000,5,-1.4652539492,,,
41.8125000000,5,-1.3250730038,,,
41.8281250000,5,-1.0022850037,,,
41.8437500000,5,-0.6136236191,,,
41.8593750000,5,-0.2722077072,,,
41.8750000000,5,-0.0617351495,,,
41.8906250000,5,-0.0103321103,,,
41.9062500000,5,-0.0645752028,,,
41.9218750000,5,-0.1547046006,,,
41.9375000000,5,-0.1865129024,,,
41.9531250000,5,-0.1135611981,,,
41.9687500000,5,0.0592670403,,,
41.9843750000,5,0.2775625885,,,
42.0000000000,5,0.4583635032,,,
42.0156250000,5,0.5409383774,,,
42.0312500000,5,0.4841989875,,,
42.0468750000,5,0.3166326880,,,
42.0625000000,5,0.0942258835,,,
42.0781250000,5,-0.1172166020,,,
42.0937500000,5,-0.2828373909,,,
42.1093750000,5,-0.3881021142,,,
42.1250000000,5,-0.4280329049,,,
42.1406250000,5,-0.3956161141,,,
42.1562500000,5,-0.2635850906,,,
42.1718750000,5,-0.0193118993,,,
42.1875000000,5,0.3262143135,,,
42.2031250000,5,0.7013602257,,,
42.2187500000,5,1.0064350367,,,
42.2343750000,5,1.1564970016,,,
42.2500000000,5,1.1197769642,,,
42.2656250000,5,0.9376559258,,,
42.2812500000,5,0.6989297867,,,
42.2968750000,5,0.5073422790,,,
42.3125000000,5,0.4220266044,,,
42.3281250000,5,0.4303613007,,,
42.3437500000,5,0.4623995125,,,
42.3593750000,5,0.4507656097,,,
42.3750000000,5,0.3526459038,,,
42.3906250000,5,0.1657485962,,,
42.4062500000,5,-0.0657138824,,,
42.4218750000,5,-0.3102303147,,,
42.4375000000,5,-0.5414056778,,,
42.4531250000,5,-0.7559180260,,,
42.4687500000,5,-0.9234352112,,,
42.4843750000,5,-0.9949827194,,,
42.5000000000,5,-0.9127249718,,,
42.5156250000,5,-0.6473817825,,,
42.5312500000,5,-0.2591147125,,,
42.5468750000,5,0.1154842004,,,
42.5625000000,5,0.2987666130,,,
42.5781250000,5,0.2097321004,,,
42.5937500000,5,-0.1085548028,,,
42.6093750000,5,-0.4711369872,,,
42.6250000000,5,-0.6633638740,,,
42.6406250000,5,-0.5404114723,,,
42.6562500000,5,-0.1200724021,,,
42.6718750000,5,0.4339509010,,,
42.6875000000,5,0.9140400887,,,
42.7031250000,5,1.1660779715,,,
42.7187500000,5,1.1542470455,,,
42.7343750000,5,0.9496511817,,,
42.7500000000,5,0.6360105872,,,
42.7656250000,5,0.2692089081,,,
42.7812500000,5,-0.1317061931,,,
42.7968750000,5,-0.5580977798,,,
42.8125000000,5,-0.9372457862,,,
42.8281250000,5,-1.1628459692,,,
42.8437500000,5,-1.1422029734,,,
42.8593750000,5,-0.8602933884,,,
42.8750000000,5,-0.4299044907,,,
42.8906250000,5,-0.0365824699,,,
42.9062500000,5,0.1583867073,,,
42.9218750000,5,0.0982518196,,,
42.9375000000,5,-0.1331066936,,,
42.9531250000,5,-0.3650574982,,,
42.9687500000,5,-0.4224323928,,,
42.9843750000,5,-0.2087011039,,,
43.0000000000,5,0.2373033017,,,
43.0156250000,5,0.7663884163,,,
43.0312500000,5,1.1880520582,,,
43.0468750000,5,1.3608169556,,,
43.0625000000,5,1.2254810333,,,
43.0781250000,5,0.8474044800,,,
43.0937500000,5,0.3495784104,,,
43.1093750000,5,-0.1267966926,,,
43.1250000000,5,-0.4767541885,,,
43.1406250000,5,-0.6444429755,,,
43.1562500000,5,-0.6185259819,,,
43.1718750000,5,-0.4217228889,,,
43.1875000000,5,-0.1183971986,,,
43.2031250000,5,0.1953268051,,,
43.2187500000,5,0.3938375115,,,
43.2343750000,5,0.3806338012,,,
43.2500000000,5,0.1423034966,,,
43.2656250000,5,-0.2225570977,,,
43.2812500000,5,-0.5168867111,,,
43.2968750000,5,-0.5722299218,,,
43.3125000000,5,-0.3059988022,,,
43.3281250000,5,0.1841206998,,,
43.3437500000,5,0.7058830261,,,
43.3593750000,5,1.0683649778,,,
43.3750000000,5,1.2000349760,,,
43.3906250000,5,1.1604820490,,,
43.4062500000,5,1.0752359629,,,
43.4218750000,5,1.0325200558,,,
43.4375000000,5,1.0301599503,,,
43.4531250000,5,0.9767007828,,,
43.4687500000,5,0.7780209184,,,
43.4843750000,5,0.4119062126,,,
43.5000000000,5,-0.0553331412,,,
43.5156250000,5,-0.5040932298,,,
43.5312500000,5,-0.8218740821,,,
43.5468750000,5,-0.9622216225,,,
43.5625000000,5,-0.9492778778,,,
43.5781250000,5,-0.8450006843,,,
43.5937500000,5,-0.7114471793,,,
43.6093750000,5,-0.5762100220,,,
43.6250000000,5,-0.4466800988,,,
43.6406250000,5,-0.3151183128,,,
43.6562500000,5,-0.1862916946,,,
43.6718750000,5,-0.0663452074,,,
43.6875000000,5,0.0337758102,,,
43.7031250000,5,0.1136559993,,,
43.7187500000,5,0.1838002056,,,
43.7343750000,5,0.2473454028,,,
43.7500000000,5,0.3044990897,,,
43.7656250000,5,0.3323692977,,,
43.7812500000,5,0.3037782013,,,
43.7968750000,5,0.1695723981,,,
43.8125000000,5,-0.0770726204,,,
43.8281250000,5,-0.4210796058,,,
43.8437500000,5,-0.7751845717,,,
43.8593750000,5,-1.0267829895,,,
43.8750000000,5,-1.0693709850,,,
43.8906250000,5,-0.8540863991,,,
43.9062500000,5,-0.4262981117,,,
43.9218750000,5,0.1065964997,,,
43.9375000000,5,0.6010612845,,,
43.9531250000,5,0.9477763176,,,
43.9687500000,5,1.0966750383,,,
43.9843750000,5,1.0575259924,,,
44.0000000000,5,0.8612499237,,,
44.0156250000,5,0.5333858132,,,
44.0312500000,5,0.1053524017,,,
44.0468750000,5,-0.3722128868,,,
44.0625000000,5,-0.7974873185,,,
44.0781250000,5,-1.0382319689,,,
44.0937500000,5,-0.9944620132,,,
44.1093750000,5,-0.6541780829,,,
44.1250000000,5,-0.1308279037,,,
44.1406250000,5,0.3817735016,,,
44.1562500000,5,0.6941223145,,,
44.1718750000,5,0.7339438796,,,
44.1875000000,5,0.5532168746,,,
44.2031250000,5,0.2821235955,,,
44.2187500000,5,0.0455369912,,,
44.2343750000,5,-0.1184225008,,,
44.2500000000,5,-0.2538757026,,,
44.2656250000,5,-0.4183016121,,,
44.2812500000,5,-0.6133245826,,,
44.2968750000,5,-0.7670797706,,,
44.3125000000,5,-0.7728242874,,,
44.3281250000,5,-0.5711464882,,,
44.3437500000,5,-0.1975225955,,,
44.3593750000,5,0.2170310020,,,
44.3750000000,5,0.5332807899,,,
44.3906250000,5,0.6652430892,,,
44.4062500000,5,0.6128435135,,,
44.4218750000,5,0.4555726051,,,
44.4375000000,5,0.2680830956,,,
44.4531250000,5,0.0975728035,,,
44.4687500000,5,-0.0461907387,,,
44.4843750000,5,-0.1636147052,,,
44.5000000000,5,-0.2524828911,,,
44.5156250000,5,-0.3295178115,,,
44.5312500000,5,-0.4421234131,,,
44.5468750000,5,-0.6699758172,,,
44.5625000000,5,-1.0684930086,,,
44.5781250000,5,-1.5960450172,,,
44.5937500000,5,-2.1117460728,,,
44.6093750000,5,-2.4126799107,,,
44.6250000000,5,-2.3614139557,,,
44.6406250000,5,-1.9540350437,,,
44.6562500000,5,-1.3275020123,,,
44.6718750000,5,-0.6634215713,,,
44.6875000000,5,-0.0833435133,,,
44.7031250000,5,0.4059099853,,,
44.7187500000,5,0.8570824265,,,
44.7343750000,5,1.2851500511,,,
44.7500000000,5,1.5987210274,,,
44.7656250000,5,1.6320259571,,,
44.7812500000,5,1.2683249712,,,
44.7968750000,5,0.5487728119,,,
44.8125000000,5,-0.3045181930,,,
44.8281250000,5,-1.0043330193,,,
44.8437500000,5,-1.3251689672,,,
44.8593750000,5,-1.2401330471,,,
44.8750000000,5,-0.8746966720,,,
44.8906250000,5,-0.4300918877,,,
44.9062500000,5,-0.0532236099,,,
44.9218750000,5,0.2121067047,,,
44.9375000000,5,0.3967972100,,,
44.9531250000,5,0.5397071838,,,
44.9687500000,5,0.6332706809,,,
44.9843750000,5,0.6324543953,,,
45.0000000000,5,0.4965753853,,,
45.0156250000,5,0.2537131011,,,
45.0312500000,5,-0.0129523296,,,
45.0468750000,5,-0.2055148929,,,
45.0625000000,5,-0.2606920898,,,
45.0781250000,5,-0.1924051940,,,
45.0937500000,5,-0.0745081902,,,
45.1093750000,5,0.0165648498,,,
45.1250000000,5,0.0561685599,,,
45.1406250000,5,0.0600395203,,,
45.1562500000,5,0.0698175430,,,
45.1718750000,5,0.1177135035,,,
45.1875000000,5,0.1856852025,,,
45.2031250000,5,0.2542825043,,,
45.2187500000,5,0.2874526978,,,
45.2343750000,5,0.2817530930,,,
45.2500000000,5,0.2546061873,,,
45.2656250000,5,0.2388902009,,,
45.2812500000,5,0.2554382980,,,
45.2968750000,5,0.2906698883,,,
45.3125000000,5,0.3153361976,,,
45.3281250000,5,0.2938928902,,,
45.3437500000,5,0.2065076977,,,
45.3593750000,5,0.0725798607,,,
45.3750000000,5,-0.0580935515,,,
45.3906250000,5,-0.1226788014,,,
45.4062500000,5,-0.0474214591,,,
45.4218750000,5,0.1778721958,,,
45.4375000000,5,0.5269517899,,,
45.4531250000,5,0.8996315002,,,
45.4687500000,5,1.1950039864,,,
45.4843750000,5,1.3225690126,,,
45.5000000000,5,1.2516100407,,,
45.5156250000,5,1.0414839983,,,
45.5312500000,5,0.7962278724,,,
45.5468750000,5,0.6199588776,,,
45.5625000000,5,0.5708169937,,,
45.5781250000,5,0.6219831109,,,
45.5937500000,5,0.6789907813,,,
45.6093750000,5,0.6263213158,,,
45.6250000000,5,0.4006290138,,,
45.6406250000,5,0.0185709000,,,
45.6562500000,5,-0.4230150878,,,
45.6718750000,5,-0.7847166061,,,
45.6875000000,5,-0.9668918252,,,
45.7031250000,5,-0.9600877762,,,
45.7187500000,5,-0.8497943878,,,
45.7343750000,5,-0.7594537735,,,
45.7500000000,5,-0.7833538055,,,
45.7656250000,5,-0.9281759262,,,
45.7812500000,5,-1.1001579762,,,
45.7968750000,5,-1.1802020073,,,
45.8125000000,5,-1.0939400196,,,
45.8281250000,5,-0.8542881012,,,
45.8437500000,5,-0.5740556717,,,
45.8593750000,5,-0.3599734008,,,
45.8750000000,5,-0.2857832909,,,
45.8906250000,5,-0.3454289138,,,
45.9062500000,5,-0.4607295990,,,
45.9218750000,5,-0.5560637116,,,
45.9375000000,5,-0.5841503143,,,
45.9531250000,5,-0.5503898263,,,
45.9687500000,5,-0.4600009918,,,
45.9843750000,5,-0.3251486123,,,
46.0000000000,5,-0.1004237980,,,
46.0156250000,5,0.2520889938,,,
46.0312500000,5,0.7457299232,,,
46.0468750000,5,1.3039569855,,,
46.0625000000,5,1.7754199505,,,
46.0781250000,5,1.9979790449,,,
46.0937500000,5,1.8732899427,,,
46.1093750000,5,1.4462900162,,,
46.1250000000,5,0.8752747178,,,
46.1406250000,5,0.3911308944,,,
46.1562500000,5,0.1511545032,,,
46.1718750000,5,0.2026062012,,,
46.1875000000,5,0.4850358963,,,
46.2031250000,5,0.8624892235,,,
46.2187500000,5,1.2113840580,,,
46.2343750000,5,1.4631470442,,,
46.2500000000,5,1.6107209921,,,
46.2656250000,5,1.6848829985,,,
46.2812500000,5,1.7258379459,,,
46.2968750000,5,1.7573280334,,,
46.3125000000,5,1.7843240499,,,
46.3281250000,5,1.7806010246,,,
46.3437500000,5,1.6922709942,,,
46.3593750000,5,1.4500989914,,,
46.3750000000,5,0.9908108711,,,
46.3906250000,5,0.3118605912,,,
46.4062500000,5,-0.5229187012,,,
46.4218750000,5,-1.3647209406,,,
46.4375000000,5,-2.0634050369,,,
46.4531250000,5,-2.4917640686,,,
46.4687500000,5,-2.5986440182,,,
46.4843750000,5,-2.4266009331,,,
46.5000000000,5,-2.0581710339,,,
46.5156250000,5,-1.6230499744,,,
46.5312500000,5,-1.2408599854,,,
46.5468750000,5,-1.0027350187,,,
46.5625000000,5,-0.9238644242,,,
46.5781250000,5,-0.9511417747,,,
46.5937500000,5,-0.9767876267,,,
46.6093750000,5,-0.8935213089,,,
46.6250000000,5,-0.6575226784,,,
46.6406250000,5,-0.2853513062,,,
46.6562500000,5,0.1605610996,,,
46.6718750000,5,0.6089487076,,,
46.6875000000,5,1.0059200525,,,
46.7031250000,5,1.3041950464,,,
46.7187500000,5,1.4542510509,,,
46.7343750000,5,1.4234700203,,,
46.7500000000,5,1.2006239891,,,
46.7656250000,5,0.8373246193,,,
46.7812500000,5,0.4448933899,,,
46.7968750000,5,0.1462212056,,,
46.8125000000,5,0.0186724700,,,
46.8281250000,5,0.0492091216,,,
46.8437500000,5,0.1557206959,,,
46.8593750000,5,0.2387876958,,,
46.8750000000,5,0.2224435955,,,
46.8906250000,5,0.0941686630,,,
46.9062500000,5,-0.1295571029,,,
46.9218750000,5,-0.4142994881,,,
46.9375000000,5,-0.7313613892,,,
46.9531250000,5,-1.0312130451,,,
46.9687500000,5,-1.2368119955,,,
46.9843750000,5,-1.2490160465,,,
47.0000000000,5,-0.9899458885,,,
47.0156250000,5,-0.4651469886,,,
47.0312500000,5,0.2310432941,,,
47.0468750000,5,0.9190006256,,,
47.0625000000,5,1.4287379980,,,
47.0781250000,5,1.6303999424,,,
47.0937500000,5,1.4932529926,,,
47.1093750000,5,1.0800189972,,,
47.1250000000,5,0.5161452293,,,
47.1406250000,5,-0.0569229089,,,
47.1562500000,5,-0.5047097206,,,
47.1718750000,5,-0.7384647727,,,
47.1875000000,5,-0.7444949150,,,
47.2031250000,5,-0.5664734840,,,
47.2187500000,5,-0.3108110130,,,
47.2343750000,5,-0.0874051973,,,
47.2500000000,5,0.0098266602,,,
47.2656250000,5,-0.0602650605,,,
47.2812500000,5,-0.2838335037,,,
47.2968750000,5,-0.5824409127,,,
47.3125000000,5,-0.8535866737,,,
47.3281250000,5,-1.0202269554,,,
47.3437500000,5,-1.0544710159,,,
47.3593750000,5,-0.9876965880,,,
47.3750000000,5,-0.8789916039,,,
47.3906250000,5,-0.7879291177,,,
47.4062500000,5,-0.7227330208,,,
47.4218750000,5,-0.6495910287,,,
47.4375000000,5,-0.5322542191,,,
47.4531250000,5,-0.3591242135,,,
47.4687500000,5,-0.1772933006,,,
47.4843750000,5,-0.0576062202,,,
47.5000000000,5,-0.0411653481,,,
47.5156250000,5,-0.1091447026,,,
47.5312500000,5,-0.1824817955,,,
47.5468750000,5,-0.1678633988,,,
47.5625000000,5,-0.0168743096,,,
47.5781250000,5,0.2316074073,,,
47.5937500000,5,0.4663462937,,,
47.6093750000,5,0.5685582161,,,
47.6250000000,5,0.4865665138,,,
47.6406250000,5,0.2543097138,,,
47.6562500000,5,-0.0205102004,,,
47.6718750000,5,-0.2182808071,,,
47.6875000000,5,-0.2772417068,,,
47.7031250000,5,-0.1981839985,,,
47.7187500000,5,-0.0371785201,,,
47.7343750000,5,0.1553702056,,,
47.7500000000,5,0.3511205018,,,
47.7656250000,5,0.5503792763,,,
47.7812500000,5,0.7404270172,,,
47.7968750000,5,0.8769087791,,,
47.8125000000,5,0.8976063728,,,
47.8281250000,5,0.7272285819,,,
47.8437500000,5,0.3402389884,,,
47.8593750000,5,-0.2068728954,,,
47.8750000000,5,-0.7743421197,,,
47.8906250000,5,-1.1888769865,,,
47.9062500000,5,-1.3107919693,,,
47.9218750000,5,-1.0933619738,,,
47.9375000000,5,-0.5987061858,,,
47.9531250000,5,0.0187301598,,,
47.9687500000,5,0.5633754730,,,
47.9843750000,5,0.8691539764,,,
48.0000000000,6,0.8562340736,,,
48.0156250000,6,0.5461030006,,,
48.0312500000,6,0.0534362793,,,
48.0468750000,6,-0.4666203856,,,
48.0625000000,6,-0.8760113716,,,
48.0781250000,6,-1.0883760452,,,
48.0937500000,6,-1.0876280069,,,
48.1093750000,6,-0.9238439202,,,
48.1250000000,6,-0.6755170822,,,
48.1406250000,6,-0.4119643867,,,
48.1562500000,6,-0.1764421016,,,
48.1718750000,6,0.0272927303,,,
48.1875000000,6,0.2295736969,,,
48.2031250000,6,0.4642738998,,,
48.2187500000,6,0.7231392860,,,
48.2343750000,6,0.9549365044,,,
48.2500000000,6,1.0566250086,,,
48.2656250000,6,0.9306148887,,,
48.2812500000,6,0.5428838730,,,
48.2968750000,6,-0.0604143105,,,
48.3125000000,6,-0.7359055877,,,
48.3281250000,6,-1.3122040033,,,
48.3437500000,6,-1.6581490040,,,
48.3593750000,6,-1.7215089798,,,
48.3750000000,6,-1.5427949429,,,
48.3906250000,6,-1.1939660311,,,
48.4062500000,6,-0.7586659789,,,
48.4218750000,6,-0.3081927001,,,
48.4375000000,6,0.0999054909,,,
48.4531250000,6,0.4081029892,,,
48.4687500000,6,0.5648880005,,,
48.4843750000,6,0.5501493812,,,
48.5000000000,6,0.4058785141,,,
48.5156250000,6,0.2272592038,,,
48.5312500000,6,0.1557150036,,,
48.5468750000,6,0.2902340889,,,
48.5625000000,6,0.6443161964,,,
48.5781250000,6,1.1000289917,,,
48.5937500000,6,1.4706629515,,,
48.6093750000,6,1.5685080290,,,
48.6250000000,6,1.3027100563,,,
48.6406250000,6,0.7288985252,,,
48.6562500000,6,0.0157003403,,,
48.6718750000,6,-0.6250615120,,,
48.6875000000,6,-1.0518239737,,,
48.7031250000,6,-1.2101550102,,,
48.7187500000,6,-1.1481590271,,,
48.7343750000,6,-0.9315280914,,,
48.7500000000,6,-0.5988945961,,,
48.7656250000,6,-0.1608915031,,,
48.7812500000,6,0.3717184067,,,
48.7968750000,6,0.9161725044,,,
48.8125000000,6,1.3249100447,,,
48.8281250000,6,1.4241540432,,,
48.8437500000,6,1.1291069984,,,
48.8593750000,6,0.5079001784,,,
48.8750000000,6,-0.2322025001,,,
48.8906250000,6,-0.8360018730,,,
48.9062500000,6,-1.1371040344,,,
48.9218750000,6,-1.1348459721,,,
48.9375000000,6,-0.9745311737,,,
48.9531250000,6,-0.8299931884,,,
48.9687500000,6,-0.7916517258,,,
48.9843750000,6,-0.8161901832,,,
49.0000000000,6,-0.7758479118,,,
49.0156250000,6,-0.5715656281,,,
49.0312500000,6,-0.2030306011,,,
49.0468750000,6,0.2163167000,,,
49.0625000000,6,0.5489205718,,,
49.0781250000,6,0.7167853713,,,
49.0937500000,6,0.7579020858,,,
49.1093750000,6,0.7884482741,,,
49.1250000000,6,0.9149007797,,,
49.1406250000,6,1.1420999765,,,
49.1562500000,6,1.3598519564,,,
49.1718750000,6,1.4194159508,,,
49.1875000000,6,1.2285890579,,,
49.2031250000,6,0.8508868217,,,
49.2187500000,6,0.4546827972,,,
49.2343750000,6,0.2322340012,,,
49.2500000000,6,0.2851805985,,,
49.2656250000,6,0.5547780991,,,
49.2812500000,6,0.8597403169,,,
49.2968750000,6,0.9871777892,,,
49.3125000000,6,0.8075823784,,,
49.3281250000,6,0.3382329941,,,
49.3437500000,6,-0.2661347091,,,
49.3593750000,6,-0.7984799743,,,
49.3750000000,6,-1.1126769781,,,
49.3906250000,6,-1.1739710569,,,
49.4062500000,6,-1.0608500242,,,
49.4218750000,6,-0.8918036819,,,
49.4375000000,6,-0.7525538802,,,
49.4531250000,6,-0.6620479226,,,
49.4687500000,6,-0.5897812843,,,
49.4843750000,6,-0.5011414886,,,
49.5000000000,6,-0.3893370926,,,
49.5156250000,6,-0.2838501930,,,
49.5312500000,6,-0.1984286010,,,
49.5468750000,6,-0.1113666967,,,
49.5625000000,6,0.0325527191,,,
49.5781250000,6,0.2802695930,,,
49.5937500000,6,0.6125721931,,,
49.6093750000,6,0.9234185219,,,
49.6250000000,6,1.0750039816,,,
49.6406250000,6,0.9747195244,,,
49.6562500000,6,0.6447740197,,,
49.6718750000,6,0.2064085007,,,
49.6875000000,6,-0.1819849014,,,
49.7031250000,6,-0.3923411071,,,
49.7187500000,6,-0.3877739906,,,
49.7343750000,6,-0.2078505009,,,
49.7500000000,6,0.0700254366,,,
49.7656250000,6,0.3704696000,,,
49.7812500000,6,0.6289538741,,,
49.7968750000,6,0.8069881797,,,
49.8125000000,6,0.8755583763,,,
49.8281250000,6,0.8119822145,,,
49.8437500000,6,0.6229286194,,,
49.8593750000,6,0.3422173858,,,
49.8750000000,6,0.0365896188,,,
49.8906250000,6,-0.2115059048,,,
49.9062500000,6,-0.3435659111,,,
49.9218750000,6,-0.3335342109,,,
49.9375000000,6,-0.1945977062,,,
49.9531250000,6,0.0199289303,,,
49.9687500000,6,0.2251420021,,,
49.9843750000,6,0.3331632912,,,
50.0000000000,6,0.3042401969,,,
50.0156250000,6,0.1498117000,,,
50.0312500000,6,-0.0581922494,,,
50.0468750000,6,-0.2279161960,,,
50.0625000000,6,-0.3020057976,,,
50.0781250000,6,-0.2873167992,,,
50.0937500000,6,-0.2208213955,,,
50.1093750000,6,-0.1598296016,,,
50.1250000000,6,-0.1213484034,,,
50.1406250000,6,-0.1027074009,,,
50.1562500000,6,-0.0864415169,,,
50.1718750000,6,-0.0678668022,,,
50.1875000000,6,-0.0690860674,,,
50.2031250000,6,-0.1102214009,,,
50.2187500000,6,-0.1847905964,,,
50.2343750000,6,-0.2598871887,,,
50.2500000000,6,-0.2827019989,,,
50.2656250000,6,-0.1937198937,,,
50.2812500000,6,0.0162138902,,,
50.2968750000,6,0.2986231148,,,
50.3125000000,6,0.5822886825,,,
50.3281250000,6,0.7849640846,,,
50.3437500000,6,0.8627243042,,,
50.3593750000,6,0.8002253175,,,
50.3750000000,6,0.6153197289,,,
50.3906250000,6,0.3607673943,,,
50.4062500000,6,0.0872392729,,,
50.4218750000,6,-0.1584801972,,,
50.4375000000,6,-0.3438706100,,,
50.4531250000,6,-0.4560098946,,,
50.4687500000,6,-0.5002809167,,,
50.4843750000,6,-0.4896894097,,,
50.5000000000,6,-0.4227623940,,,
50.5156250000,6,-0.3092656136,,,
50.5312500000,6,-0.1689310074,,,
50.5468750000,6,-0.0423164405,,,
50.5625000000,6,0.0213408507,,,
50.5781250000,6,-0.0282568894,,,
50.5937500000,6,-0.1945195049,,,
50.6093750000,6,-0.4562864006,,,
50.6250000000,6,-0.7335606217,,,
50.6406250000,6,-0.9296650887,,,
50.6562500000,6,-0.9743899703,,,
50.6718750000,6,-0.8429871202,,,
50.6875000000,6,-0.5777192116,,,
50.7031250000,6,-0.2676134109,,,
50.7187500000,6,-0.0044722562,,,
50.7343750000,6,0.1560291946,,,
50.7500000000,6,0.2074857056,,,
50.7656250000,6,0.2125740051,,,
50.7812500000,6,0.2692652047,,,
50.7968750000,6,0.4342904091,,,
50.8125000000,6,0.7137970924,,,
50.8281250000,6,1.0388599634,,,
50.8437500000,6,1.3194990158,,,
50.8593750000,6,1.4838509560,,,
50.8750000000,6,1.5173350573,,,
50.8906250000,6,1.4404890537,,,
50.9062500000,6,1.2618240118,,,
50.9218750000,6,0.9491705894,,,
50.9375000000,6,0.4552030861,,,
50.9531250000,6,-0.2208548039,,,
50.9687500000,6,-0.9823107719,,,
50.9843750000,6,-1.6462520361,,,
51.0000000000,6,-2.0200769901,,,
51.0156250000,6,-2.0009660721,,,
51.0312500000,6,-1.6409889460,,,
51.0468750000,6,-1.1180789471,,,
51.0625000000,6,-0.6324415207,,,
51.0781250000,6,-0.3145337105,,,
51.0937500000,6,-0.1438093036,,,
51.1093750000,6,-0.0270476304,,,
51.1250000000,6,0.1352052987,,,
51.1406250000,6,0.3613666892,,,
51.1562500000,6,0.5766540170,,,
51.1718750000,6,0.6904873848,,,
51.1875000000,6,0.6583284736,,,
51.2031250000,6,0.5133275986,,,
51.2187500000,6,0.3388529122,,,
51.2343750000,6,0.2147974968,,,
51.2500000000,6,0.1526183933,,,
51.2656250000,6,0.1073551029,,,
51.2812500000,6,0.0346713103,,,
51.2968750000,6,-0.0932578966,,,
51.3125000000,6,-0.2357635051,,,
51.3281250000,6,-0.3397325873,,,
51.3437500000,6,-0.3615761101,,,
51.3593750000,6,-0.3037252128,,,
51.3750000000,6,-0.2099132985,,,
51.3906250000,6,-0.1357059032,,,
51.4062500000,6,-0.1097602993,,,
51.4218750000,6,-0.1209620982,,,
51.4375000000,6,-0.1289844960,,,
51.4531250000,6,-0.0994706228,,,
51.4687500000,6,-0.0285396595,,,
51.4843750000,6,0.0656909868,,,
51.5000000000,6,0.1432309002,,,
51.5156250000,6,0.1804066002,,,
51.5312500000,6,0.1658239067,,,
51.5468750000,6,0.1109090000,,,
51.5625000000,6,0.0367088318,,,
51.5781250000,6,-0.0365004502,,,
51.5937500000,6,-0.0800614432,,,
51.6093750000,6,-0.0760097504,,,
51.6250000000,6,-0.0102324504,,,
51.6406250000,6,0.1233062968,,,
51.6562500000,6,0.3053340912,,,
51.6718750000,6,0.4929228127,,,
51.6875000000,6,0.6370478272,,,
51.7031250000,6,0.6956605911,,,
51.7187500000,6,0.6593437195,,,
51.7343750000,6,0.5499315262,,,
51.7500000000,6,0.3989877999,,,
51.7656250000,6,0.2233043015,,,
51.7812500000,6,0.0253415108,,,
51.7968750000,6,-0.2011189014,,,
51.8125000000,6,-0.4287743866,,,
51.8281250000,6,-0.6051964760,,,
51.8437500000,6,-0.6663321853,,,
51.8593750000,6,-0.5739365220,,,
51.8750000000,6,-0.3576498032,,,
51.8906250000,6,-0.1059108004,,,
51.9062500000,6,0.0769147873,,,
51.9218750000,6,0.1262155026,,,
51.9375000000,6,0.0466985703,,,
51.9531250000,6,-0.1014852971,,,
51.9687500000,6,-0.2581902146,,,
51.9843750000,6,-0.4043469131,,,
52.0000000000,6,-0.5649433136,,,
52.0156250000,6,-0.7576746941,,,
52.0312500000,6,-0.9462490082,,,
52.0468750000,6,-1.0348700285,,,
52.0625000000,6,-0.9267501831,,,
52.0781250000,6,-0.6137397289,,,
52.0937500000,6,-0.2033706009,,,
52.1093750000,6,0.1202420965,,,
52.1250000000,6,0.1998438984,,,
52.1406250000,6,-0.0077919960,,,
52.1562500000,6,-0.3834056854,,,
52.1718750000,6,-0.7341309190,,,
52.1875000000,6,-0.8769506812,,,
52.2031250000,6,-0.7430114746,,,
52.2187500000,6,-0.3967342079,,,
52.2343750000,6,0.0007143021,,,
52.2500000000,6,0.2787398994,,,
52.2656250000,6,0.3393921852,,,
52.2812500000,6,0.1773639023,,,
52.2968750000,6,-0.1316494942,,,
52.3125000000,6,-0.4732699096,,,
52.3281250000,6,-0.7514209747,,,
52.3437500000,6,-0.8910365105,,,
52.3593750000,6,-0.8762040138,,,
52.3750000000,6,-0.7272449136,,,
52.3906250000,6,-0.4804244041,,,
52.4062500000,6,-0.1691637039,,,
52.4218750000,6,0.1860332042,,,
52.4375000000,6,0.5650734901,,,
52.4531250000,6,0.9271159172,,,
52.4687500000,6,1.2062189579,,,
52.4843750000,6,1.3377799988,,,
52.5000000000,6,1.2913340330,,,
52.5156250000,6,1.0878089666,,,
52.5312500000,6,0.8103827834,,,
52.5468750000,6,0.5484281182,,,
52.5625000000,6,0.3728646934,,,
52.5781250000,6,0.3114700019,,,
52.5937500000,6,0.3547601998,,,
52.6093750000,6,0.4731236100,,,
52.6250000000,6,0.6326909065,,,
52.6406250000,6,0.7831215858,,,
52.6562500000,6,0.8904395103,,,
52.6718750000,6,0.9148479104,,,
52.6875000000,6,0.8470469117,,,
52.7031250000,6,0.7152628899,,,
52.7187500000,6,0.5875893235,,,
52.7343750000,6,0.5232943892,,,
52.7500000000,6,0.5405349731,,,
52.7656250000,6,0.6111226082,,,
52.7812500000,6,0.6720780730,,,
52.7968750000,6,0.6684250832,,,
52.8125000000,6,0.5752949715,,,
52.8281250000,6,0.3927169144,,,
52.8437500000,6,0.1395978928,,,
52.8593750000,6,-0.1553435028,,,
52.8750000000,6,-0.4555039108,,,
52.8906250000,6,-0.7018446922,,,
52.9062500000,6,-0.8222579956,,,
52.9218750000,6,-0.7668871880,,,
52.9375000000,6,-0.5305923820,,,
52.9531250000,6,-0.1764989048,,,
52.9687500000,6,0.1797904968,,,
52.9843750000,6,0.4242477119,,,
53.0000000000,6,0.4882541001,,,
53.0156250000,6,0.3692918122,,,
53.0312500000,6,0.1260246933,,,
53.0468750000,6,-0.1760901958,,,
53.0625000000,6,-0.4870218933,,,
53.0781250000,6,-0.7828798294,,,
53.0937500000,6,-1.0479700565,,,
53.1093750000,6,-1.2506120205,,,
53.1250000000,6,-1.3522059917,,,
53.1406250000,6,-1.3306900263,,,
53.1562500000,6,-1.1833549738,,,
53.1718750000,6,-0.9521865845,,,
53.1875000000,6,-0.6840196252,,,
53.2031250000,6,-0.4164085090,,,
53.2187500000,6,-0.1507091969,,,
53.2343750000,6,0.1184372976,,,
53.2500000000,6,0.3975329101,,,
53.2656250000,6,0.6671152115,,,
53.2812500000,6,0.8752202988,,,
53.2968750000,6,0.9667270184,,,
53.3125000000,6,0.9121214747,,,
53.3281250000,6,0.7325019836,,,
53.3437500000,6,0.4781028926,,,
53.3593750000,6,0.2030072063,,,
53.3750000000,6,-0.0608751811,,,
53.3906250000,6,-0.2999236882,,,
53.4062500000,6,-0.4874916077,,,
53.4218750000,6,-0.5730680823,,,
53.4375000000,6,-0.4939759076,,,
53.4531250000,6,-0.2249972969,,,
53.4687500000,6,0.1809490025,,,
53.4843750000,6,0.6055008769,,,
53.5000000000,6,0.8985949159,,,
53.5156250000,6,0.9646515846,,,
53.5312500000,6,0.8012670875,,,
53.5468750000,6,0.4866214097,,,
53.5625000000,6,0.1171175987,,,
53.5781250000,6,-0.2471072972,,,
53.5937500000,6,-0.6064506173,,,
53.6093750000,6,-0.9725651741,,,
53.6250000000,6,-1.3221600056,,,
53.6406250000,6,-1.5776729584,,,
53.6562500000,6,-1.6126680374,,,
53.6718750000,6,-1.3625060320,,,
53.6875000000,6,-0.8521782756,,,
53.7031250000,6,-0.2148309052,,,
53.7187500000,6,0.3760009110,,,
53.7343750000,6,0.7730743885,,,
53.7500000000,6,0.9278612137,,,
53.7656250000,6,0.8873574734,,,
53.7812500000,6,0.7506434917,,,
53.7968750000,6,0.6277887821,,,
53.8125000000,6,0.5767266750,,,
53.8281250000,6,0.5994215012,,,
53.8437500000,6,0.6379569173,,,
53.8593750000,6,0.6071035862,,,
53.8750000000,6,0.4432015121,,,
53.8906250000,6,0.1503636986,,,
53.9062500000,6,-0.1700796932,,,
53.9218750000,6,-0.3642941117,,,
53.9375000000,6,-0.3037703037,,,
53.9531250000,6,0.0409882106,,,
53.9687500000,6,0.5641189218,,,
53.9843750000,6,1.0813499689,,,
54.0000000000,6,1.3945770264,,,
54.0156250000,6,1.3952460289,,,
54.0312500000,6,1.0788500309,,,
54.0468750000,6,0.5305436254,,,
54.0625000000,6,-0.1331844032,,,
54.0781250000,6,-0.8158690929,,,
54.0937500000,6,-1.4341800213,,,
54.1093750000,6,-1.9003310204,,,
54.1250000000,6,-2.1084439754,,,
54.1406250000,6,-1.9621900320,,,
54.1562500000,6,-1.4343509674,,,
54.1718750000,6,-0.6336873174,,,
54.1875000000,6,0.2228150070,,,
54.2031250000,6,0.8755919933,,,
54.2187500000,6,1.1572049856,,,
54.2343750000,6,1.0531729460,,,
54.2500000000,6,0.7124850750,,,
54.2656250000,6,0.3544001877,,,
54.2812500000,6,0.1536843926,,,
54.2968750000,6,0.1589401066,,,
54.3125000000,6,0.2825680077,,,
54.3281250000,6,0.3794857860,,,
54.3437500000,6,0.3293097019,,,
54.3593750000,6,0.0973796770,,,
54.3750000000,6,-0.2502649128,,,
54.3906250000,6,-0.5984417796,,,
54.4062500000,6,-0.8531146049,,,
54.4218750000,6,-0.9621840119,,,
54.4375000000,6,-0.9264671803,,,
54.4531250000,6,-0.7765018940,,,
54.4687500000,6,-0.5615314841,,,
54.4843750000,6,-0.3303839862,,,
54.5000000000,6,-0.1362912953,,,
54.5156250000,6,-0.0170390606,,,
54.5312500000,6,0.0242602807,,,
54.5468750000,6,0.0066611771,,,
54.5625000000,6,-0.0396487713,,,
54.5781250000,6,-0.1076316983,,,
54.5937500000,6,-0.2048563957,,,
54.6093750000,6,-0.3490183055,,,
54.6250000000,6,-0.5271772742,,,
54.6406250000,6,-0.7066283226,,,
54.6562500000,6,-0.8315538764,,,
54.6718750000,6,-0.8771219254,,,
54.6875000000,6,-0.8603721261,,,
54.7031250000,6,-0.8127794266,,,
54.7187500000,6,-0.7478188872,,,
54.7343750000,6,-0.6300818920,,,
54.7500000000,6,-0.3897927105,,,
54.7656250000,6,0.0162663497,,,
54.7812500000,6,0.5330520272,,,
54.7968750000,6,0.9939175248,,,
54.8125000000,6,1.1852200031,,,
54.8281250000,6,0.9609584808,,,
54.8437500000,6,0.3447696865,,,
54.8593750000,6,-0.4714451134,,,
54.8750000000,6,-1.2011799812,,,
54.8906250000,6,-1.6136490107,,,
54.9062500000,6,-1.6366660595,,,
54.9218750000,6,-1.3577530384,,,
54.9375000000,6,-0.9443662167,,,
54.9531250000,6,-0.5277612209,,,
54.9687500000,6,-0.1520057023,,,
54.9843750000,6,0.2240837067,,,
55.0000000000,6,0.6387476921,,,
55.0156250000,6,1.0695999861,,,
55.0312500000,6,1.4209159613,,,
55.0468750000,6,1.5785230398,,,
55.0625000000,6,1.4911199808,,,
55.0781250000,6,1.2322210073,,,
55.0937500000,6,0.9504888058,,,
55.1093750000,6,0.7726593018,,,
55.1250000000,6,0.7371264100,,,
55.1406250000,6,0.7374567986,,,
55.1562500000,6,0.6178737283,,,
55.1718750000,6,0.2568168938,,,
55.1875000000,6,-0.3555879891,,,
55.2031250000,6,-1.0692759752,,,
55.2187500000,6,-1.6547650099,,,
55.2343750000,6,-1.9173150063,,,
55.2500000000,6,-1.7858580351,,,
55.2656250000,6,-1.3329180479,,,
55.2812500000,6,-0.7451961040,,,
55.2968750000,6,-0.2140583992,,,
55.3125000000,6,0.1406275928,,,
55.3281250000,6,0.3122268021,,,
55.3437500000,6,0.3736515045,,,
55.3593750000,6,0.4108529091,,,
55.3750000000,6,0.4738495052,,,
55.3906250000,6,0.5490980148,,,
55.4062500000,6,0.6138225198,,,
55.4218750000,6,0.6564096808,,,
55.4375000000,6,0.7147393227,,,
55.4531250000,6,0.8457108140,,,
55.4687500000,6,1.0597569942,,,
55.4843750000,6,1.2897969484,,,
55.5000000000,6,1.3912220001,,,
55.5156250000,6,1.2270330191,,,
55.5312500000,6,0.7670258880,,,
55.5468750000,6,0.1254048049,,,
55.5625000000,6,-0.4951533973,,,
55.5781250000,6,-0.8821774125,,,
55.5937500000,6,-0.9479470253,,,
55.6093750000,6,-0.7503581047,,,
55.6250000000,6,-0.4473462105,,,
55.6406250000,6,-0.2098464966,,,
55.6562500000,6,-0.1437225044,,,
55.6718750000,6,-0.2352561951,,,
55.6875000000,6,-0.4086022079,,,
55.7031250000,6,-0.5665826797,,,
55.7187500000,6,-0.6344466209,,,
55.7343750000,6,-0.5739030838,,,
55.7500000000,6,-0.3796038926,,,
55.7656250000,6,-0.0571865998,,,
55.7812500000,6,0.3815799057,,,
55.7968750000,6,0.8829001784,,,
55.8125000000,6,1.3451249599,,,
55.8281250000,6,1.6471379995,,,
55.8437500000,6,1.6818979979,,,
55.8593750000,6,1.4203870296,,,
55.8750000000,6,0.9414967895,,,
55.8906250000,6,0.3993535042,,,
55.9062500000,6,-0.0360879898,,,
55.9218750000,6,-0.2752546966,,,
55.9375000000,6,-0.3497447968,,,
55.9531250000,6,-0.3794541061,,,
55.9687500000,6,-0.5089684129,,,
55.9843750000,6,-0.7937874794,,,
56.0000000000,7,-1.1663680077,,,
56.0156250000,7,-1.4632140398,,,
56.0312500000,7,-1.5304449797,,,
56.0468750000,7,-1.3023680449,,,
56.0625000000,7,-0.8525934219,,,
56.0781250000,7,-0.3199687004,,,
56.0937500000,7,0.1575655937,,,
56.1093750000,7,0.5134968758,,,
56.1250000000,7,0.7538170815,,,
56.1406250000,7,0.9044231772,,,
56.1562500000,7,0.9693831801,,,
56.1718750000,7,0.9476780891,,,
56.1875000000,7,0.8473381996,,,
56.2031250000,7,0.7129588127,,,
56.2187500000,7,0.6126083732,,,
