Time:64Hz,Epoch,Channel 1,Event Id,Event Date,Event Duration
0.0000000000,0,-0.0254135095,,,
0.0156250000,0,-0.0223655701,,,
0.0312500000,0,-0.0412101708,,,
0.0468750000,0,-0.0621147193,,,
0.0625000000,0,-0.0613098107,,,
0.0781250000,0,-0.0367622413,,,
0.0937500000,0,0.0144386301,,,
0.1093750000,0,0.0960998535,,,
0.1250000000,0,0.2109375000,,,
0.1406250000,0,0.3261528015,,,
0.1562500000,0,0.3857040107,,,
0.1718750000,0,0.3300437927,,,
0.1875000000,0,0.1468811035,,,
0.2031250000,0,-0.1015167013,,,
0.2187500000,0,-0.3049888909,,,
0.2343750000,0,-0.3705329895,,,
0.2500000000,0,-0.2865256965,,,
0.2656250000,0,-0.1285133064,,,
0.2812500000,0,-0.0197753906,,,
0.2968750000,0,-0.0294036902,,,
0.3125000000,0,-0.1389084011,,,
0.3281250000,0,-0.2565765083,,,
0.3437500000,0,-0.2867392898,,,
0.3593750000,0,-0.2283782959,,,
0.3750000000,0,-0.1512451023,,,
0.3906250000,0,-0.1600455940,,,
0.4062500000,0,-0.3040924072,,,
0.4218750000,0,-0.5316925049,,,
0.4375000000,0,-0.7235106826,,,
0.4531250000,0,-0.7731056213,,,
0.4687500000,0,-0.6525421143,,,
0.4843750000,0,-0.4200629890,,,
0.5000000000,0,-0.1897391975,,,
0.5156250000,0,-0.0512619019,,,
0.5312500000,0,-0.0319213904,,,
0.5468750000,0,-0.0792427063,,,
0.5625000000,0,-0.1137581021,,,
0.5781250000,0,-0.0532455407,,,
0.5937500000,0,0.1394615024,,,
0.6093750000,0,0.4591866136,,,
0.6250000000,0,0.8632544875,,,
0.6406250000,0,1.2785990238,,,
0.6562500000,0,1.6124000549,,,
0.6718750000,0,1.7681879997,,,
0.6875000000,0,1.6791080236,,,
0.7031250000,0,1.3438379765,,,
0.7187500000,0,0.8421782851,,,
0.7343750000,0,0.3179283142,,,
0.7500000000,0,-0.0872421265,,,
0.7656250000,0,-0.2912139893,,,
0.7812500000,0,-0.3170891106,,,
0.7968750000,0,-0.2532578111,,,
0.8125000000,0,-0.2009849995,,,
0.8281250000,0,-0.2054671943,,,
0.8437500000,0,-0.2441101074,,,
0.8593750000,0,-0.2738646865,,,
0.8750000000,0,-0.2647705078,,,
0.8906250000,0,-0.2399673015,,,
0.9062500000,0,-0.2385901958,,,
0.9218750000,0,-0.2801971138,,,
0.9375000000,0,-0.3267821968,,,
0.9531250000,0,-0.3063086867,,,
0.9687500000,0,-0.1576004028,,,
0.9843750000,0,0.1175156012,,,
1.0000000000,0,0.4439620972,,,
1.0156250000,0,0.7119370103,,,
1.0312500000,0,0.8353919983,,,
1.0468750000,0,0.7896575928,,,
1.0625000000,0,0.6097183228,,,
1.0781250000,0,0.3591270149,,,
1.0937500000,0,0.0957260132,,,
1.1093750000,0,-0.1333618015,,,
1.1250000000,0,-0.2905426025,,,
1.1406250000,0,-0.3472251892,,,
1.1562500000,0,-0.3020286858,,,
1.1718750000,0,-0.1973000020,,,
1.1875000000,0,-0.1138724983,,,
1.2031250000,0,-0.1358603984,,,
1.2187500000,0,-0.3118134141,,,
1.2343750000,0,-0.6215630174,,,
1.2500000000,0,-0.9812430739,,,
1.2656250000,0,-1.2838549614,,,
1.2812500000,0,-1.4514429569,,,
1.2968750000,0,-1.4522060156,,,
1.3125000000,0,-1.3144609928,,,
1.3281250000,0,-1.0903209448,,,
1.3437500000,0,-0.8412551880,,,
1.3593750000,0,-0.6222609878,,,
1.3750000000,0,-0.4707717896,,,
1.3906250000,0,-0.3947333992,,,
1.4062500000,0,-0.3803252876,,,
1.4218750000,0,-0.4000092149,,,
1.4375000000,0,-0.4093360901,,,
1.4531250000,0,-0.3649178147,,,
1.4687500000,0,-0.2237662971,,,
1.4843750000,0,0.0300788898,,,
1.5000000000,0,0.3671036065,,,
1.5156250000,0,0.7204970717,,,
1.5312500000,0,0.9934539795,,,
1.5468750000,0,1.0802799463,,,
1.5625000000,0,0.9183502197,,,
1.5781250000,0,0.5215492249,,,
1.5937500000,0,-0.0135650598,,,
1.6093750000,0,-0.5323563218,,,
1.6250000000,0,-0.8684005737,,,
1.6406250000,0,-0.9057807922,,,
1.6562500000,0,-0.6183472276,,,
1.6718750000,0,-0.0718307495,,,
1.6875000000,0,0.5845031738,,,
1.7031250000,0,1.1645890474,,,
1.7187500000,0,1.5059319735,,,
1.7343750000,0,1.5203289986,,,
1.7500000000,0,1.2397730350,,,
1.7656250000,0,0.8073539734,,,
1.7812500000,0,0.4096221924,,,
1.7968750000,0,0.1870231926,,,
1.8125000000,0,0.1637801975,,,
1.8281250000,0,0.2516478896,,,
1.8437500000,0,0.3258971870,,,
1.8593750000,0,0.3072890937,,,
1.8750000000,0,0.2032241970,,,
1.8906250000,0,0.0793724135,,,
1.9062500000,0,-0.0053405762,,,
1.9218750000,0,-0.0524978600,,,
1.9375000000,0,-0.1206474006,,,
1.9531250000,0,-0.2731742859,,,
1.9687500000,0,-0.5010489821,,,
1.9843750000,0,-0.7135962844,,,
2.0000000000,0,-0.7925605774,,,
2.0156250000,0,-0.6724700928,,,
2.0312500000,0,-0.3928337097,,,
2.0468750000,0,-0.1010055989,,,
2.0625000000,0,0.0336418189,,,
2.0781250000,0,-0.0846328735,,,
2.0937500000,0,-0.4252471924,,,
2.1093750000,0,-0.8346291184,,,
2.1250000000,0,-1.1267470121,,,
2.1406250000,0,-1.1665270329,,,
2.1562500000,0,-0.9507331848,,,
2.1718750000,0,-0.5936965942,,,
2.1875000000,0,-0.2736282051,,,
2.2031250000,0,-0.1313515007,,,
2.2187500000,0,-0.1990050972,,,
2.2343750000,0,-0.3916245103,,,
2.2500000000,0,-0.5759468079,,,
2.2656250000,0,-0.6497498155,,,
2.2812500000,0,-0.5992621779,,,
2.2968750000,0,-0.4824790955,,,
2.3125000000,0,-0.3553009033,,,
2.3281250000,0,-0.2340926975,,,
2.3437500000,0,-0.0705871582,,,
2.3593750000,0,0.1912384033,,,
2.3750000000,0,0.5650672913,,,
2.3906250000,0,0.9916954041,,,
2.4062500000,0,1.3641740084,,,
2.4218750000,0,1.5915149450,,,
2.4375000000,0,1.6337130070,,,
2.4531250000,0,1.5248869658,,,
2.4687500000,0,1.3286629915,,,
2.4843750000,0,1.0941469669,,,
2.5000000000,0,0.8358306885,,,
2.5156250000,0,0.5467606187,,,
2.5312500000,0,0.2319640964,,,
2.5468750000,0,-0.0748825073,,,
2.5625000000,0,-0.3184891045,,,
2.5781250000,0,-0.4450759888,,,
2.5937500000,0,-0.4246025085,,,
2.6093750000,0,-0.2517853081,,,
2.6250000000,0,0.0436897315,,,
2.6406250000,0,0.4057883918,,,
2.6562500000,0,0.7596321106,,,
2.6718750000,0,1.0100589991,,,
2.6875000000,0,1.0732769966,,,
2.7031250000,0,0.8950232863,,,
2.7187500000,0,0.4886169136,,,
2.7343750000,0,-0.0531158410,,,
2.7500000000,0,-0.5901833177,,,
2.7656250000,0,-0.9792861938,,,
2.7812500000,0,-1.1259770393,,,
2.7968750000,0,-1.0364229679,,,
2.8125000000,0,-0.7750815749,,,
2.8281250000,0,-0.4279212952,,,
2.8437500000,0,-0.0599899292,,,
2.8593750000,0,0.3127174079,,,
2.8750000000,0,0.6892241836,,,
2.8906250000,0,1.0484280586,,,
2.9062500000,0,1.3453030586,,,
2.9218750000,0,1.5173870325,,,
2.9375000000,0,1.4877510071,,,
2.9531250000,0,1.2244910002,,,
2.9687500000,0,0.7413101196,,,
2.9843750000,0,0.1039123982,,,
3.0000000000,0,-0.5717124939,,,
3.0156250000,0,-1.1416740417,,,
3.0312500000,0,-1.4784090519,,,
3.0468750000,0,-1.5006140471,,,
3.0625000000,0,-1.2181279659,,,
3.0781250000,0,-0.7223206162,,,
3.0937500000,0,-0.1631813049,,,
3.1093750000,0,0.3017768860,,,
3.1250000000,0,0.5646399856,,,
3.1406250000,0,0.6003494263,,,
3.1562500000,0,0.4406776130,,,
3.1718750000,0,0.1650847942,,,
3.1875000000,0,-0.1320496053,,,
3.2031250000,0,-0.3719176948,,,
3.2187500000,0,-0.4939383864,,,
3.2343750000,0,-0.4648323059,,,
3.2500000000,0,-0.2974129021,,,
3.2656250000,0,-0.0499420203,,,
3.2812500000,0,0.1939125061,,,
3.2968750000,0,0.3392981887,,,
3.3125000000,0,0.3270798028,,,
3.3281250000,0,0.1485633999,,,
3.3437500000,0,-0.1543350071,,,
3.3593750000,0,-0.5069962144,,,
3.3750000000,0,-0.8118476868,,,
3.3906250000,0,-0.9940528870,,,
3.4062500000,0,-0.9978293777,,,
3.4218750000,0,-0.8003159165,,,
3.4375000000,0,-0.4400481880,,,
3.4531250000,0,0.0152206402,,,
3.4687500000,0,0.4519729912,,,
3.4843750000,0,0.7454032898,,,
3.5000000000,0,0.8080139160,,,
3.5156250000,0,0.6211432815,,,
3.5312500000,0,0.2425345927,,,
3.5468750000,0,-0.1798018962,,,
3.5625000000,0,-0.4791030884,,,
3.5781250000,0,-0.5419083238,,,
3.5937500000,0,-0.3537673950,,,
3.6093750000,0,-0.0205116309,,,
3.6250000000,0,0.2752686143,,,
3.6406250000,0,0.4060286880,,,
3.6562500000,0,0.3488540947,,,
3.6718750000,0,0.2001952976,,,
3.6875000000,0,0.1075896993,,,
3.7031250000,0,0.1678809971,,,
3.7187500000,0,0.3623619080,,,
3.7343750000,0,0.5800362229,,,
3.7500000000,0,0.6869506836,,,
3.7656250000,0,0.6380310059,,,
3.7812500000,0,0.4978713989,,,
3.7968750000,0,0.3868789971,,,
3.8125000000,0,0.3995552063,,,
3.8281250000,0,0.4982070923,,,
3.8437500000,0,0.5379027724,,,
3.8593750000,0,0.3408584893,,,
3.8750000000,0,-0.1592902988,,,
3.8906250000,0,-0.8545799255,,,
3.9062500000,0,-1.4914859533,,,
3.9218750000,0,-1.8018490076,,,
3.9375000000,0,-1.6482809782,,,
3.9531250000,0,-1.0912359953,,,
3.9687500000,0,-0.3621864021,,,
3.9843750000,0,0.2637977898,,,
4.0000000000,0,0.6064301133,,,
4.0156250000,0,0.6582108140,,,
4.0312500000,0,0.5348166823,,,
4.0468750000,0,0.3821640015,,,
4.0625000000,0,0.2631340027,,,
4.0781250000,0,0.1295890957,,,
4.0937500000,0,-0.1036605984,,,
4.1093750000,0,-0.4567107856,,,
4.1250000000,0,-0.8339195251,,,
4.1406250000,0,-1.0447620153,,,
4.1562500000,0,-0.9150810242,,,
4.1718750000,0,-0.4279175103,,,
4.1875000000,0,0.2401199043,,,
4.2031250000,0,0.7977294922,,,
4.2187500000,0,0.9846230149,,,
4.2343750000,0,0.7361145020,,,
4.2500000000,0,0.2045021057,,,
4.2656250000,0,-0.3169631958,,,
4.2812500000,0,-0.5680351257,,,
4.2968750000,0,-0.4701805115,,,
4.3125000000,0,-0.1481399983,,,
4.3281250000,0,0.1747588962,,,
4.3437500000,0,0.3295592964,,,
4.3593750000,0,0.2817116082,,,
4.3750000000,0,0.1385039985,,,
4.3906250000,0,0.0424461402,,,
4.4062500000,0,0.0597000085,,,
4.4218750000,0,0.1602973938,,,
4.4375000000,0,0.2516174018,,,
4.4531250000,0,0.2672156990,,,
4.4687500000,0,0.2136725932,,,
4.4843750000,0,0.1776161045,,,
4.5000000000,0,0.2388534993,,,
4.5156250000,0,0.4104346931,,,
4.5312500000,0,0.6256980896,,,
4.5468750000,0,0.7667502761,,,
4.5625000000,0,0.7374153137,,,
4.5781250000,0,0.5252227783,,,
4.5937500000,0,0.1936721951,,,
4.6093750000,0,-0.1439514011,,,
4.6250000000,0,-0.4050940871,,,
4.6406250000,0,-0.5581778884,,,
4.6562500000,0,-0.6257935166,,,
4.6718750000,0,-0.6580352783,,,
4.6875000000,0,-0.6893805861,,,
4.7031250000,0,-0.7046012878,,,
4.7187500000,0,-0.6618729234,,,
4.7343750000,0,-0.5145034790,,,
4.7500000000,0,-0.2722434998,,,
4.7656250000,0,-0.0114936801,,,
4.7812500000,0,0.1679497063,,,
4.7968750000,0,0.1981354058,,,
4.8125000000,0,0.0834312364,,,
4.8281250000,0,-0.0937385634,,,
4.8437500000,0,-0.2352447957,,,
4.8593750000,0,-0.2872925103,,,
4.8750000000,0,-0.2428130955,,,
4.8906250000,0,-0.1347541958,,,
4.9062500000,0,-0.0218009893,,,
4.9218750000,0,0.0459175110,,,
4.9375000000,0,0.0276908893,,,
4.9531250000,0,-0.0938568115,,,
4.9687500000,0,-0.3059731126,,,
4.9843750000,0,-0.5380936265,,,
5.0000000000,0,-0.7056884766,,,
5.0156250000,0,-0.7445145249,,,
5.0312500000,0,-0.6509628296,,,
5.0468750000,0,-0.4879341125,,,
5.0625000000,0,-0.3419112861,,,
5.0781250000,0,-0.2541007996,,,
5.0937500000,0,-0.2001190037,,,
5.1093750000,0,-0.1084098965,,,
5.1250000000,0,0.0367507897,,,
5.1406250000,0,0.1851616055,,,
5.1562500000,0,0.2233238071,,,
5.1718750000,0,0.0838165283,,,
5.1875000000,0,-0.1943932027,,,
5.2031250000,0,-0.4743346870,,,
5.2187500000,0,-0.6219596863,,,
5.2343750000,0,-0.6036911011,,,
5.2500000000,0,-0.5173224807,,,
5.2656250000,0,-0.5127869248,,,
5.2812500000,0,-0.6557961106,,,
5.2968750000,0,-0.8753281236,,,
5.3125000000,0,-0.9965476990,,,
5.3281250000,0,-0.8389282227,,,
5.3437500000,0,-0.3460044861,,,
5.3593750000,0,0.3780669868,,,
5.3750000000,0,1.1321530342,,,
5.3906250000,0,1.6985440254,,,
5.4062500000,0,1.9485280514,,,
5.4218750000,0,1.8861730099,,,
5.4375000000,0,1.6335109472,,,
5.4531250000,0,1.3656619787,,,
5.4687500000,0,1.2330210209,,,
5.4843750000,0,1.3074259758,,,
5.5000000000,0,1.5466769934,,,
5.5156250000,0,1.8156739473,,,
5.5312500000,0,1.9461899996,,,
5.5468750000,0,1.8280489445,,,
5.5625000000,0,1.4548759460,,,
5.5781250000,0,0.9289321899,,,
5.5937500000,0,0.3954162896,,,
5.6093750000,0,-0.0382347107,,,
5.6250000000,0,-0.3636702895,,,
5.6406250000,0,-0.6335372925,,,
5.6562500000,0,-0.9025763869,,,
5.6718750000,0,-1.1460109949,,,
5.6875000000,0,-1.2667920589,,,
5.7031250000,0,-1.1644289494,,,
5.7187500000,0,-0.8262634277,,,
5.7343750000,0,-0.3601112068,,,
5.7500000000,0,0.0372848511,,,
5.7656250000,0,0.1983222961,,,
5.7812500000,0,0.0720291063,,,
5.7968750000,0,-0.2522811890,,,
5.8125000000,0,-0.6086081862,,,
5.8281250000,0,-0.8445929885,,,
5.8437500000,0,-0.9081459045,,,
5.8593750000,0,-0.8464241028,,,
5.8750000000,0,-0.7387084961,,,
5.8906250000,0,-0.6488152146,,,
5.9062500000,0,-0.5895537734,,,
5.9218750000,0,-0.5549582839,,,
5.9375000000,0,-0.5543022156,,,
5.9531250000,0,-0.6221274734,,,
5.9687500000,0,-0.7939643860,,,
5.9843750000,0,-1.0453759432,,,
6.0000000000,0,-1.2821849585,,,
6.0156250000,0,-1.3686679602,,,
6.0312500000,0,-1.2039070129,,,
6.0468750000,0,-0.7884407043,,,
6.0625000000,0,-0.2415504009,,,
6.0781250000,0,0.2583884895,,,
6.0937500000,0,0.5657805800,,,
6.1093750000,0,0.6409531236,,,
6.1250000000,0,0.5591431260,,,
6.1406250000,0,0.4532051086,,,
6.1562500000,0,0.4219627082,,,
6.1718750000,0,0.4738464057,,,
6.1875000000,0,0.5397872925,,,
6.2031250000,0,0.5347176194,,,
6.2187500000,0,0.4402999878,,,
6.2343750000,0,0.3050079048,,,
6.2500000000,0,0.2173957974,,,
6.2656250000,0,0.2477073967,,,
6.2812500000,0,0.3815459907,,,
6.2968750000,0,0.5352935791,,,
6.3125000000,0,0.6252822876,,,
6.3281250000,0,0.6121407151,,,
6.3437500000,0,0.5149269104,,,
6.3593750000,0,0.3893623054,,,
6.3750000000,0,0.2725600898,,,
6.3906250000,0,0.1797218025,,,
6.4062500000,0,0.1236571968,,,
6.4218750000,0,0.1157265007,,,
6.4375000000,0,0.1705131978,,,
6.4531250000,0,0.2844733894,,,
6.4687500000,0,0.4110221863,,,
6.4843750000,0,0.4935913086,,,
6.5000000000,0,0.4874038994,,,
6.5156250000,0,0.4089165032,,,
6.5312500000,0,0.3170815110,,,
6.5468750000,0,0.2859916985,,,
6.5625000000,0,0.3551521003,,,
6.5781250000,0,0.4990501106,,,
6.5937500000,0,0.6506118774,,,
6.6093750000,0,0.7357329726,,,
6.6250000000,0,0.7065848708,,,
6.6406250000,0,0.5538597107,,,
6.6562500000,0,0.2925986946,,,
6.6718750000,0,-0.0478668213,,,
6.6875000000,0,-0.4330559075,,,
6.7031250000,0,-0.8164405823,,,
6.7187500000,0,-1.1285740137,,,
6.7343750000,0,-1.3092689514,,,
6.7500000000,0,-1.3148920536,,,
6.7656250000,0,-1.1494480371,,,
6.7812500000,0,-0.8505554199,,,
6.7968750000,0,-0.4857139885,,,
6.8125000000,0,-0.1356239021,,,
6.8281250000,0,0.1260337979,,,
6.8437500000,0,0.2440834045,,,
6.8593750000,0,0.2189407051,,,
6.8750000000,0,0.0849456787,,,
6.8906250000,0,-0.0877876282,,,
6.9062500000,0,-0.2281226963,,,
6.9218750000,0,-0.3000374138,,,
6.9375000000,0,-0.2933005989,,,
6.9531250000,0,-0.2193831950,,,
6.9687500000,0,-0.0812148973,,,
6.9843750000,0,0.1324806064,,,
7.0000000000,0,0.4112662971,,,
7.0156250000,0,0.7219467163,,,
7.0312500000,0,0.9766768813,,,
7.0468750000,0,1.0896070004,,,
7.0625000000,0,1.0139390230,,,
7.0781250000,0,0.7804145813,,,
7.0937500000,0,0.4726830125,,,
7.1093750000,0,0.1807709038,,,
7.1250000000,0,-0.0479240417,,,
7.1406250000,0,-0.2274550945,,,
7.1562500000,0,-0.3882408142,,,
7.1718750000,0,-0.5233954787,,,
7.1875000000,0,-0.5706214905,,,
7.2031250000,0,-0.4696465135,,,
7.2187500000,0,-0.2109718025,,,
7.2343750000,0,0.1093750000,,,
7.2500000000,0,0.3450050056,,,
7.2656250000,0,0.3559113145,,,
7.2812500000,0,0.1330451965,,,
7.2968750000,0,-0.2031822056,,,
7.3125000000,0,-0.4657248855,,,
7.3281250000,0,-0.4913367927,,,
7.3437500000,0,-0.2563858032,,,
7.3593750000,0,0.1366806030,,,
7.3750000000,0,0.5007628798,,,
7.3906250000,0,0.6938971877,,,
7.4062500000,0,0.6602783203,,,
7.4218750000,0,0.4445419014,,,
7.4375000000,0,0.1555901021,,,
7.4531250000,0,-0.1055182964,,,
7.4687500000,0,-0.2512320876,,,
7.4843750000,0,-0.2401961982,,,
7.5000000000,0,-0.0602569617,,,
7.5156250000,0,0.2467498928,,,
7.5312500000,0,0.5898705125,,,
7.5468750000,0,0.8438301086,,,
7.5625000000,0,0.9037743211,,,
7.5781250000,0,0.7214661241,,,
7.5937500000,0,0.3314323127,,,
7.6093750000,0,-0.1653023064,,,
7.6250000000,0,-0.6345252991,,,
7.6406250000,0,-0.9780768752,,,
7.6562500000,0,-1.1569060087,,,
7.6718750000,0,-1.1922039986,,,
7.6875000000,0,-1.1282119751,,,
7.7031250000,0,-1.0057140589,,,
7.7187500000,0,-0.8369560242,,,
7.7343750000,0,-0.6307715774,,,
7.7500000000,0,-0.3917007148,,,
7.7656250000,0,-0.1637306064,,,
7.7812500000,0,0.0310592707,,,
7.7968750000,0,0.1822433025,,,
7.8125000000,0,0.3024291992,,,
7.8281250000,0,0.4074820876,,,
7.8437500000,0,0.4867438972,,,
7.8593750000,0,0.5111771226,,,
7.8750000000,0,0.4245682061,,,
7.8906250000,0,0.2157593071,,,
7.9062500000,0,-0.0819244385,,,
7.9218750000,0,-0.3800812066,,,
7.9375000000,0,-0.5855255127,,,
7.9531250000,0,-0.6466941833,,,
7.9687500000,0,-0.5788918138,,,
7.9843750000,0,-0.4548186958,,,
8.0000000000,1,-0.3394623101,,,
8.0156250000,1,-0.2361945957,,,
8.0312500000,1,-0.0942916870,,,
8.0468750000,1,0.1421699971,,,
8.0625000000,1,0.4712944031,,,
8.0781250000,1,0.8061751723,,,
8.0937500000,1,1.0171849728,,,
8.1093750000,1,1.0114020109,,,
8.1250000000,1,0.7931557298,,,
8.1406250000,1,0.4490279853,,,
8.1562500000,1,0.0810394287,,,
8.1718750000,1,-0.2427749932,,,
8.1875000000,1,-0.5322762132,,,
8.2031250000,1,-0.8058701158,,,
8.2187500000,1,-1.0337749720,,,
8.2343750000,1,-1.1368680000,,,
8.2500000000,1,-1.0225750208,,,
8.2656250000,1,-0.6740189195,,,
8.2812500000,1,-0.1825828999,,,
8.2968750000,1,0.2708663940,,,
8.3125000000,1,0.5332108140,,,
8.3281250000,1,0.5382233262,,,
8.3437500000,1,0.3411406875,,,
8.3593750000,1,0.0745658875,,,
8.3750000000,1,-0.1326103061,,,
8.3906250000,1,-0.2203368992,,,
8.4062500000,1,-0.2005424052,,,
8.4218750000,1,-0.1134949028,,,
8.4375000000,1,-0.0105552701,,,
8.4531250000,1,0.0874099731,,,
8.4687500000,1,0.1578636020,,,
8.4843750000,1,0.1950225979,,,
8.5000000000,1,0.1882781982,,,
8.5156250000,1,0.1602707058,,,
8.5312500000,1,0.1308441013,,,
8.5468750000,1,0.1224709004,,,
8.5625000000,1,0.1137427986,,,
8.5781250000,1,0.0634956434,,,
8.5937500000,1,-0.0657081604,,,
8.6093750000,1,-0.2765617073,,,
8.6250000000,1,-0.5139122009,,,
8.6406250000,1,-0.6853446960,,,
8.6562500000,1,-0.7120018005,,,
8.6718750000,1,-0.5468254089,,,
8.6875000000,1,-0.2089156955,,,
8.7031250000,1,0.2374458015,,,
8.7187500000,1,0.7041512132,,,
8.7343750000,1,1.1007230282,,,
8.7500000000,1,1.3495179415,,,
8.7656250000,1,1.4062880278,,,
8.7812500000,1,1.2587089539,,,
8.7968750000,1,0.9244232178,,,
8.8125000000,1,0.4607048035,,,
8.8281250000,1,-0.0572929382,,,
8.8437500000,1,-0.5517845154,,,
8.8593750000,1,-0.9520912170,,,
8.8750000000,1,-1.1846050024,,,
8.8906250000,1,-1.2015529871,,,
8.9062500000,1,-0.9988669753,,,
8.9218750000,1,-0.6387825012,,,
8.9375000000,1,-0.2498970032,,,
8.9531250000,1,0.0357284509,,,
8.9687500000,1,0.1296271980,,,
8.9843750000,1,0.0530090295,,,
9.0000000000,1,-0.0974121094,,,
9.0156250000,1,-0.1911735982,,,
9.0312500000,1,-0.1695290059,,,
9.0468750000,1,-0.0626029968,,,
9.0625000000,1,0.0253944397,,,
9.0781250000,1,0.0001564026,,,
9.0937500000,1,-0.1594582051,,,
9.1093750000,1,-0.3917885125,,,
9.1250000000,1,-0.5903130174,,,
9.1406250000,1,-0.6654586792,,,
9.1562500000,1,-0.5960845947,,,
9.1718750000,1,-0.4130898118,,,
9.1875000000,1,-0.1727637947,,,
9.2031250000,1,0.0745849609,,,
9.2187500000,1,0.2937088013,,,
9.2343750000,1,0.4610213935,,,
9.2500000000,1,0.5704575181,,,
9.2656250000,1,0.6336669922,,,
9.2812500000,1,0.6787261963,,,
9.2968750000,1,0.7357367873,,,
9.3125000000,1,0.8046340942,,,
9.3281250000,1,0.8402327895,,,
9.3437500000,1,0.7755814195,,,
9.3593750000,1,0.5518264771,,,
9.3750000000,1,0.1844902039,,,
9.3906250000,1,-0.2226295024,,,
9.4062500000,1,-0.5258712769,,,
9.4218750000,1,-0.6163291931,,,
9.4375000000,1,-0.4782103896,,,
9.4531250000,1,-0.1952781975,,,
9.4687500000,1,0.0906486511,,,
9.4843750000,1,0.2614403069,,,
9.5000000000,1,0.2739638984,,,
9.5156250000,1,0.1670189053,,,
9.5312500000,1,0.0246734601,,,
9.5468750000,1,-0.0816383436,,,
9.5625000000,1,-0.1276130974,,,
9.5781250000,1,-0.1372489929,,,
9.5937500000,1,-0.1652183980,,,
9.6093750000,1,-0.2586174011,,,
9.6250000000,1,-0.4312325120,,,
9.6406250000,1,-0.6448516846,,,
9.6562500000,1,-0.8130187988,,,
9.6718750000,1,-0.8336601257,,,
9.6875000000,1,-0.6212692261,,,
9.7031250000,1,-0.1662864983,,,
9.7187500000,1,0.4495238960,,,
9.7343750000,1,1.0655250549,,,
9.7500000000,1,1.5100020170,,,
9.7656250000,1,1.6673239470,,,
9.7812500000,1,1.5311930180,,,
9.7968750000,1,1.1905560493,,,
9.8125000000,1,0.7847747803,,,
9.8281250000,1,0.4356231987,,,
9.8437500000,1,0.2033195049,,,
9.8593750000,1,0.0870742798,,,
9.8750000000,1,0.0537490807,,,
9.8906250000,1,0.0751953125,,,
9.9062500000,1,0.1163711995,,,
9.9218750000,1,0.1261215061,,,
9.9375000000,1,0.0468063392,,,
9.9531250000,1,-0.1653975993,,,
9.9687500000,1,-0.4941101074,,,
9.9843750000,1,-0.8472136855,,,
10.0000000000,1,-1.0731849670,,,
10.0156250000,1,-1.0540119410,,,
10.0312500000,1,-0.7616615295,,,
10.0468750000,1,-0.2937125862,,,
10.0625000000,1,0.1793137044,,,
10.0781250000,1,0.4835205078,,,
10.0937500000,1,0.5358200073,,,
10.1093750000,1,0.3713226020,,,
10.1250000000,1,0.1042480022,,,
10.1406250000,1,-0.1403350979,,,
10.1562500000,1,-0.3020972908,,,
10.1718750000,1,-0.3999595940,,,
10.1875000000,1,-0.4979782104,,,
10.2031250000,1,-0.6374511719,,,
10.2187500000,1,-0.7959671021,,,
10.2343750000,1,-0.8983994126,,,
10.2500000000,1,-0.8647003174,,,
10.2656250000,1,-0.6761779785,,,
10.2812500000,1,-0.3870201111,,,
10.2968750000,1,-0.1235847026,,,
10.3125000000,1,-0.0055809021,,,
10.3281250000,1,-0.0872383118,,,
10.3437500000,1,-0.3232040107,,,
10.3593750000,1,-0.5829430223,,,
10.3750000000,1,-0.7240561843,,,
10.3906250000,1,-0.6368216872,,,
10.4062500000,1,-0.3215866089,,,
10.4218750000,1,0.1170730963,,,
10.4375000000,1,0.5264778137,,,
10.4531250000,1,0.7813950181,,,
10.4687500000,1,0.8189240098,,,
10.4843750000,1,0.6683502197,,,
10.5000000000,1,0.4180640876,,,
10.5156250000,1,0.1709709018,,,
10.5312500000,1,0.0096397400,,,
10.5468750000,1,-0.0340728797,,,
10.5625000000,1,0.0425834693,,,
10.5781250000,1,0.1982536018,,,
10.5937500000,1,0.3682213128,,,
10.6093750000,1,0.4762763977,,,
10.6250000000,1,0.4593163133,,,
10.6406250000,1,0.3044395149,,,
10.6562500000,1,0.0518798791,,,
10.6718750000,1,-0.1975784004,,,
10.6875000000,1,-0.3391838074,,,
10.7031250000,1,-0.3051643074,,,
10.7187500000,1,-0.1092948988,,,
10.7343750000,1,0.1602402031,,,
10.7500000000,1,0.3774681091,,,
10.7656250000,1,0.4420852959,,,
10.7812500000,1,0.3367919922,,,
10.7968750000,1,0.1249236986,,,
10.8125000000,1,-0.0729942322,,,
10.8281250000,1,-0.1482964009,,,
10.8437500000,1,-0.0294876099,,,
10.8593750000,1,0.2695122063,,,
10.8750000000,1,0.6674193740,,,
10.8906250000,1,1.0567970276,,,
10.9062500000,1,1.3440929651,,,
10.9218750000,1,1.4751780033,,,
10.9375000000,1,1.4362909794,,,
10.9531250000,1,1.2603720427,,,
10.9687500000,1,0.9565811157,,,
10.9843750000,1,0.5596045852,,,
11.0000000000,1,0.1021346971,,,
11.0156250000,1,-0.3486900032,,,
11.0312500000,1,-0.6995658875,,,
11.0468750000,1,-0.8881149292,,,
11.0625000000,1,-0.8930016160,,,
11.0781250000,1,-0.7474709153,,,
11.0937500000,1,-0.5169715881,,,
11.1093750000,1,-0.2612076104,,,
11.1250000000,1,-0.0285339393,,,
11.1406250000,1,0.1535529941,,,
11.1562500000,1,0.2540321052,,,
11.1718750000,1,0.2549361885,,,
11.1875000000,1,0.1611862034,,,
11.2031250000,1,-0.0008430481,,,
11.2187500000,1,-0.1745223999,,,
11.2343750000,1,-0.3109970093,,,
11.2500000000,1,-0.3986510932,,,
11.2656250000,1,-0.4633140862,,,
11.2812500000,1,-0.5420761108,,,
11.2968750000,1,-0.6393089294,,,
11.3125000000,1,-0.7147942185,,,
11.3281250000,1,-0.7124289870,,,
11.3437500000,1,-0.5978202820,,,
11.3593750000,1,-0.4011459053,,,
11.3750000000,1,-0.1995888054,,,
11.3906250000,1,-0.0698242188,,,
11.4062500000,1,-0.0376739502,,,
11.4218750000,1,-0.0603256188,,,
11.4375000000,1,-0.0627899170,,,
11.4531250000,1,0.0195312500,,,
11.4687500000,1,0.1751174927,,,
11.4843750000,1,0.3536872864,,,
11.5000000000,1,0.4602546990,,,
11.5156250000,1,0.4435616136,,,
11.5312500000,1,0.3242760003,,,
11.5468750000,1,0.1870841980,,,
11.5625000000,1,0.1466141045,,,
11.5781250000,1,0.2711372077,,,
11.5937500000,1,0.5346909165,,,
11.6093750000,1,0.8257483840,,,
11.6250000000,1,0.9971160889,,,
11.6406250000,1,0.9527472854,,,
11.6562500000,1,0.7076073289,,,
11.6718750000,1,0.3703156114,,,
11.6875000000,1,0.1014480963,,,
11.7031250000,1,0.0084609985,,,
11.7187500000,1,0.0925979614,,,
11.7343750000,1,0.2568283081,,,
11.7500000000,1,0.3644408882,,,
11.7656250000,1,0.3210144043,,,
11.7812500000,1,0.1242142022,,,
11.7968750000,1,-0.1445847005,,,
11.8125000000,1,-0.3715552986,,,
11.8281250000,1,-0.4721642137,,,
11.8437500000,1,-0.4425697029,,,
11.8593750000,1,-0.3453598022,,,
11.8750000000,1,-0.2734183967,,,
11.8906250000,1,-0.2951698005,,,
11.9062500000,1,-0.4268951118,,,
11.9218750000,1,-0.6229286194,,,
11.9375000000,1,-0.8195915222,,,
11.9531250000,1,-0.9684525132,,,
11.9687500000,1,-1.0503690243,,,
11.9843750000,1,-1.0779269934,,,
12.0000000000,1,-1.0702250004,,,
12.0156250000,1,-1.0220760107,,,
12.0312500000,1,-0.9186974168,,,
12.0468750000,1,-0.7563056946,,,
12.0625000000,1,-0.5643234253,,,
12.0781250000,1,-0.3926163018,,,
12.0937500000,1,-0.2890853882,,,
12.1093750000,1,-0.2573853135,,,
12.1250000000,1,-0.2473755032,,,
12.1406250000,1,-0.1786613017,,,
12.1562500000,1,0.0194129907,,,
12.1718750000,1,0.3441123962,,,
12.1875000000,1,0.7173882127,,,
12.2031250000,1,1.0129699707,,,
12.2187500000,1,1.1174279451,,,
12.2343750000,1,1.0009880066,,,
12.2500000000,1,0.7095717788,,,
12.2656250000,1,0.3527756035,,,
12.2812500000,1,0.0373191796,,,
12.2968750000,1,-0.1719398052,,,
12.3125000000,1,-0.2710266113,,,
12.3281250000,1,-0.2808952034,,,
12.3437500000,1,-0.2507286072,,,
12.3593750000,1,-0.2147713006,,,
12.3750000000,1,-0.2095794976,,,
12.3906250000,1,-0.2484703064,,,
12.4062500000,1,-0.3290748894,,,
12.4218750000,1,-0.4070244133,,,
12.4375000000,1,-0.4145202935,,,
12.4531250000,1,-0.2904129028,,,
12.4687500000,1,-0.0266189594,,,
12.4843750000,1,0.2882995903,,,
12.5000000000,1,0.5109786987,,,
12.5156250000,1,0.5106316209,,,
12.5312500000,1,0.2770386040,,,
12.5468750000,1,-0.0622253418,,,
12.5625000000,1,-0.3106194139,,,
12.5781250000,1,-0.3125304878,,,
12.5937500000,1,-0.0659065172,,,
12.6093750000,1,0.2792358100,,,
12.6250000000,1,0.5273628235,,,
12.6406250000,1,0.5484123230,,,
12.6562500000,1,0.3467827141,,,
12.6718750000,1,0.0473785400,,,
12.6875000000,1,-0.1968117058,,,
12.7031250000,1,-0.2989807129,,,
12.7187500000,1,-0.2788695991,,,
12.7343750000,1,-0.2078551948,,,
12.7500000000,1,-0.1629333049,,,
12.7656250000,1,-0.1587790996,,,
12.7812500000,1,-0.1698646992,,,
12.7968750000,1,-0.1564788967,,,
12.8125000000,1,-0.1188774034,,,
12.8281250000,1,-0.0689392090,,,
12.8437500000,1,-0.0378837585,,,
12.8593750000,1,-0.0263557397,,,
12.8750000000,1,-0.0139999399,,,
12.8906250000,1,0.0218620300,,,
12.9062500000,1,0.0786361694,,,
12.9218750000,1,0.1142043993,,,
12.9375000000,1,0.0878830031,,,
12.9531250000,1,-0.0116539001,,,
12.9687500000,1,-0.1458968967,,,
12.9843750000,1,-0.2469673008,,,
13.0000000000,1,-0.2483253032,,,
13.0156250000,1,-0.1448325962,,,
13.0312500000,1,0.0196418799,,,
13.0468750000,1,0.1591453999,,,
13.0625000000,1,0.2002487034,,,
13.0781250000,1,0.1435355991,,,
13.0937500000,1,0.0461997986,,,
13.1093750000,1,0.0000228882,,,
13.1250000000,1,0.0647506714,,,
13.1406250000,1,0.2378043979,,,
13.1562500000,1,0.4518508911,,,
13.1718750000,1,0.6098480225,,,
13.1875000000,1,0.6378669739,,,
13.2031250000,1,0.5108718872,,,
13.2187500000,1,0.2544822991,,,
13.2343750000,1,-0.0673065186,,,
13.2500000000,1,-0.3882369995,,,
13.2656250000,1,-0.6405143738,,,
13.2812500000,1,-0.7702713013,,,
13.2968750000,1,-0.7398185730,,,
13.3125000000,1,-0.5438117981,,,
13.3281250000,1,-0.2097167969,,,
13.3437500000,1,0.2003517002,,,
13.3593750000,1,0.5849266052,,,
13.3750000000,1,0.8686676025,,,
13.3906250000,1,1.0174479485,,,
13.4062500000,1,1.0753940344,,,
13.4218750000,1,1.1158180237,,,
13.4375000000,1,1.2043499947,,,
13.4531250000,1,1.3398129940,,,
13.4687500000,1,1.4449160099,,,
13.4843750000,1,1.3961410522,,,
13.5000000000,1,1.1087950468,,,
13.5156250000,1,0.5795403123,,,
13.5312500000,1,-0.0758132935,,,
13.5468750000,1,-0.6743125916,,,
13.5625000000,1,-1.0557559729,,,
13.5781250000,1,-1.1608239412,,,
13.5937500000,1,-1.0724140406,,,
13.6093750000,1,-0.9466667175,,,
13.6250000000,1,-0.9348105788,,,
13.6406250000,1,-1.0918879509,,,
13.6562500000,1,-1.3368339539,,,
13.6718750000,1,-1.5220379829,,,
13.6875000000,1,-1.5077589750,,,
13.7031250000,1,-1.2375489473,,,
13.7187500000,1,-0.7683715820,,,
13.7343750000,1,-0.2356148064,,,
13.7500000000,1,0.2112579048,,,
13.7656250000,1,0.4634056091,,,
13.7812500000,1,0.4825974107,,,
13.7968750000,1,0.3133811951,,,
13.8125000000,1,0.0475234985,,,
13.8281250000,1,-0.1980704963,,,
13.8437500000,1,-0.3114432991,,,
13.8593750000,1,-0.2229232937,,,
13.8750000000,1,0.0679817200,,,
13.8906250000,1,0.4956932068,,,
13.9062500000,1,0.9398726821,,,
13.9218750000,1,1.2770580053,,,
13.9375000000,1,1.4202350378,,,
13.9531250000,1,1.3437269926,,,
13.9687500000,1,1.0813560486,,,
13.9843750000,1,0.7138062119,,,
14.0000000000,1,0.3351784050,,,
14.0156250000,1,0.0152397202,,,
14.0312500000,1,-0.2014732063,,,
14.0468750000,1,-0.3275909126,,,
14.0625000000,1,-0.4049338996,,,
14.0781250000,1,-0.4649010003,,,
14.0937500000,1,-0.5078964233,,,
14.1093750000,1,-0.4777260125,,,
14.1250000000,1,-0.3235206902,,,
14.1406250000,1,-0.0473327599,,,
14.1562500000,1,0.2753868103,,,
14.1718750000,1,0.5146980286,,,
14.1875000000,1,0.5507621765,,,
14.2031250000,1,0.3658713996,,,
14.2187500000,1,0.0460739098,,,
14.2343750000,1,-0.2566832900,,,
14.2500000000,1,-0.4158172905,,,
14.2656250000,1,-0.3968620002,,,
14.2812500000,1,-0.2729415894,,,
14.2968750000,1,-0.1500968933,,,
14.3125000000,1,-0.1079368964,,,
14.3281250000,1,-0.1507492065,,,
14.3437500000,1,-0.2313423008,,,
14.3593750000,1,-0.2866249084,,,
14.3750000000,1,-0.2876319885,,,
14.3906250000,1,-0.2304535061,,,
14.4062500000,1,-0.1239890978,,,
14.4218750000,1,0.0300216693,,,
14.4375000000,1,0.2403946072,,,
14.4531250000,1,0.4927825928,,,
14.4687500000,1,0.7292938232,,,
14.4843750000,1,0.8709334731,,,
14.5000000000,1,0.8425331116,,,
14.5156250000,1,0.6125069261,,,
14.5312500000,1,0.2318191975,,,
14.5468750000,1,-0.2092667073,,,
14.5625000000,1,-0.6209105849,,,
14.5781250000,1,-0.9343224168,,,
14.5937500000,1,-1.1660920382,,,
14.6093750000,1,-1.3527150154,,,
14.6250000000,1,-1.5236819983,,,
14.6406250000,1,-1.6739350557,,,
14.6562500000,1,-1.7503809929,,,
14.6718750000,1,-1.6947170496,,,
14.6875000000,1,-1.4936640263,,,
14.7031250000,1,-1.1907420158,,,
14.7187500000,1,-0.8683701158,,,
14.7343750000,1,-0.5899695754,,,
14.7500000000,1,-0.3758392036,,,
14.7656250000,1,-0.2022400051,,,
14.7812500000,1,-0.0443572998,,,
14.7968750000,1,0.1025734022,,,
14.8125000000,1,0.2028426975,,,
14.8281250000,1,0.2286835015,,,
14.8437500000,1,0.1882324070,,,
14.8593750000,1,0.1290092021,,,
14.8750000000,1,0.1094627008,,,
14.8906250000,1,0.1546172947,,,
14.9062500000,1,0.2336997986,,,
14.9218750000,1,0.2813911140,,,
14.9375000000,1,0.2515411079,,,
14.9531250000,1,0.1501311958,,,
14.9687500000,1,0.0448188782,,,
14.9843750000,1,0.0106277503,,,
15.0000000000,1,0.0920753479,,,
15.0156250000,1,0.2840462029,,,
15.0312500000,1,0.5453568101,,,
15.0468750000,1,0.8222504258,,,
15.0625000000,1,1.0612410307,,,
15.0781250000,1,1.2337880135,,,
15.0937500000,1,1.2993350029,,,
15.1093750000,1,1.2160259485,,,
15.1250000000,1,0.9803581238,,,
15.1406250000,1,0.6340522766,,,
15.1562500000,1,0.2762221992,,,
15.1718750000,1,0.0325202905,,,
15.1875000000,1,-0.0035362239,,,
15.2031250000,1,0.1714248955,,,
15.2187500000,1,0.4761695862,,,
15.2343750000,1,0.7805594802,,,
15.2500000000,1,0.9591941833,,,
15.2656250000,1,0.9678534865,,,
15.2812500000,1,0.8423500061,,,
15.2968750000,1,0.6739540100,,,
15.3125000000,1,0.5500488281,,,
15.3281250000,1,0.5013809204,,,
15.3437500000,1,0.4969596863,,,
15.3593750000,1,0.4760132134,,,
15.3750000000,1,0.3935013115,,,
15.3906250000,1,0.2724494934,,,
15.4062500000,1,0.1695861965,,,
15.4218750000,1,0.1474570930,,,
15.4375000000,1,0.2145767063,,,
15.4531250000,1,0.3080559075,,,
15.4687500000,1,0.3313637078,,,
15.4843750000,1,0.2094687968,,,
15.5000000000,1,-0.0485038795,,,
15.5156250000,1,-0.3353806138,,,
15.5312500000,1,-0.4960097969,,,
15.5468750000,1,-0.4251823127,,,
15.5625000000,1,-0.1238327026,,,
15.5781250000,1,0.3051033020,,,
15.5937500000,1,0.7084274292,,,
15.6093750000,1,0.9757347107,,,
15.6250000000,1,1.0927430391,,,
15.6406250000,1,1.1344449520,,,
15.6562500000,1,1.1614910364,,,
15.6718750000,1,1.1657329798,,,
15.6875000000,1,1.0543669462,,,
15.7031250000,1,0.7182465196,,,
15.7187500000,1,0.1368712932,,,
15.7343750000,1,-0.5802459717,,,
15.7500000000,1,-1.2388919592,,,
15.7656250000,1,-1.6559489965,,,
15.7812500000,1,-1.7556689978,,,
15.7968750000,1,-1.6283190250,,,
15.8125000000,1,-1.4380229712,,,
15.8281250000,1,-1.3443340063,,,
15.8437500000,1,-1.4056129456,,,
15.8593750000,1,-1.5636899471,,,
15.8750000000,1,-1.6962319613,,,
15.8906250000,1,-1.6802409887,,,
15.9062500000,1,-1.4794499874,,,
15.9218750000,1,-1.1342509985,,,
15.9375000000,1,-0.7412605286,,,
15.9531250000,1,-0.4004440010,,,
15.9687500000,1,-0.1650771946,,,
15.9843750000,1,-0.0265693702,,,
16.0000000000,2,0.0569458008,,,
16.0156250000,2,0.1277465969,,,
16.0312500000,2,0.2000579983,,,
16.0468750000,2,0.2388686985,,,
16.0625000000,2,0.1809044033,,,
16.0781250000,2,0.0076103210,,,
16.0937500000,2,-0.2432364970,,,
16.1093750000,2,-0.4632301033,,,
16.1250000000,2,-0.5443840027,,,
16.1406250000,2,-0.4395866096,,,
16.1562500000,2,-0.2007637024,,,
16.1718750000,2,0.0490531884,,,
16.1875000000,2,0.1877135932,,,
16.2031250000,2,0.1471672058,,,
16.2187500000,2,-0.0670089722,,,
16.2343750000,2,-0.3762320876,,,
16.2500000000,2,-0.6939048767,,,
16.2656250000,2,-0.9485663772,,,
16.2812500000,2,-1.0861740112,,,
16.2968750000,2,-1.0798909664,,,
16.3125000000,2,-0.9144896865,,,
16.3281250000,2,-0.6078606248,,,
16.3437500000,2,-0.2150115967,,,
16.3593750000,2,0.1569290012,,,
16.3750000000,2,0.4006843865,,,
16.3906250000,2,0.4535179138,,,
16.4062500000,2,0.3381004035,,,
16.4218750000,2,0.1518706977,,,
16.4375000000,2,0.0283660907,,,
16.4531250000,2,0.0548782311,,,
16.4687500000,2,0.2242431939,,,
16.4843750000,2,0.4509620965,,,
16.5000000000,2,0.6093102098,,,
16.5156250000,2,0.6106339097,,,
16.5312500000,2,0.4330062866,,,
16.5468750000,2,0.1431770027,,,
16.5625000000,2,-0.1445122063,,,
16.5781250000,2,-0.3243027031,,,
16.5937500000,2,-0.3441658020,,,
16.6093750000,2,-0.2273598015,,,
16.6250000000,2,-0.0408134498,,,
16.6406250000,2,0.1468925029,,,
16.6562500000,2,0.2969512939,,,
16.6718750000,2,0.3836478889,,,
16.6875000000,2,0.4094466865,,,
16.7031250000,2,0.3867911994,,,
16.7187500000,2,0.3321799934,,,
16.7343750000,2,0.2804526985,,,
16.7500000000,2,0.2655945122,,,
16.7656250000,2,0.3240318000,,,
16.7812500000,2,0.4547461867,,,
16.7968750000,2,0.6175003052,,,
16.8125000000,2,0.7331848145,,,
16.8281250000,2,0.7329940796,,,
16.8437500000,2,0.6089096069,,,
16.8593750000,2,0.4269714057,,,
16.8750000000,2,0.2997474968,,,
16.8906250000,2,0.3112221062,,,
16.9062500000,2,0.4661712945,,,
16.9218750000,2,0.6703109741,,,
16.9375000000,2,0.8151587844,,,
16.9531250000,2,0.8480948806,,,
16.9687500000,2,0.8069571853,,,
16.9843750000,2,0.7941132188,,,
17.0000000000,2,0.8873711228,,,
17.0156250000,2,1.0799709558,,,
17.0312500000,2,1.2631189823,,,
17.0468750000,2,1.3064229488,,,
17.0625000000,2,1.1329120398,,,
17.0781250000,2,0.7419509888,,,
17.0937500000,2,0.2222137004,,,
17.1093750000,2,-0.3272095025,,,
17.1250000000,2,-0.8333206177,,,
17.1406250000,2,-1.2509189844,,,
17.1562500000,2,-1.5330430269,,,
17.1718750000,2,-1.6412320137,,,
17.1875000000,2,-1.5361479521,,,
17.2031250000,2,-1.2184720039,,,
17.2187500000,2,-0.7506179810,,,
17.2343750000,2,-0.2381629944,,,
17.2500000000,2,0.1898536980,,,
17.2656250000,2,0.4443702996,,,
17.2812500000,2,0.5069733262,,,
17.2968750000,2,0.4333496094,,,
17.3125000000,2,0.3251610100,,,
17.3281250000,2,0.2782326043,,,
17.3437500000,2,0.3274536133,,,
17.3593750000,2,0.4371376038,,,
17.3750000000,2,0.5118331909,,,
17.3906250000,2,0.4587708116,,,
17.4062500000,2,0.2452621013,,,
17.4218750000,2,-0.0980415270,,,
17.4375000000,2,-0.4702529907,,,
17.4531250000,2,-0.7734565735,,,
17.4687500000,2,-0.9616736770,,,
17.4843750000,2,-1.0472450256,,,
17.5000000000,2,-1.0733380318,,,
17.5156250000,2,-1.0459209681,,,
17.5312500000,2,-0.9365844727,,,
17.5468750000,2,-0.7084999084,,,
17.5625000000,2,-0.3725928962,,,
17.5781250000,2,-0.0086975098,,,
17.5937500000,2,0.2619132996,,,
17.6093750000,2,0.3455275893,,,
17.6250000000,2,0.2413367927,,,
17.6406250000,2,0.0361137390,,,
17.6562500000,2,-0.1347465962,,,
17.6718750000,2,-0.1847763062,,,
17.6875000000,2,-0.1007957011,,,
17.7031250000,2,0.0650901794,,,
17.7187500000,2,0.2366257012,,,
17.7343750000,2,0.3651275933,,,
17.7500000000,2,0.4434852898,,,
17.7656250000,2,0.4817810059,,,
17.7812500000,2,0.4805831909,,,
17.7968750000,2,0.4272575080,,,
17.8125000000,2,0.3085441887,,,
17.8281250000,2,0.1312866062,,,
17.8437500000,2,-0.0637283325,,,
17.8593750000,2,-0.2092247009,,,
17.8750000000,2,-0.2477225959,,,
17.8906250000,2,-0.1566544026,,,
17.9062500000,2,0.0266952496,,,
17.9218750000,2,0.2222785950,,,
17.9375000000,2,0.3346939087,,,
17.9531250000,2,0.2971496880,,,
17.9687500000,2,0.1138916016,,,
17.9843750000,2,-0.1302910000,,,
18.0000000000,2,-0.3094863892,,,
18.0156250000,2,-0.3006325066,,,
18.0312500000,2,-0.0440979004,,,
18.0468750000,2,0.4059714973,,,
18.0625000000,2,0.9017143250,,,
18.0781250000,2,1.2611240149,,,
18.0937500000,2,1.3266719580,,,
18.1093750000,2,1.0365099907,,,
18.1250000000,2,0.4523087144,,,
18.1406250000,2,-0.2878837883,,,
18.1562500000,2,-1.0025670528,,,
18.1718750000,2,-1.5478739738,,,
18.1875000000,2,-1.8379479647,,,
18.2031250000,2,-1.8524169922,,,
18.2187500000,2,-1.6259570122,,,
18.2343750000,2,-1.2106440067,,,
18.2500000000,2,-0.6667479873,,,
18.2656250000,2,-0.0581092797,,,
18.2812500000,2,0.5228996277,,,
18.2968750000,2,0.9770432115,,,
18.3125000000,2,1.2115939856,,,
18.3281250000,2,1.1830250025,,,
18.3437500000,2,0.9278792739,,,
18.3593750000,2,0.5731468201,,,
18.3750000000,2,0.2930068970,,,
18.3906250000,2,0.2536849976,,,
18.4062500000,2,0.5127524734,,,
18.4218750000,2,1.0104680061,,,
18.4375000000,2,1.5769230127,,,
18.4531250000,2,1.9993629456,,,
18.4687500000,2,2.1036798954,,,
18.4843750000,2,1.8364870548,,,
18.5000000000,2,1.2696460485,,,
18.5156250000,2,0.5619621277,,,
18.5312500000,2,-0.1074448004,,,
18.5468750000,2,-0.6217002869,,,
18.5625000000,2,-0.9619560242,,,
18.5781250000,2,-1.1866300106,,,
18.5937500000,2,-1.3753169775,,,
18.6093750000,2,-1.5634310246,,,
18.6250000000,2,-1.7133560181,,,
18.6406250000,2,-1.7549439669,,,
18.6562500000,2,-1.6213649511,,,
18.6718750000,2,-1.3196909428,,,
18.6875000000,2,-0.9297065735,,,
18.7031250000,2,-0.5532379150,,,
18.7187500000,2,-0.2790069878,,,
18.7343750000,2,-0.1346053928,,,
18.7500000000,2,-0.1065597981,,,
18.7656250000,2,-0.1557236016,,,
18.7812500000,2,-0.2634583116,,,
18.7968750000,2,-0.4303894043,,,
18.8125000000,2,-0.6452980042,,,
18.8281250000,2,-0.8732872009,,,
18.8437500000,2,-1.0378340483,,,
18.8593750000,2,-1.0652730465,,,
18.8750000000,2,-0.9270172119,,,
18.8906250000,2,-0.6496468186,,,
18.9062500000,2,-0.3289833069,,,
18.9218750000,2,-0.0524444617,,,
18.9375000000,2,0.1383170933,,,
18.9531250000,2,0.2672882080,,,
18.9687500000,2,0.3781051934,,,
18.9843750000,2,0.4932137132,,,
19.0000000000,2,0.5768660903,,,
19.0156250000,2,0.5516052246,,,
19.0312500000,2,0.3569984138,,,
19.0468750000,2,0.0158538800,,,
19.0625000000,2,-0.3482551873,,,
19.0781250000,2,-0.5748252869,,,
19.0937500000,2,-0.5350379944,,,
19.1093750000,2,-0.2008780986,,,
19.1250000000,2,0.3491401970,,,
19.1406250000,2,0.9535828233,,,
19.1562500000,2,1.4551470280,,,
19.1718750000,2,1.7434769869,,,
19.1875000000,2,1.7928580046,,,
19.2031250000,2,1.6474950314,,,
19.2187500000,2,1.3882100582,,,
19.2343750000,2,1.1000859737,,,
19.2500000000,2,0.8370056152,,,
19.2656250000,2,0.6151772141,,,
19.2812500000,2,0.4248009026,,,
19.2968750000,2,0.2465973049,,,
19.3125000000,2,0.0935783386,,,
19.3281250000,2,-0.0038032529,,,
19.3437500000,2,0.0079193125,,,
19.3593750000,2,0.1593551934,,,
19.3750000000,2,0.4193001091,,,
19.3906250000,2,0.6992874146,,,
19.4062500000,2,0.8806877136,,,
19.4218750000,2,0.8729820251,,,
19.4375000000,2,0.6630821228,,,
19.4531250000,2,0.3220633864,,,
19.4687500000,2,-0.0378265418,,,
19.4843750000,2,-0.3133240044,,,
19.5000000000,2,-0.4582253098,,,
19.5156250000,2,-0.4916076958,,,
19.5312500000,2,-0.4718169868,,,
19.5468750000,2,-0.4558753967,,,
19.5625000000,2,-0.4617615044,,,
19.5781250000,2,-0.4592666924,,,
19.5937500000,2,-0.4102669060,,,
19.6093750000,2,-0.3069801033,,,
19.6250000000,2,-0.1878280938,,,
19.6406250000,2,-0.1172180027,,,
19.6562500000,2,-0.1370583028,,,
19.6718750000,2,-0.2363166958,,,
19.6875000000,2,-0.3418846130,,,
19.7031250000,2,-0.3903121948,,,
19.7187500000,2,-0.3697547913,,,
19.7343750000,2,-0.3363952935,,,
19.7500000000,2,-0.3765793145,,,
19.7656250000,2,-0.5258789063,,,
19.7812500000,2,-0.7466086745,,,
19.7968750000,2,-0.9306488037,,,
19.8125000000,2,-0.9811667800,,,
19.8281250000,2,-0.8890761733,,,
19.8437500000,2,-0.7498245239,,,
19.8593750000,2,-0.7017021179,,,
19.8750000000,2,-0.8210411072,,,
19.8906250000,2,-1.0672990084,,,
19.9062500000,2,-1.2806630135,,,
19.9218750000,2,-1.3016200066,,,
19.9375000000,2,-1.0432089567,,,
19.9531250000,2,-0.5674858093,,,
19.9687500000,2,-0.0418434106,,,
19.9843750000,2,0.3530158997,,,
20.0000000000,2,0.5203093886,,,
20.0156250000,2,0.4742279053,,,
20.0312500000,2,0.3206596076,,,
20.0468750000,2,0.1805191040,,,
20.0625000000,2,0.1265639961,,,
20.0781250000,2,0.1638489068,,,
20.0937500000,2,0.2313652039,,,
20.1093750000,2,0.2570038140,,,
20.1250000000,2,0.2051544040,,,
20.1406250000,2,0.1105842963,,,
20.1562500000,2,0.0666007996,,,
20.1718750000,2,0.1558417976,,,
20.1875000000,2,0.4042549133,,,
20.2031250000,2,0.7264404297,,,
20.2187500000,2,0.9622306824,,,
20.2343750000,2,0.9602509141,,,
20.2500000000,2,0.6728705764,,,
20.2656250000,2,0.2074470967,,,
20.2812500000,2,-0.2312964946,,,
20.2968750000,2,-0.4412117004,,,
20.3125000000,2,-0.3404617012,,,
20.3281250000,2,-0.0005378723,,,
20.3437500000,2,0.4009590149,,,
20.3593750000,2,0.6791762710,,,
20.3750000000,2,0.7602577209,,,
20.3906250000,2,0.6851729751,,,
20.4062500000,2,0.5678864121,,,
20.4218750000,2,0.4792746902,,,
20.4375000000,2,0.4270972908,,,
20.4531250000,2,0.3489837945,,,
20.4687500000,2,0.2037467957,,,
20.4843750000,2,0.0221595801,,,
20.5000000000,2,-0.0956993103,,,
20.5156250000,2,-0.0442390405,,,
20.5312500000,2,0.2164040059,,,
20.5468750000,2,0.5932654738,,,
20.5625000000,2,0.9250069261,,,
20.5781250000,2,1.0331150293,,,
20.5937500000,2,0.8325042725,,,
20.6093750000,2,0.3754883111,,,
20.6250000000,2,-0.1804008037,,,
20.6406250000,2,-0.6558799744,,,
20.6562500000,2,-0.9216728210,,,
20.6718750000,2,-0.9597358704,,,
20.6875000000,2,-0.8401222229,,,
20.7031250000,2,-0.6630936265,,,
20.7187500000,2,-0.5096588135,,,
20.7343750000,2,-0.4050292969,,,
20.7500000000,2,-0.3383750916,,,
20.7656250000,2,-0.2874794006,,,
20.7812500000,2,-0.2324104011,,,
20.7968750000,2,-0.1744803935,,,
20.8125000000,2,-0.1237410977,,,
20.8281250000,2,-0.0895614624,,,
20.8437500000,2,-0.0652732775,,,
20.8593750000,2,-0.0577011108,,,
20.8750000000,2,-0.0702018663,,,
20.8906250000,2,-0.1095084995,,,
20.9062500000,2,-0.1805724949,,,
20.9218750000,2,-0.2836838067,,,
20.9375000000,2,-0.4025611877,,,
20.9531250000,2,-0.5138474107,,,
20.9687500000,2,-0.5898780823,,,
20.9843750000,2,-0.6009674072,,,
21.0000000000,2,-0.5365409851,,,
21.0156250000,2,-0.4144630134,,,
21.0312500000,2,-0.2815704048,,,
21.0468750000,2,-0.2178267986,,,
21.0625000000,2,-0.2573395073,,,
21.0781250000,2,-0.4018439949,,,
21.0937500000,2,-0.5816382766,,,
21.1093750000,2,-0.6970940232,,,
21.1250000000,2,-0.6626396179,,,
21.1406250000,2,-0.4544411004,,,
21.1562500000,2,-0.1155242994,,,
21.1718750000,2,0.2648163140,,,
21.1875000000,2,0.5999717712,,,
21.2031250000,2,0.8426743150,,,
21.2187500000,2,0.9921798706,,,
21.2343750000,2,1.0893859863,,,
21.2500000000,2,1.1758580208,,,
21.2656250000,2,1.2652050257,,,
21.2812500000,2,1.3357280493,,,
21.2968750000,2,1.3449100256,,,
21.3125000000,2,1.2631150484,,,
21.3281250000,2,1.1032489538,,,
21.3437500000,2,0.9276313782,,,
21.3593750000,2,0.8033714294,,,
21.3750000000,2,0.7761421204,,,
21.3906250000,2,0.8244742751,,,
21.4062500000,2,0.8742790222,,,
21.4218750000,2,0.8140602112,,,
21.4375000000,2,0.5718688965,,,
21.4531250000,2,0.1619568020,,,
21.4687500000,2,-0.3156814873,,,
21.4843750000,2,-0.7103577256,,,
21.5000000000,2,-0.9123917222,,,
21.5156250000,2,-0.9084548950,,,
21.5312500000,2,-0.7762299180,,,
21.5468750000,2,-0.6475334167,,,
21.5625000000,2,-0.6113852859,,,
21.5781250000,2,-0.6629943848,,,
21.5937500000,2,-0.7262229919,,,
21.6093750000,2,-0.6983451843,,,
21.6250000000,2,-0.5346642137,,,
21.6406250000,2,-0.2880096138,,,
21.6562500000,2,-0.0724334717,,,
21.6718750000,2,-0.0115127601,,,
21.6875000000,2,-0.1483840942,,,
21.7031250000,2,-0.4242821038,,,
21.7187500000,2,-0.6998023987,,,
21.7343750000,2,-0.8276711106,,,
21.7500000000,2,-0.7193222046,,,
21.7656250000,2,-0.3744659126,,,
21.7812500000,2,0.1242408976,,,
21.7968750000,2,0.6676712036,,,
21.8125000000,2,1.1343610287,,,
21.8281250000,2,1.4343570471,,,
21.8437500000,2,1.5115779638,,,
21.8593750000,2,1.3444479704,,,
21.8750000000,2,0.9573593140,,,
21.8906250000,2,0.4033966064,,,
21.9062500000,2,-0.2330780029,,,
21.9218750000,2,-0.8639525771,,,
21.9375000000,2,-1.3905220032,,,
21.9531250000,2,-1.7231750488,,,
21.9687500000,2,-1.7914119959,,,
21.9843750000,2,-1.5690079927,,,
22.0000000000,2,-1.0930789709,,,
22.0156250000,2,-0.4568786919,,,
22.0312500000,2,0.2256584018,,,
22.0468750000,2,0.8686676025,,,
22.0625000000,2,1.4163089991,,,
22.0781250000,2,1.8311879635,,,
22.0937500000,2,2.0595250130,,,
22.1093750000,2,2.0378758907,,,
22.1250000000,2,1.7290879488,,,
22.1406250000,2,1.1666680574,,,
22.1562500000,2,0.4733046889,,,
22.1718750000,2,-0.1710014045,,,
22.1875000000,2,-0.6076545715,,,
22.2031250000,2,-0.7629203796,,,
22.2187500000,2,-0.6782073975,,,
22.2343750000,2,-0.4735909104,,,
22.2500000000,2,-0.2768593132,,,
22.2656250000,2,-0.1662216038,,,
22.2812500000,2,-0.1639328003,,,
22.2968750000,2,-0.2414931953,,,
22.3125000000,2,-0.3670349121,,,
22.3281250000,2,-0.5118293762,,,
22.3437500000,2,-0.6430892944,,,
22.3593750000,2,-0.7238044739,,,
22.3750000000,2,-0.7285346985,,,
22.3906250000,2,-0.6646500230,,,
22.4062500000,2,-0.5811614990,,,
22.4218750000,2,-0.5481262207,,,
22.4375000000,2,-0.6074181199,,,
22.4531250000,2,-0.7375488281,,,
22.4687500000,2,-0.8593407273,,,
22.4843750000,2,-0.8881493211,,,
22.5000000000,2,-0.7791252136,,,
22.5156250000,2,-0.5639266968,,,
22.5312500000,2,-0.3457526863,,,
22.5468750000,2,-0.2308578044,,,
22.5625000000,2,-0.2777175903,,,
22.5781250000,2,-0.4617004097,,,
22.5937500000,2,-0.6860160828,,,
22.6093750000,2,-0.8385047913,,,
22.6250000000,2,-0.8422508240,,,
22.6406250000,2,-0.6966285706,,,
22.6562500000,2,-0.4664573967,,,
22.6718750000,2,-0.2381172031,,,
22.6875000000,2,-0.0779418871,,,
22.7031250000,2,0.0167045593,,,
22.7187500000,2,0.0890541077,,,
22.7343750000,2,0.2020377964,,,
22.7500000000,2,0.3941459954,,,
22.7656250000,2,0.6573218703,,,
22.7812500000,2,0.9341431260,,,
22.7968750000,2,1.1675419807,,,
22.8125000000,2,1.3118209839,,,
22.8281250000,2,1.3510249853,,,
22.8437500000,2,1.2822339535,,,
22.8593750000,2,1.1076350212,,,
22.8750000000,2,0.8418350220,,,
22.8906250000,2,0.5044097900,,,
22.9062500000,2,0.1645126045,,,
22.9218750000,2,-0.0948028564,,,
22.9375000000,2,-0.2040825039,,,
22.9531250000,2,-0.1506728977,,,
22.9687500000,2,-0.0052490230,,,
22.9843750000,2,0.1152611002,,,
23.0000000000,2,0.1197090000,,,
23.0156250000,2,0.0053253169,,,
23.0312500000,2,-0.1358069927,,,
23.0468750000,2,-0.1737518013,,,
23.0625000000,2,-0.0312843286,,,
23.0781250000,2,0.2521857917,,,
23.0937500000,2,0.5396956801,,,
23.1093750000,2,0.6796112061,,,
23.1250000000,2,0.5901718140,,,
23.1406250000,2,0.3226279914,,,
23.1562500000,2,0.0328826904,,,
23.1718750000,2,-0.1111297980,,,
23.1875000000,2,-0.0245399494,,,
23.2031250000,2,0.2498321980,,,
23.2187500000,2,0.5682411194,,,
23.2343750000,2,0.7642403245,,,
23.2500000000,2,0.7324408889,,,
23.2656250000,2,0.4598351121,,,
23.2812500000,2,-0.0070648189,,,
23.2968750000,2,-0.5759124756,,,
23.3125000000,2,-1.1745259762,,,
23.3281250000,2,-1.7246890068,,,
23.3437500000,2,-2.1401441097,,,
23.3593750000,2,-2.3190269470,,,
23.3750000000,2,-2.1789019108,,,
23.3906250000,2,-1.7215650082,,,
23.4062500000,2,-1.0367850065,,,
23.4218750000,2,-0.2988510132,,,
23.4375000000,2,0.3135719001,,,
23.4531250000,2,0.6886940002,,,
23.4687500000,2,0.8204308152,,,
23.4843750000,2,0.7860794067,,,
23.5000000000,2,0.6798477173,,,
23.5156250000,2,0.5567284226,,,
23.5312500000,2,0.4164466858,,,
23.5468750000,2,0.2277221978,,,
23.5625000000,2,-0.0163230896,,,
23.5781250000,2,-0.2549743950,,,
23.5937500000,2,-0.3972206116,,,
23.6093750000,2,-0.3591805100,,,
23.6250000000,2,-0.1416701972,,,
23.6406250000,2,0.1682776958,,,
23.6562500000,2,0.4455718994,,,
23.6718750000,2,0.6084480286,,,
23.6875000000,2,0.6529921889,,,
23.7031250000,2,0.6345481873,,,
23.7187500000,2,0.6197928786,,,
23.7343750000,2,0.6158065796,,,
23.7500000000,2,0.5750771165,,,
23.7656250000,2,0.4387893975,,,
23.7812500000,2,0.1830482036,,,
23.7968750000,2,-0.1238861009,,,
23.8125000000,2,-0.3619118035,,,
23.8281250000,2,-0.4367370903,,,
23.8437500000,2,-0.3316650093,,,
23.8593750000,2,-0.1152954027,,,
23.8750000000,2,0.1011276022,,,
23.8906250000,2,0.2344360054,,,
23.9062500000,2,0.2892990112,,,
23.9218750000,2,0.3187102973,,,
23.9375000000,2,0.3842734993,,,
23.9531250000,2,0.4946213067,,,
23.9687500000,2,0.5928688049,,,
23.9843750000,2,0.6185112000,,,
24.0000000000,3,0.5400391221,,,
24.0156250000,3,0.3906554878,,,
24.0312500000,3,0.2475433052,,,
24.0468750000,3,0.1727180034,,,
24.0625000000,3,0.1438674927,,,
24.0781250000,3,0.0964126587,,,
24.0937500000,3,-0.0442276001,,,
24.1093750000,3,-0.2808533013,,,
24.1250000000,3,-0.5242652893,,,
24.1406250000,3,-0.6482086182,,,
24.1562500000,3,-0.5783004761,,,
24.1718750000,3,-0.3431434929,,,
24.1875000000,3,-0.0570945702,,,
24.2031250000,3,0.1351280063,,,
24.2187500000,3,0.1581383049,,,
24.2343750000,3,0.0240058899,,,
24.2500000000,3,-0.1969985962,,,
24.2656250000,3,-0.4158287048,,,
24.2812500000,3,-0.5767592788,,,
24.2968750000,3,-0.6587296128,,,
24.3125000000,3,-0.6322249770,,,
24.3281250000,3,-0.4840469062,,,
24.3437500000,3,-0.2061461955,,,
24.3593750000,3,0.1568946987,,,
24.3750000000,3,0.5059357285,,,
24.3906250000,3,0.7076339722,,,
24.4062500000,3,0.6790503860,,,
24.4218750000,3,0.4255562127,,,
24.4375000000,3,0.0457267798,,,
24.4531250000,3,-0.3099898994,,,
24.4687500000,3,-0.5211678147,,,
24.4843750000,3,-0.5263252258,,,
24.5000000000,3,-0.3304558098,,,
24.5156250000,3,0.0064964290,,,
24.5312500000,3,0.3997383118,,,
24.5468750000,3,0.7636185288,,,
24.5625000000,3,1.0176119804,,,
24.5781250000,3,1.1085590124,,,
24.5937500000,3,1.0307389498,,,
24.6093750000,3,0.8289070129,,,
24.6250000000,3,0.5720633864,,,
24.6406250000,3,0.3364104927,,,
24.6562500000,3,0.1572684944,,,
24.6718750000,3,0.0362319909,,,
24.6875000000,3,-0.0407180786,,,
24.7031250000,3,-0.0929450989,,,
24.7187500000,3,-0.1320800930,,,
24.7343750000,3,-0.1485901028,,,
24.7500000000,3,-0.1314850003,,,
24.7656250000,3,-0.0773620605,,,
24.7812500000,3,0.0214157104,,,
24.7968750000,3,0.1676483005,,,
24.8125000000,3,0.3722266853,,,
24.8281250000,3,0.6080626845,,,
24.8437500000,3,0.8143653870,,,
24.8593750000,3,0.8965569139,,,
24.8750000000,3,0.7832450867,,,
24.8906250000,3,0.4652900994,,,
24.9062500000,3,0.0209617596,,,
24.9218750000,3,-0.4125289917,,,
24.9375000000,3,-0.7159957886,,,
24.9531250000,3,-0.8423500061,,,
24.9687500000,3,-0.8309288025,,,
24.9843750000,3,-0.7710494995,,,
25.0000000000,3,-0.7302169800,,,
25.0156250000,3,-0.7260398865,,,
25.0312500000,3,-0.7364044189,,,
25.0468750000,3,-0.7330666184,,,
25.0625000000,3,-0.7134894729,,,
25.0781250000,3,-0.6999816895,,,
25.0937500000,3,-0.7056121826,,,
25.1093750000,3,-0.7207909226,,,
25.1250000000,3,-0.7238503098,,,
25.1406250000,3,-0.6869812012,,,
25.1562500000,3,-0.6241912842,,,
25.1718750000,3,-0.5556563735,,,
25.1875000000,3,-0.4890289009,,,
25.2031250000,3,-0.3870086968,,,
25.2187500000,3,-0.2000771016,,,
25.2343750000,3,0.1033745036,,,
25.2500000000,3,0.4895133972,,,
25.2656250000,3,0.8487358093,,,
25.2812500000,3,1.0511970520,,,
25.2968750000,3,1.0030779839,,,
25.3125000000,3,0.7233505249,,,
25.3281250000,3,0.3484916985,,,
25.3437500000,3,0.0632286072,,,
25.3593750000,3,0.0124282800,,,
25.3750000000,3,0.2281150967,,,
25.3906250000,3,0.6034737229,,,
25.4062500000,3,0.9456099868,,,
25.4218750000,3,1.0717120171,,,
25.4375000000,3,0.8858376145,,,
25.4531250000,3,0.4207726121,,,
25.4687500000,3,-0.1826134026,,,
25.4843750000,3,-0.7591323853,,,
25.5000000000,3,-1.1721229553,,,
25.5156250000,3,-1.3785209656,,,
25.5312500000,3,-1.4012529850,,,
25.5468750000,3,-1.2787250280,,,
25.5625000000,3,-1.0450359583,,,
25.5781250000,3,-0.7216948867,,,
25.5937500000,3,-0.3395423889,,,
25.6093750000,3,0.0357856788,,,
25.6250000000,3,0.3122482002,,,
25.6406250000,3,0.4163970947,,,
25.6562500000,3,0.3299294114,,,
25.6718750000,3,0.1096573025,,,
25.6875000000,3,-0.1401520073,,,
25.7031250000,3,-0.3209266961,,,
25.7187500000,3,-0.3798140883,,,
25.7343750000,3,-0.3249549866,,,
25.7500000000,3,-0.2061728984,,,
25.7656250000,3,-0.0856018066,,,
25.7812500000,3,0.0148239098,,,
25.7968750000,3,0.1112212986,,,
25.8125000000,3,0.2378197014,,,
25.8281250000,3,0.4172210991,,,
25.8437500000,3,0.6325377822,,,
25.8593750000,3,0.8335685730,,,
25.8750000000,3,0.9500045776,,,
25.8906250000,3,0.9336357117,,,
25.9062500000,3,0.7775421143,,,
25.9218750000,3,0.5412483215,,,
25.9375000000,3,0.3208160102,,,
25.9531250000,3,0.2322425991,,,
25.9687500000,3,0.3496437073,,,
25.9843750000,3,0.6696509719,,,
26.0000000000,3,1.1068650484,,,
26.0156250000,3,1.5129779577,,,
26.0312500000,3,1.7432370186,,,
26.0468750000,3,1.7216190100,,,
26.0625000000,3,1.4780240059,,,
26.0781250000,3,1.1108280420,,,
26.0937500000,3,0.7255020142,,,
26.1093750000,3,0.3821372986,,,
26.1250000000,3,0.0672950670,,,
26.1406250000,3,-0.2638511956,,,
26.1562500000,3,-0.6148604751,,,
26.1718750000,3,-0.9167671204,,,
26.1875000000,3,-1.0432319641,,,
26.2031250000,3,-0.9170876145,,,
26.2187500000,3,-0.5777968764,,,
26.2343750000,3,-0.1982268989,,,
26.2500000000,3,0.0011405940,,,
26.2656250000,3,-0.1180457994,,,
26.2812500000,3,-0.5349807739,,,
26.2968750000,3,-1.0752300024,,,
26.3125000000,3,-1.5083270073,,,
26.3281250000,3,-1.6782759428,,,
26.3437500000,3,-1.5801320076,,,
26.3593750000,3,-1.3167879581,,,
26.3750000000,3,-1.0532070398,,,
26.3906250000,3,-0.8877906799,,,
26.4062500000,3,-0.8294144273,,,
26.4218750000,3,-0.8148192763,,,
26.4375000000,3,-0.7702484131,,,
26.4531250000,3,-0.6543350220,,,
26.4687500000,3,-0.4843369126,,,
26.4843750000,3,-0.3079490960,,,
26.5000000000,3,-0.1728363037,,,
26.5156250000,3,-0.1172904968,,,
26.5312500000,3,-0.1778603047,,,
26.5468750000,3,-0.3739089966,,,
26.5625000000,3,-0.6936417222,,,
26.5781250000,3,-1.0505789518,,,
26.5937500000,3,-1.3218539953,,,
26.6093750000,3,-1.3906329870,,,
26.6250000000,3,-1.2159730196,,,
26.6406250000,3,-0.8601531982,,,
26.6562500000,3,-0.4516411126,,,
26.6718750000,3,-0.1055489033,,,
26.6875000000,3,0.1438827962,,,
26.7031250000,3,0.3530121148,,,
26.7187500000,3,0.6117553711,,,
26.7343750000,3,0.9515265822,,,
26.7500000000,3,1.3080639839,,,
26.7656250000,3,1.5623780489,,,
26.7812500000,3,1.6145900488,,,
26.7968750000,3,1.4555629492,,,
26.8125000000,3,1.1685680151,,,
26.8281250000,3,0.8470268250,,,
26.8437500000,3,0.5183830261,,,
26.8593750000,3,0.1568870991,,,
26.8750000000,3,-0.2861137092,,,
26.8906250000,3,-0.7723541260,,,
26.9062500000,3,-1.1620639563,,,
26.9218750000,3,-1.2814749479,,,
26.9375000000,3,-1.0209920406,,,
26.9531250000,3,-0.4148369133,,,
26.9687500000,3,0.3674277961,,,
26.9843750000,3,1.0832899809,,,
27.0000000000,3,1.5357969999,,,
27.0156250000,3,1.6427880526,,,
27.0312500000,3,1.4505729675,,,
27.0468750000,3,1.0901069641,,,
27.0625000000,3,0.6921730042,,,
27.0781250000,3,0.3360061944,,,
27.0937500000,3,0.0380935706,,,
27.1093750000,3,-0.2204589993,,,
27.1250000000,3,-0.4588280022,,,
27.1406250000,3,-0.6631203294,,,
27.1562500000,3,-0.7648543715,,,
27.1718750000,3,-0.6856765747,,,
27.1875000000,3,-0.3910675049,,,
27.2031250000,3,0.0700340271,,,
27.2187500000,3,0.5612639785,,,
27.2343750000,3,0.8991050720,,,
27.2500000000,3,0.9456787109,,,
27.2656250000,3,0.6983489990,,,
27.2812500000,3,0.2830123901,,,
27.2968750000,3,-0.0953254700,,,
27.3125000000,3,-0.2749556899,,,
27.3281250000,3,-0.2087630928,,,
27.3437500000,3,0.0104866000,,,
27.3593750000,3,0.2113876045,,,
27.3750000000,3,0.2632674873,,,
27.3906250000,3,0.1382178962,,,
27.4062500000,3,-0.0746917725,,,
27.4218750000,3,-0.2386168987,,,
27.4375000000,3,-0.2584457099,,,
27.4531250000,3,-0.1380386055,,,
27.4687500000,3,0.0281295795,,,
27.4843750000,3,0.1312637031,,,
27.5000000000,3,0.1101303026,,,
27.5156250000,3,-0.0035514829,,,
27.5312500000,3,-0.1349067986,,,
27.5468750000,3,-0.2065773010,,,
27.5625000000,3,-0.1996345967,,,
27.5781250000,3,-0.1564445049,,,
27.5937500000,3,-0.1364707947,,,
27.6093750000,3,-0.1738815010,,,
27.6250000000,3,-0.2481345981,,,
27.6406250000,3,-0.3325004876,,,
27.6562500000,3,-0.3837395012,,,
27.6718750000,3,-0.3868483901,,,
27.6875000000,3,-0.3478851020,,,
27.7031250000,3,-0.2979317009,,,
27.7187500000,3,-0.2754135132,,,
27.7343750000,3,-0.3209724128,,,
27.7500000000,3,-0.4459418952,,,
27.7656250000,3,-0.5991439819,,,
27.7812500000,3,-0.6824188232,,,
27.7968750000,3,-0.5607795715,,,
27.8125000000,3,-0.1644859016,,,
27.8281250000,3,0.4704056084,,,
27.8437500000,3,1.1862369776,,,
27.8593750000,3,1.7509119511,,,
27.8750000000,3,1.9812890291,,,
27.8906250000,3,1.8150440454,,,
27.9062500000,3,1.3528820276,,,
27.9218750000,3,0.8033980727,,,
27.9375000000,3,0.3814888000,,,
27.9531250000,3,0.2114562988,,,
27.9687500000,3,0.2972527146,,,
27.9843750000,3,0.5681648254,,,
28.0000000000,3,0.9109191895,,,
28.0156250000,3,1.2322620153,,,
28.0312500000,3,1.4558869600,,,
28.0468750000,3,1.5378379822,,,
28.0625000000,3,1.4357759953,,,
28.0781250000,3,1.1422200203,,,
28.0937500000,3,0.6983947754,,,
28.1093750000,3,0.1854896992,,,
28.1250000000,3,-0.2515335083,,,
28.1406250000,3,-0.4892235100,,,
28.1562500000,3,-0.4724425972,,,
28.1718750000,3,-0.2461777031,,,
28.1875000000,3,0.0691757202,,,
28.2031250000,3,0.3307380974,,,
28.2187500000,3,0.4410324097,,,
28.2343750000,3,0.3779487908,,,
28.2500000000,3,0.1740189046,,,
28.2656250000,3,-0.1175613031,,,
28.2812500000,3,-0.4829177856,,,
28.2968750000,3,-0.9132804871,,,
28.3125000000,3,-1.3681030273,,,
28.3281250000,3,-1.7443579435,,,
28.3437500000,3,-1.8971860409,,,
28.3593750000,3,-1.7250369787,,,
28.3750000000,3,-1.2346190214,,,
28.3906250000,3,-0.5829123855,,,
28.4062500000,3,0.0069313049,,,
28.4218750000,3,0.3347663879,,,
28.4375000000,3,0.3369750977,,,
28.4531250000,3,0.0773963928,,,
28.4687500000,3,-0.3041572869,,,
28.4843750000,3,-0.6668624878,,,
28.5000000000,3,-0.9343718886,,,
28.5156250000,3,-1.0817259550,,,
28.5312500000,3,-1.0975110531,,,
28.5468750000,3,-0.9647179246,,,
28.5625000000,3,-0.6698455811,,,
28.5781250000,3,-0.2540664971,,,
28.5937500000,3,0.1817626953,,,
28.6093750000,3,0.4775542915,,,
28.6250000000,3,0.5315703750,,,
28.6406250000,3,0.3392792046,,,
28.6562500000,3,0.0217094403,,,
28.6718750000,3,-0.2543410957,,,
28.6875000000,3,-0.3763161004,,,
28.7031250000,3,-0.3454780877,,,
28.7187500000,3,-0.2561492920,,,
28.7343750000,3,-0.2185973972,,,
28.7500000000,3,-0.2944984138,,,
28.7656250000,3,-0.4233436882,,,
28.7812500000,3,-0.4921836853,,,
28.7968750000,3,-0.3923264146,,,
28.8125000000,3,-0.0930976868,,,
28.8281250000,3,0.3347702026,,,
28.8437500000,3,0.7490233779,,,
28.8593750000,3,0.9969481826,,,
28.8750000000,3,1.0013810396,,,
28.8906250000,3,0.7753295898,,,
28.9062500000,3,0.4280968010,,,
28.9218750000,3,0.0954437330,,,
28.9375000000,3,-0.1093062982,,,
28.9531250000,3,-0.1415710002,,,
28.9687500000,3,-0.0331001282,,,
28.9843750000,3,0.1541976929,,,
29.0000000000,3,0.3545303047,,,
29.0156250000,3,0.5294799805,,,
29.0312500000,3,0.6777343750,,,
29.0468750000,3,0.8029860854,,,
29.0625000000,3,0.8973922729,,,
29.0781250000,3,0.9308815002,,,
29.0937500000,3,0.8650627136,,,
29.1093750000,3,0.6600723267,,,
29.1250000000,3,0.3202477098,,,
29.1406250000,3,-0.1134300008,,,
29.1562500000,3,-0.5606880188,,,
29.1718750000,3,-0.9299240112,,,
29.1875000000,3,-1.1478159428,,,
29.2031250000,3,-1.1869620085,,,
29.2187500000,3,-1.0760879517,,,
29.2343750000,3,-0.8836212158,,,
29.2500000000,3,-0.6925011277,,,
29.2656250000,3,-0.5399971008,,,
29.2812500000,3,-0.4123038948,,,
29.2968750000,3,-0.2754364014,,,
29.3125000000,3,-0.1109313965,,,
29.3281250000,3,0.0608482398,,,
29.3437500000,3,0.1805077046,,,
29.3593750000,3,0.1874313056,,,
29.3750000000,3,0.0690269470,,,
29.3906250000,3,-0.1304358989,,,
29.4062500000,3,-0.3382835090,,,
29.4218750000,3,-0.4857406914,,,
29.4375000000,3,-0.5335121155,,,
29.4531250000,3,-0.4758835137,,,
29.4687500000,3,-0.3280181885,,,
29.4843750000,3,-0.0990066528,,,
29.5000000000,3,0.1831894070,,,
29.5156250000,3,0.4660987854,,,
29.5312500000,3,0.6955109239,,,
29.5468750000,3,0.8262978196,,,
29.5625000000,3,0.8373451233,,,
29.5781250000,3,0.7380942702,,,
29.5937500000,3,0.5688781738,,,
29.6093750000,3,0.3606300056,,,
29.6250000000,3,0.1199645996,,,
29.6406250000,3,-0.1636810005,,,
29.6562500000,3,-0.4816016853,,,
29.6718750000,3,-0.7973288894,,,
29.6875000000,3,-1.0418510437,,,
29.7031250000,3,-1.1478079557,,,
29.7187500000,3,-1.0973470211,,,
29.7343750000,3,-0.9375762939,,,
29.7500000000,3,-0.7621840835,,,
29.7656250000,3,-0.6624526978,,,
29.7812500000,3,-0.6755676270,,,
29.7968750000,3,-0.7631607056,,,
29.8125000000,3,-0.8449974060,,,
29.8281250000,3,-0.8302916884,,,
29.8437500000,3,-0.6789473891,,,
29.8593750000,3,-0.4212265015,,,
29.8750000000,3,-0.1324577034,,,
29.8906250000,3,0.1130791008,,,
29.9062500000,3,0.2759284973,,,
29.9218750000,3,0.3642081916,,,
29.9375000000,3,0.4384346008,,,
29.9531250000,3,0.5403862000,,,
29.9687500000,3,0.6868094802,,,
29.9843750000,3,0.8582267761,,,
30.0000000000,3,0.9921988845,,,
30.0156250000,3,1.0140500069,,,
30.0312500000,3,0.8869057298,,,
30.0468750000,3,0.6250724792,,,
30.0625000000,3,0.2993851006,,,
30.0781250000,3,0.0125427200,,,
30.0937500000,3,-0.1506614983,,,
30.1093750000,3,-0.1511802971,,,
30.1250000000,3,-0.0066719060,,,
30.1406250000,3,0.2040634006,,,
30.1562500000,3,0.3982009888,,,
30.1718750000,3,0.4957886040,,,
30.1875000000,3,0.4631766975,,,
30.2031250000,3,0.3087233901,,,
30.2187500000,3,0.0820999071,,,
30.2343750000,3,-0.1723137051,,,
30.2500000000,3,-0.4063262939,,,
30.2656250000,3,-0.5744857788,,,
30.2812500000,3,-0.6481056213,,,
30.2968750000,3,-0.6157569885,,,
30.3125000000,3,-0.4903830886,,,
30.3281250000,3,-0.3198966980,,,
30.3437500000,3,-0.1568031013,,,
30.3593750000,3,-0.0326194800,,,
30.3750000000,3,0.0401802100,,,
30.3906250000,3,0.0743637085,,,
30.4062500000,3,0.0806465074,,,
30.4218750000,3,0.0554962195,,,
30.4375000000,3,0.0029335020,,,
30.4531250000,3,-0.0606269799,,,
30.4687500000,3,-0.0998191833,,,
30.4843750000,3,-0.0779037476,,,
30.5000000000,3,0.0196342506,,,
30.5156250000,3,0.1746177971,,,
30.5312500000,3,0.3315010071,,,
30.5468750000,3,0.4203071892,,,
30.5625000000,3,0.3978118896,,,
30.5781250000,3,0.2828522027,,,
30.5937500000,3,0.1294745952,,,
30.6093750000,3,0.0009574890,,,
30.6250000000,3,-0.0695953369,,,
30.6406250000,3,-0.0912666321,,,
30.6562500000,3,-0.0909500122,,,
30.6718750000,3,-0.0790023804,,,
30.6875000000,3,-0.0425415002,,,
30.7031250000,3,0.0466499291,,,
30.7187500000,3,0.2066994011,,,
30.7343750000,3,0.4190711975,,,
30.7500000000,3,0.6193733215,,,
30.7656250000,3,0.7286757827,,,
30.7812500000,3,0.6907768250,,,
30.7968750000,3,0.4923630059,,,
30.8125000000,3,0.1903571934,,,
30.8281250000,3,-0.1156577989,,,
30.8437500000,3,-0.3467139900,,,
30.8593750000,3,-0.4588164985,,,
30.8750000000,3,-0.4682998955,,,
30.8906250000,3,-0.4206924140,,,
30.9062500000,3,-0.3476333916,,,
30.9218750000,3,-0.2533187866,,,
30.9375000000,3,-0.1276855022,,,
30.9531250000,3,0.0525703393,,,
30.9687500000,3,0.2917900085,,,
30.9843750000,3,0.5584372878,,,
31.0000000000,3,0.8034592271,,,
31.0156250000,3,0.9800757766,,,
31.0312500000,3,1.0510029793,,,
31.0468750000,3,1.0004390478,,,
31.0625000000,3,0.8354377747,,,
31.0781250000,3,0.5690497756,,,
31.0937500000,3,0.2587318122,,,
31.1093750000,3,-0.0080451975,,,
31.1250000000,3,-0.1322097927,,,
31.1406250000,3,-0.0423889197,,,
31.1562500000,3,0.2624968886,,,
31.1718750000,3,0.6955528259,,,
31.1875000000,3,1.1163369417,,,
31.2031250000,3,1.3952289820,,,
31.2187500000,3,1.4520260096,,,
31.2343750000,3,1.3055759668,,,
31.2500000000,3,1.0263060331,,,
31.2656250000,3,0.6869544983,,,
31.2812500000,3,0.3247374892,,,
31.2968750000,3,-0.0591430701,,,
31.3125000000,3,-0.4788284004,,,
31.3281250000,3,-0.8841438293,,,
31.3437500000,3,-1.1953510046,,,
31.3593750000,3,-1.3113980293,,,
31.3750000000,3,-1.1770709753,,,
31.3906250000,3,-0.8478354812,,,
31.4062500000,3,-0.4599342048,,,
31.4218750000,3,-0.1618195027,,,
31.4375000000,3,-0.0343551598,,,
31.4531250000,3,-0.0632667467,,,
31.4687500000,3,-0.1499747932,,,
31.4843750000,3,-0.2108498067,,,
31.5000000000,3,-0.2115021050,,,
31.5156250000,3,-0.1826286018,,,
31.5312500000,3,-0.1897391975,,,
31.5468750000,3,-0.2494506985,,,
31.5625000000,3,-0.3003386855,,,
31.5781250000,3,-0.2526549995,,,
31.5937500000,3,-0.0520439111,,,
31.6093750000,3,0.2599411011,,,
31.6250000000,3,0.5578461289,,,
31.6406250000,3,0.6973267198,,,
31.6562500000,3,0.6277161241,,,
31.6718750000,3,0.4122161865,,,
31.6875000000,3,0.1960906982,,,
31.7031250000,3,0.0967559814,,,
31.7187500000,3,0.1416817009,,,
31.7343750000,3,0.2430458069,,,
31.7500000000,3,0.2835463881,,,
31.7656250000,3,0.1863898933,,,
31.7812500000,3,-0.0457954407,,,
31.7968750000,3,-0.3242455125,,,
31.8125000000,3,-0.5672492981,,,
31.8281250000,3,-0.7234001160,,,
31.8437500000,3,-0.8072357178,,,
31.8593750000,3,-0.8555945754,,,
31.8750000000,3,-0.8814507127,,,
31.8906250000,3,-0.8542746902,,,
31.9062500000,3,-0.7420920730,,,
31.9218750000,3,-0.5512886047,,,
31.9375000000,3,-0.3382301033,,,
31.9531250000,3,-0.2042846978,,,
31.9687500000,3,-0.2248611003,,,
31.9843750000,3,-0.4069137871,,,
32.0000000000,4,-0.6764411926,,,
32.0156250000,4,-0.9172592163,,,
32.0312500000,4,-1.0380820036,,,
32.0468750000,4,-1.0055119991,,,
32.0625000000,4,-0.8577461243,,,
32.0781250000,4,-0.6799126267,,,
32.0937500000,4,-0.5498542786,,,
32.1093750000,4,-0.4871940911,,,
32.1250000000,4,-0.4536324143,,,
32.1406250000,4,-0.3953818977,,,
32.1562500000,4,-0.2677994072,,,
32.1718750000,4,-0.0907669067,,,
32.1875000000,4,0.0625038072,,,
32.2031250000,4,0.1017951965,,,
32.2187500000,4,-0.0202026404,,,
32.2343750000,4,-0.2670097053,,,
32.2500000000,4,-0.5246391296,,,
32.2656250000,4,-0.6671524048,,,
32.2812500000,4,-0.6252098083,,,
32.2968750000,4,-0.4154548943,,,
32.3125000000,4,-0.1268806010,,,
32.3281250000,4,0.1381569058,,,
32.3437500000,4,0.3248404860,,,
32.3593750000,4,0.4295845032,,,
32.3750000000,4,0.4850960076,,,
32.3906250000,4,0.5151100159,,,
32.4062500000,4,0.5187072754,,,
32.4218750000,4,0.4828223884,,,
32.4375000000,4,0.4261932075,,,
32.4531250000,4,0.3922576904,,,
32.4687500000,4,0.4215050042,,,
32.4843750000,4,0.5124930739,,,
32.5000000000,4,0.5956192017,,,
32.5156250000,4,0.5770912170,,,
32.5312500000,4,0.3993529975,,,
32.5468750000,4,0.0924949571,,,
32.5625000000,4,-0.2271842957,,,
32.5781250000,4,-0.4437789917,,,
32.5937500000,4,-0.5029410720,,,
32.6093750000,4,-0.4508323967,,,
32.6250000000,4,-0.4001883864,,,
32.6406250000,4,-0.4518471062,,,
32.6562500000,4,-0.6140975952,,,
32.6718750000,4,-0.8111038208,,,
32.6875000000,4,-0.9217491150,,,
32.7031250000,4,-0.8470649719,,,
32.7187500000,4,-0.5848578811,,,
32.7343750000,4,-0.2165146023,,,
32.7500000000,4,0.1234283000,,,
32.7656250000,4,0.3259314895,,,
32.7812500000,4,0.3568038940,,,
32.7968750000,4,0.2598190010,,,
32.8125000000,4,0.1448440999,,,
32.8281250000,4,0.1288070977,,,
32.8437500000,4,0.2933310866,,,
32.8593750000,4,0.6491202712,,,
32.8750000000,4,1.1419260502,,,
32.8906250000,4,1.6592600346,,,
32.9062500000,4,2.0772209167,,,
32.9218750000,4,2.2835268974,,,
32.9375000000,4,2.2115058899,,,
32.9531250000,4,1.8410530090,,,
32.9687500000,4,1.2172659636,,,
32.9843750000,4,0.4531021118,,,
33.0000000000,4,-0.3071250916,,,
33.0156250000,4,-0.9025803208,,,
33.0312500000,4,-1.2268749475,,,
33.0468750000,4,-1.2483630180,,,
33.0625000000,4,-0.9974060059,,,
33.0781250000,4,-0.5646706223,,,
33.0937500000,4,-0.0410232507,,,
33.1093750000,4,0.4923439026,,,
33.1250000000,4,0.9558907151,,,
33.1406250000,4,1.2783429623,,,
33.1562500000,4,1.3955310583,,,
33.1718750000,4,1.2750929594,,,
33.1875000000,4,0.9412459731,,,
33.2031250000,4,0.4763489068,,,
33.2187500000,4,-0.0164451599,,,
33.2343750000,4,-0.4484443963,,,
33.2500000000,4,-0.7843781114,,,
33.2656250000,4,-1.0396499634,,,
33.2812500000,4,-1.2310069799,,,
33.2968750000,4,-1.3555760384,,,
33.3125000000,4,-1.3802829981,,,
33.3281250000,4,-1.2733609676,,,
33.3437500000,4,-1.0384559631,,,
33.3593750000,4,-0.7275925279,,,
33.3750000000,4,-0.4193420112,,,
33.3906250000,4,-0.1751900017,,,
33.4062500000,4,-0.0127410898,,,
33.4218750000,4,0.0879096985,,,
33.4375000000,4,0.1698188931,,,
33.4531250000,4,0.2565231025,,,
33.4687500000,4,0.3327293098,,,
33.4843750000,4,0.3623428047,,,
33.5000000000,4,0.3005638123,,,
33.5156250000,4,0.1447830051,,,
33.5312500000,4,-0.0585479699,,,
33.5468750000,4,-0.2305946052,,,
33.5625000000,4,-0.2720946968,,,
33.5781250000,4,-0.1229247972,,,
33.5937500000,4,0.2264328003,,,
33.6093750000,4,0.6989861131,,,
33.6250000000,4,1.1579359770,,,
33.6406250000,4,1.4617309570,,,
33.6562500000,4,1.5188410282,,,
33.6718750000,4,1.3470150232,,,
33.6875000000,4,1.0638730526,,,
33.7031250000,4,0.8265076280,,,
33.7187500000,4,0.7519112229,,,
33.7343750000,4,0.8604125977,,,
33.7500000000,4,1.0668179989,,,
33.7656250000,4,1.2272189856,,,
33.7812500000,4,1.2034070492,,,
33.7968750000,4,0.9268187881,,,
33.8125000000,4,0.4137496948,,,
33.8281250000,4,-0.2387237996,,,
33.8437500000,4,-0.9063072205,,,
33.8593750000,4,-1.4899940491,,,
33.8750000000,4,-1.9339369535,,,
33.8906250000,4,-2.2295269966,,,
33.9062500000,4,-2.3890841007,,,
33.9218750000,4,-2.4400749207,,,
33.9375000000,4,-2.3963050842,,,
33.9531250000,4,-2.2437438965,,,
33.9687500000,4,-1.9675600529,,,
33.9843750000,4,-1.5730550289,,,
34.0000000000,4,-1.1135640144,,,
34.0156250000,4,-0.7020378113,,,
34.0312500000,4,-0.4735412896,,,
34.0468750000,4,-0.5129737854,,,
34.0625000000,4,-0.8168067932,,,
34.0781250000,4,-1.2879600525,,,
34.0937500000,4,-1.7681499720,,,
34.1093750000,4,-2.1027948856,,,
34.1250000000,4,-2.2035450935,,,
34.1406250000,4,-2.0611610413,,,
34.1562500000,4,-1.7501410246,,,
34.1718750000,4,-1.3926769495,,,
34.1875000000,4,-1.1121480465,,,
34.2031250000,4,-0.9952697754,,,
34.2187500000,4,-1.0570909977,,,
34.2343750000,4,-1.2351759672,,,
34.2500000000,4,-1.4177780151,,,
34.2656250000,4,-1.4826580286,,,
34.2812500000,4,-1.3306959867,,,
34.2968750000,4,-0.9318695068,,,
34.3125000000,4,-0.3199805915,,,
34.3281250000,4,0.4391402900,,,
34.3437500000,4,1.2729339600,,,
34.3593750000,4,2.1361770630,,,
34.3750000000,4,2.9756131172,,,
34.3906250000,4,3.7214970589,,,
34.4062500000,4,4.2858729362,,,
34.4218750000,4,4.5914340019,,,
34.4375000000,4,4.6180338860,,,
34.4531250000,4,4.4196658134,,,
34.4687500000,4,4.0960497856,,,
34.4843750000,4,3.7475430965,,,
34.5000000000,4,3.4325289726,,,
34.5156250000,4,3.1602249146,,,
34.5312500000,4,2.9217000008,,,
34.5468750000,4,2.7377591133,,,
34.5625000000,4,2.6502799988,,,
34.5781250000,4,2.6849899292,,,
34.5937500000,4,2.8105089664,,,
34.6093750000,4,2.9258689880,,,
34.6250000000,4,2.8816149235,,,
34.6406250000,4,2.5539400578,,,
34.6562500000,4,1.9096720219,,,
34.6718750000,4,1.0306550264,,,
34.6875000000,4,0.0941505432,,,
34.7031250000,4,-0.7144318223,,,
34.7187500000,4,-1.2769429684,,,
34.7343750000,4,-1.5691870451,,,
34.7500000000,4,-1.6508289576,,,
34.7656250000,4,-1.6148680449,,,
34.7812500000,4,-1.5114820004,,,
34.7968750000,4,-1.3462680578,,,
34.8125000000,4,-1.1084669828,,,
34.8281250000,4,-0.8021736145,,,
34.8437500000,4,-0.4951095879,,,
34.8593750000,4,-0.2874831855,,,
34.8750000000,4,-0.2711296082,,,
34.8906250000,4,-0.4663543999,,,
34.9062500000,4,-0.7976303101,,,
34.9218750000,4,-1.1186519861,,,
34.9375000000,4,-1.2860529423,,,
34.9531250000,4,-1.2269710302,,,
34.9687500000,4,-0.9805908203,,,
34.9843750000,4,-0.6494330764,,,
35.0000000000,4,-0.3377341926,,,
35.0156250000,4,-0.1090125963,,,
35.0312500000,4,0.0339240991,,,
35.0468750000,4,0.1088638008,,,
35.0625000000,4,0.1206893995,,,
35.0781250000,4,0.0449180603,,,
35.0937500000,4,-0.1296959072,,,
35.1093750000,4,-0.3820762932,,,
35.1250000000,4,-0.6483535767,,,
35.1406250000,4,-0.8354110718,,,
35.1562500000,4,-0.8741416931,,,
35.1718750000,4,-0.7527542114,,,
35.1875000000,4,-0.5086898804,,,
35.2031250000,4,-0.2076759040,,,
35.2187500000,4,0.0972557068,,,
35.2343750000,4,0.4036484063,,,
35.2500000000,4,0.7394294739,,,
35.2656250000,4,1.1381449699,,,
35.2812500000,4,1.5833209753,,,
35.2968750000,4,2.0187869072,,,
35.3125000000,4,2.3572731018,,,
35.3281250000,4,2.5250849724,,,
35.3437500000,4,2.4757230282,,,
35.3593750000,4,2.2005228996,,,
35.3750000000,4,1.6979980469,,,
35.3906250000,4,0.9602432251,,,
35.4062500000,4,-0.0113182096,,,
35.4218750000,4,-1.1706579924,,,
35.4375000000,4,-2.4018819332,,,
35.4531250000,4,-3.5009799004,,,
35.4687500000,4,-4.2529177666,,,
35.4843750000,4,-4.4968490601,,,
35.5000000000,4,-4.2133288383,,,
35.5156250000,4,-3.5166280270,,,
35.5312500000,4,-2.6102600098,,,
35.5468750000,4,-1.6973500252,,,
35.5625000000,4,-0.9214096069,,,
35.5781250000,4,-0.3633956909,,,
35.5937500000,4,-0.0729713365,,,
35.6093750000,4,-0.0781555176,,,
35.6250000000,4,-0.3887366951,,,
35.6406250000,4,-0.9564704895,,,
35.6562500000,4,-1.6540759802,,,
35.6718750000,4,-2.3096768856,,,
35.6875000000,4,-2.7814600468,,,
35.7031250000,4,-3.0052070618,,,
35.7187500000,4,-3.0174219608,,,
35.7343750000,4,-2.9176449776,,,
35.7500000000,4,-2.7898058891,,,
35.7656250000,4,-2.6631770134,,,
35.7812500000,4,-2.5418009758,,,
35.7968750000,4,-2.4130330086,,,
35.8125000000,4,-2.2908859253,,,
35.8281250000,4,-2.1981201172,,,
35.8437500000,4,-2.1349329948,,,
35.8593750000,4,-2.0485880375,,,
35.8750000000,4,-1.8472629786,,,
35.8906250000,4,-1.4615520239,,,
35.9062500000,4,-0.8908386230,,,
35.9218750000,4,-0.2263451070,,,
35.9375000000,4,0.3580169976,,,
35.9531250000,4,0.7011908889,,,
35.9687500000,4,0.7174186707,,,
35.9843750000,4,0.4732513130,,,
36.0000000000,4,0.1323661953,,,
36.0156250000,4,-0.0933036804,,,
36.0312500000,4,-0.0398712195,,,
36.0468750000,4,0.3293724060,,,
36.0625000000,4,0.9242516160,,,
36.0781250000,4,1.5798989534,,,
36.0937500000,4,2.1392140388,,,
36.1093750000,4,2.5292849541,,,
36.1250000000,4,2.7712059021,,,
36.1406250000,4,2.9215009212,,,
36.1562500000,4,3.0296130180,,,
36.1718750000,4,3.0835990906,,,
36.1875000000,4,3.0342900753,,,
36.2031250000,4,2.8443150520,,,
36.2187500000,4,2.5256230831,,,
36.2343750000,4,2.1323969364,,,
36.2500000000,4,1.7538989782,,,
36.2656250000,4,1.4701420069,,,
36.2812500000,4,1.3140530586,,,
36.2968750000,4,1.2905199528,,,
36.3125000000,4,1.3755949736,,,
36.3281250000,4,1.5300029516,,,
36.3437500000,4,1.7116969824,,,
36.3593750000,4,1.8749500513,,,
36.3750000000,4,1.9653470516,,,
36.3906250000,4,1.9388350248,,,
36.4062500000,4,1.7574620247,,,
36.4218750000,4,1.4138909578,,,
36.4375000000,4,0.9308853149,,,
36.4531250000,4,0.3695374131,,,
36.4687500000,4,-0.1907463074,,,
36.4843750000,4,-0.6496735215,,,
36.5000000000,4,-0.9244614244,,,
36.5156250000,4,-0.9671630859,,,
36.5312500000,4,-0.7997016907,,,
36.5468750000,4,-0.5082625747,,,
36.5625000000,4,-0.2296524048,,,
36.5781250000,4,-0.0794029236,,,
36.5937500000,4,-0.1029281989,,,
36.6093750000,4,-0.2389640957,,,
36.6250000000,4,-0.3435440063,,,
36.6406250000,4,-0.2786673903,,,
36.6562500000,4,0.0191345196,,,
36.6718750000,4,0.4768027961,,,
36.6875000000,4,0.9208908081,,,
36.7031250000,4,1.1619989872,,,
36.7187500000,4,1.0960769653,,,
36.7343750000,4,0.7412871718,,,
36.7500000000,4,0.2369385064,,,
36.7656250000,4,-0.2550468147,,,
36.7812500000,4,-0.6210823059,,,
36.7968750000,4,-0.8428649902,,,
36.8125000000,4,-0.9735183716,,,
36.8281250000,4,-1.0685880184,,,
36.8437500000,4,-1.1445009708,,,
36.8593750000,4,-1.1700550318,,,
36.8750000000,4,-1.1005059481,,,
36.8906250000,4,-0.9218903184,,,
36.9062500000,4,-0.6770781875,,,
36.9218750000,4,-0.4441910088,,,
36.9375000000,4,-0.3046494126,,,
36.9531250000,4,-0.3060303032,,,
36.9687500000,4,-0.4277381897,,,
36.9843750000,4,-0.5923346877,,,
37.0000000000,4,-0.7000656128,,,
37.0156250000,4,-0.6915398240,,,
37.0312500000,4,-0.5750160217,,,
37.0468750000,4,-0.4309768975,,,
37.0625000000,4,-0.3751716912,,,
37.0781250000,4,-0.4732666016,,,
37.0937500000,4,-0.7087593079,,,
37.1093750000,4,-0.9803771973,,,
37.1250000000,4,-1.1581039429,,,
37.1406250000,4,-1.1386179924,,,
37.1562500000,4,-0.8949584961,,,
37.1718750000,4,-0.4903145134,,,
37.1875000000,4,-0.0300865192,,,
37.2031250000,4,0.3669852912,,,
37.2187500000,4,0.6184577942,,,
37.2343750000,4,0.6692923903,,,
37.2500000000,4,0.5177689195,,,
37.2656250000,4,0.1857033074,,,
37.2812500000,4,-0.2673949897,,,
37.2968750000,4,-0.7498741150,,,
37.3125000000,4,-1.1584320068,,,
37.3281250000,4,-1.3820079565,,,
37.3437500000,4,-1.3691860437,,,
37.3593750000,4,-1.1160199642,,,
37.3750000000,4,-0.6867218018,,,
37.3906250000,4,-0.1780814976,,,
37.4062500000,4,0.2897072136,,,
37.4218750000,4,0.6251984239,,,
37.4375000000,4,0.7664679885,,,
37.4531250000,4,0.7056769729,,,
37.4687500000,4,0.5037384033,,,
37.4843750000,4,0.2639884949,,,
37.5000000000,4,0.1228485033,,,
37.5156250000,4,0.1912155002,,,
37.5312500000,4,0.4954720140,,,
37.5468750000,4,0.9691277146,,,
37.5625000000,4,1.4599649906,,,
37.5781250000,4,1.8007470369,,,
37.5937500000,4,1.8686939478,,,
37.6093750000,4,1.6405409575,,,
37.6250000000,4,1.1980170012,,,
37.6406250000,4,0.6862183213,,,
37.6562500000,4,0.2543677986,,,
37.6718750000,4,-0.0222702008,,,
37.6875000000,4,-0.1407279968,,,
37.7031250000,4,-0.1417960972,,,
37.7187500000,4,-0.0731506273,,,
37.7343750000,4,0.0307807904,,,
37.7500000000,4,0.1664772034,,,
37.7656250000,4,0.3378067017,,,
37.7812500000,4,0.5290030837,,,
37.7968750000,4,0.7069587708,,,
37.8125000000,4,0.8134117126,,,
37.8281250000,4,0.8133925796,,,
37.8437500000,4,0.6873055100,,,
37.8593750000,4,0.4838753045,,,
37.8750000000,4,0.2885132134,,,
37.8906250000,4,0.2123833001,,,
37.9062500000,4,0.3205947876,,,
37.9218750000,4,0.6000099182,,,
37.9375000000,4,0.9551200867,,,
37.9531250000,4,1.2338030338,,,
37.9687500000,4,1.3182979822,,,
37.9843750000,4,1.1673359871,,,
38.0000000000,4,0.8390808105,,,
38.0156250000,4,0.4701041877,,,
38.0312500000,4,0.1718101948,,,
38.0468750000,4,0.0037612920,,,
38.0625000000,4,-0.0602912903,,,
38.0781250000,4,-0.0753250122,,,
38.0937500000,4,-0.0804595873,,,
38.1093750000,4,-0.0719795227,,,
38.1250000000,4,-0.0308456402,,,
38.1406250000,4,0.0507164001,,,
38.1562500000,4,0.1474304050,,,
38.1718750000,4,0.1944008023,,,
38.1875000000,4,0.1480330974,,,
38.2031250000,4,0.0025596621,,,
38.2187500000,4,-0.1973495036,,,
38.2343750000,4,-0.4007987976,,,
38.2500000000,4,-0.5762978196,,,
38.2656250000,4,-0.7245712280,,,
38.2812500000,4,-0.8688011169,,,
38.2968750000,4,-1.0157849789,,,
38.3125000000,4,-1.1427309513,,,
38.3281250000,4,-1.2150340080,,,
38.3437500000,4,-1.2207490206,,,
38.3593750000,4,-1.1582829952,,,
38.3750000000,4,-1.0620770454,,,
38.3906250000,4,-0.9552345276,,,
38.4062500000,4,-0.8511199951,,,
38.4218750000,4,-0.7582473755,,,
38.4375000000,4,-0.6791877747,,,
38.4531250000,4,-0.6329268813,,,
38.4687500000,4,-0.6302527785,,,
38.4843750000,4,-0.6780319214,,,
38.5000000000,4,-0.7664948106,,,
38.5156250000,4,-0.8724288940,,,
38.5312500000,4,-0.9775962830,,,
38.5468750000,4,-1.0483700037,,,
38.5625000000,4,-1.0386350155,,,
38.5781250000,4,-0.8920363784,,,
38.5937500000,4,-0.5785713196,,,
38.6093750000,4,-0.1207657009,,,
38.6250000000,4,0.3698157966,,,
38.6406250000,4,0.7342795730,,,
38.6562500000,4,0.8499069214,,,
38.6718750000,4,0.6834182739,,,
38.6875000000,4,0.3358879089,,,
38.7031250000,4,-0.0241012592,,,
38.7187500000,4,-0.2427062988,,,
38.7343750000,4,-0.2887420952,,,
38.7500000000,4,-0.2492180020,,,
38.7656250000,4,-0.2715682983,,,
38.7812500000,4,-0.4646416008,,,
38.7968750000,4,-0.8019866943,,,
38.8125000000,4,-1.1311680079,,,
38.8281250000,4,-1.2652360201,,,
38.8437500000,4,-1.0861129761,,,
38.8593750000,4,-0.5921936035,,,
38.8750000000,4,0.0935554504,,,
38.8906250000,4,0.7990189195,,,
38.9062500000,4,1.3715319633,,,
38.9218750000,4,1.7302629948,,,
38.9375000000,4,1.8719099760,,,
38.9531250000,4,1.8399850130,,,
38.9687500000,4,1.6956139803,,,
38.9843750000,4,1.4937969446,,,
39.0000000000,4,1.2686580420,,,
39.0156250000,4,1.0490230322,,,
39.0312500000,4,0.8474959731,,,
39.0468750000,4,0.6636009216,,,
39.0625000000,4,0.4919739068,,,
39.0781250000,4,0.3474388123,,,
39.0937500000,4,0.2497559041,,,
39.1093750000,4,0.2270126045,,,
39.1250000000,4,0.2824477851,,,
39.1406250000,4,0.3763923943,,,
39.1562500000,4,0.4443702996,,,
39.1718750000,4,0.4361000061,,,
39.1875000000,4,0.3623771966,,,
39.2031250000,4,0.2679061890,,,
39.2187500000,4,0.2369803935,,,
39.2343750000,4,0.2948989868,,,
39.2500000000,4,0.4069556892,,,
39.2656250000,4,0.4939765930,,,
39.2812500000,4,0.4625053108,,,
39.2968750000,4,0.2799758911,,,
39.3125000000,4,-0.0132598896,,,
39.3281250000,4,-0.3267402947,,,
39.3437500000,4,-0.5754128098,,,
39.3593750000,4,-0.6976891160,,,
39.3750000000,4,-0.6823502183,,,
39.3906250000,4,-0.5369606018,,,
39.4062500000,4,-0.2842827141,,,
39.4218750000,4,0.0379524194,,,
39.4375000000,4,0.3901290894,,,
39.4531250000,4,0.7008171082,,,
39.4687500000,4,0.8910521865,,,
39.4843750000,4,0.9010009766,,,
39.5000000000,4,0.7208290100,,,
39.5156250000,4,0.4069556892,,,
39.5312500000,4,0.0572395287,,,
39.5468750000,4,-0.2259978950,,,
39.5625000000,4,-0.3888893127,,,
39.5781250000,4,-0.4278297126,,,
39.5937500000,4,-0.3907051086,,,
39.6093750000,4,-0.3403015137,,,
39.6250000000,4,-0.3472861946,,,
39.6406250000,4,-0.4469108880,,,
39.6562500000,4,-0.6336327195,,,
39.6718750000,4,-0.8650208116,,,
39.6875000000,4,-1.0503079891,,,
39.7031250000,4,-1.1196140051,,,
39.7187500000,4,-1.0186460018,,,
39.7343750000,4,-0.7663422227,,,
39.7500000000,4,-0.4362792969,,,
39.7656250000,4,-0.1389427036,,,
39.7812500000,4,0.0300827008,,,
39.7968750000,4,0.0172615107,,,
39.8125000000,4,-0.1453934014,,,
39.8281250000,4,-0.3436355889,,,
39.8437500000,4,-0.4529953003,,,
39.8593750000,4,-0.3929100037,,,
39.8750000000,4,-0.1928748935,,,
39.8906250000,4,0.0546798706,,,
39.9062500000,4,0.2137984931,,,
39.9218750000,4,0.1867218018,,,
39.9375000000,4,-0.0016937261,,,
39.9531250000,4,-0.2431374043,,,
39.9687500000,4,-0.3864746094,,,
39.9843750000,4,-0.3529433906,,,
40.0000000000,5,-0.1727942973,,,
40.0156250000,5,0.0183410607,,,
40.0312500000,5,0.0789985731,,,
40.0468750000,5,-0.0428581201,,,
40.0625000000,5,-0.2697716057,,,
40.0781250000,5,-0.4471702874,,,
40.0937500000,5,-0.4613228142,,,
40.1093750000,5,-0.3079757988,,,
40.1250000000,5,-0.1164513007,,,
40.1406250000,5,-0.0454406701,,,
40.1562500000,5,-0.1729698032,,,
40.1718750000,5,-0.4418982863,,,
40.1875000000,5,-0.6921082139,,,
40.2031250000,5,-0.7651596069,,,
40.2187500000,5,-0.5836104751,,,
40.2343750000,5,-0.2201385051,,,
40.2500000000,5,0.1648636013,,,
40.2656250000,5,0.3931922913,,,
40.2812500000,5,0.3770523071,,,
40.2968750000,5,0.1422653049,,,
40.3125000000,5,-0.1966591030,,,
40.3281250000,5,-0.4927710891,,,
40.3437500000,5,-0.6529998779,,,
40.3593750000,5,-0.6642990112,,,
40.3750000000,5,-0.6040229797,,,
40.3906250000,5,-0.5567206740,,,
40.4062500000,5,-0.5722274780,,,
40.4218750000,5,-0.6348801255,,,
40.4375000000,5,-0.6758307815,,,
40.4531250000,5,-0.6143074036,,,
40.4687500000,5,-0.4196281135,,,
40.4843750000,5,-0.1246490031,,,
40.5000000000,5,0.2009239048,,,
40.5156250000,5,0.4692192078,,,
40.5312500000,5,0.6210823059,,,
40.5468750000,5,0.6258658767,,,
40.5625000000,5,0.5008925796,,,
40.5781250000,5,0.2917213142,,,
40.5937500000,5,0.0580940209,,,
40.6093750000,5,-0.1369170994,,,
40.6250000000,5,-0.2490272969,,,
40.6406250000,5,-0.2530823052,,,
40.6562500000,5,-0.1441535950,,,
40.6718750000,5,0.0692710876,,,
40.6875000000,5,0.3404236138,,,
40.7031250000,5,0.6089630127,,,
40.7187500000,5,0.7965583801,,,
40.7343750000,5,0.8430861831,,,
40.7500000000,5,0.7436943054,,,
40.7656250000,5,0.5377693176,,,
40.7812500000,5,0.3131904900,,,
40.7968750000,5,0.1466522068,,,
40.8125000000,5,0.0788268968,,,
40.8281250000,5,0.0778350830,,,
40.8437500000,5,0.0800170898,,,
40.8593750000,5,0.0336151086,,,
40.8750000000,5,-0.0452079810,,,
40.8906250000,5,-0.0708351135,,,
40.9062500000,5,0.0341796912,,,
40.9218750000,5,0.2861176133,,,
40.9375000000,5,0.5922852159,,,
40.9531250000,5,0.8186721802,,,
40.9687500000,5,0.8471527100,,,
40.9843750000,5,0.6707152724,,,
41.0000000000,5,0.3815383911,,,
41.0156250000,5,0.1180152968,,,
41.0312500000,5,-0.0166397095,,,
41.0468750000,5,-0.0107231103,,,
41.0625000000,5,0.0627479628,,,
41.0781250000,5,0.1120223999,,,
41.0937500000,5,0.0917320326,,,
41.1093750000,5,0.0170288105,,,
41.1250000000,5,-0.0410537682,,,
41.1406250000,5,-0.0302391108,,,
41.1562500000,5,0.0584831201,,,
41.1718750000,5,0.1873549968,,,
41.1875000000,5,0.3018035889,,,
41.2031250000,5,0.3870621026,,,
41.2187500000,5,0.4434356987,,,
41.2343750000,5,0.4802207947,,,
41.2500000000,5,0.4757004082,,,
41.2656250000,5,0.3834990859,,,
41.2812500000,5,0.1706275940,,,
41.2968750000,5,-0.1518822014,,,
41.3125000000,5,-0.4975928962,,,
41.3281250000,5,-0.7483406067,,,
41.3437500000,5,-0.8151741028,,,
41.3593750000,5,-0.7055397034,,,
41.3750000000,5,-0.5177382827,,,
41.3906250000,5,-0.3818053901,,,
41.4062500000,5,-0.3812752068,,,
41.4218750000,5,-0.5032119751,,,
41.4375000000,5,-0.6510086060,,,
41.4531250000,5,-0.7090377808,,,
41.4687500000,5,-0.6216353774,,,
41.4843750000,5,-0.4074859917,,,
41.5000000000,5,-0.1264763027,,,
41.5156250000,5,0.1814613044,,,
41.5312500000,5,0.5031204224,,,
41.5468750000,5,0.8490105271,,,
41.5625000000,5,1.1747889519,,,
41.5781250000,5,1.3825570345,,,
41.5937500000,5,1.3648380041,,,
41.6093750000,5,1.0765949488,,,
41.6250000000,5,0.5948296189,,,
41.6406250000,5,0.0874557495,,,
41.6562500000,5,-0.2508811951,,,
41.6718750000,5,-0.3278084099,,,
41.6875000000,5,-0.1737595052,,,
41.7031250000,5,0.0641593933,,,
41.7187500000,5,0.2407187968,,,
41.7343750000,5,0.2836227119,,,
41.7500000000,5,0.2304152995,,,
41.7656250000,5,0.1678352058,,,
41.7812500000,5,0.1537017971,,,
41.7968750000,5,0.1681862026,,,
41.8125000000,5,0.1199570000,,,
41.8281250000,5,-0.0624885596,,,
41.8437500000,5,-0.3785705864,,,
41.8593750000,5,-0.7295150757,,,
41.8750000000,5,-0.9803429246,,,
41.8906250000,5,-1.0323749781,,,
41.9062500000,5,-0.8757591248,,,
41.9218750000,5,-0.5850219727,,,
41.9375000000,5,-0.2574844062,,,
41.9531250000,5,0.0242576599,,,
41.9687500000,5,0.2378921956,,,
41.9843750000,5,0.3848648071,,,
42.0000000000,5,0.4790877998,,,
42.0156250000,5,0.5234069824,,,
42.0312500000,5,0.4917182922,,,
42.0468750000,5,0.3507614136,,,
42.0625000000,5,0.0854453966,,,
42.0781250000,5,-0.2910118103,,,
42.0937500000,5,-0.7250136733,,,
42.1093750000,5,-1.1154060364,,,
42.1250000000,5,-1.3409310579,,,
42.1406250000,5,-1.3089220524,,,
42.1562500000,5,-0.9906386733,,,
42.1718750000,5,-0.4658623040,,,
42.1875000000,5,0.1180649027,,,
42.2031250000,5,0.5837668777,,,
42.2187500000,5,0.8213921189,,,
42.2343750000,5,0.8160933852,,,
42.2500000000,5,0.6606369019,,,
42.2656250000,5,0.4927864075,,,
42.2812500000,5,0.4379119873,,,
42.2968750000,5,0.5654755235,,,
42.3125000000,5,0.8634567261,,,
42.3281250000,5,1.2520600557,,,
42.3437500000,5,1.6029889584,,,
42.3593750000,5,1.7891199589,,,
42.3750000000,5,1.7226300240,,,
42.3906250000,5,1.4042400122,,,
42.4062500000,5,0.9127311707,,,
42.4218750000,5,0.3851318061,,,
42.4375000000,5,-0.0522460900,,,
42.4531250000,5,-0.3331947029,,,
42.4687500000,5,-0.4631538093,,,
42.4843750000,5,-0.5115699768,,,
42.5000000000,5,-0.5489922166,,,
42.5156250000,5,-0.6191939712,,,
42.5312500000,5,-0.7236977220,,,
42.5468750000,5,-0.8485947251,,,
42.5625000000,5,-0.9908370972,,,
42.5781250000,5,-1.1447260380,,,
42.5937500000,5,-1.3008120060,,,
42.6093750000,5,-1.4325489998,,,
42.6250000000,5,-1.4928319454,,,
42.6406250000,5,-1.4351389408,,,
42.6562500000,5,-1.2325860262,,,
42.6718750000,5,-0.8917160034,,,
42.6875000000,5,-0.4493027031,,,
42.7031250000,5,0.0132942200,,,
42.7187500000,5,0.4102286994,,,
42.7343750000,5,0.6540946960,,,
42.7500000000,5,0.6999968886,,,
42.7656250000,5,0.5632286072,,,
42.7812500000,5,0.3155745864,,,
42.7968750000,5,0.0469436608,,,
42.8125000000,5,-0.1753769070,,,
42.8281250000,5,-0.3326111138,,,
42.8437500000,5,-0.4420203865,,,
42.8593750000,5,-0.5260353088,,,
42.8750000000,5,-0.5787734985,,,
42.8906250000,5,-0.5623970032,,,
42.9062500000,5,-0.4353027046,,,
42.9218750000,5,-0.1764107049,,,
42.9375000000,5,0.1882476956,,,
42.9531250000,5,0.5729141235,,,
42.9687500000,5,0.8855819702,,,
42.9843750000,5,1.0413249731,,,
43.0000000000,5,1.0035059452,,,
43.0156250000,5,0.7841300964,,,
43.0312500000,5,0.4427413940,,,
43.0468750000,5,0.0710182190,,,
43.0625000000,5,-0.2432212979,,,
43.0781250000,5,-0.4306601882,,,
43.0937500000,5,-0.4772072136,,,
43.1093750000,5,-0.4094887078,,,
43.1250000000,5,-0.2881241143,,,
43.1406250000,5,-0.1708527058,,,
43.1562500000,5,-0.0855865479,,,
43.1718750000,5,-0.0251007099,,,
43.1875000000,5,0.0506210290,,,
43.2031250000,5,0.1776351929,,,
43.2187500000,5,0.3817367852,,,
43.2343750000,5,0.6479721069,,,
43.2500000000,5,0.9348564148,,,
43.2656250000,5,1.1641540527,,,
43.2812500000,5,1.2527279854,,,
43.2968750000,5,1.1486849785,,,
43.3125000000,5,0.8522452712,,,
43.3281250000,5,0.4420127869,,,
43.3437500000,5,0.0353622399,,,
43.3593750000,5,-0.2675246894,,,
43.3750000000,5,-0.4097481072,,,
43.3906250000,5,-0.4031142890,,,
43.4062500000,5,-0.2985953987,,,
43.4218750000,5,-0.1412505955,,,
43.4375000000,5,0.0512695313,,,
43.4531250000,5,0.2669295967,,,
43.4687500000,5,0.4605064094,,,
43.4843750000,5,0.5500183105,,,
43.5000000000,5,0.4408988953,,,
43.5156250000,5,0.0932540894,,,
43.5312500000,5,-0.4314383864,,,
43.5468750000,5,-0.9882010818,,,
43.5625000000,5,-1.3895610571,,,
43.5781250000,5,-1.5091550350,,,
43.5937500000,5,-1.3414499760,,,
43.6093750000,5,-0.9963645935,,,
43.6250000000,5,-0.6525192261,,,
43.6406250000,5,-0.4510993958,,,
43.6562500000,5,-0.4405556023,,,
43.6718750000,5,-0.5645790100,,,
43.6875000000,5,-0.7211266160,,,
43.7031250000,5,-0.8039780259,,,
43.7187500000,5,-0.7515677810,,,
43.7343750000,5,-0.5592194200,,,
43.7500000000,5,-0.2558211982,,,
43.7656250000,5,0.0934906006,,,
43.7812500000,5,0.4163779914,,,
43.7968750000,5,0.6435623169,,,
43.8125000000,5,0.7112426758,,,
43.8281250000,5,0.6050376892,,,
43.8437500000,5,0.3712997139,,,
43.8593750000,5,0.1034926996,,,
43.8750000000,5,-0.0841674805,,,
43.8906250000,5,-0.1016846001,,,
43.9062500000,5,0.0599784888,,,
43.9218750000,5,0.3317528069,,,
43.9375000000,5,0.5902823806,,,
43.9531250000,5,0.7218627930,,,
43.9687500000,5,0.6699829102,,,
43.9843750000,5,0.4766235054,,,
44.0000000000,5,0.2424392998,,,
44.0156250000,5,0.0656929016,,,
44.0312500000,5,0.0047378540,,,
44.0468750000,5,0.0385742188,,,
44.0625000000,5,0.1299171001,,,
44.0781250000,5,0.2403908074,,,
44.0937500000,5,0.3823280036,,,
44.1093750000,5,0.5893135071,,,
44.1250000000,5,0.8524246216,,,
44.1406250000,5,1.0903090239,,,
44.1562500000,5,1.1762809753,,,
44.1718750000,5,1.0103720427,,,
44.1875000000,5,0.5900382996,,,
44.2031250000,5,0.0387573205,,,
44.2187500000,5,-0.4574890137,,,
44.2343750000,5,-0.7462081909,,,
44.2500000000,5,-0.7847939134,,,
44.2656250000,5,-0.6516571045,,,
44.2812500000,5,-0.4705811143,,,
44.2968750000,5,-0.3326111138,,,
44.3125000000,5,-0.2575568855,,,
44.3281250000,5,-0.2047348022,,,
44.3437500000,5,-0.1313399971,,,
44.3593750000,5,-0.0531234704,,,
44.3750000000,5,-0.0352935791,,,
44.3906250000,5,-0.1556663960,,,
44.4062500000,5,-0.4452820122,,,
44.4218750000,5,-0.8487586975,,,
44.4375000000,5,-1.2297589779,,,
44.4531250000,5,-1.4205060005,,,
44.4687500000,5,-1.2956049442,,,
44.4843750000,5,-0.8290175796,,,
44.5000000000,5,-0.1400261074,,,
44.5156250000,5,0.5382689834,,,
44.5312500000,5,0.9618073106,,,
44.5468750000,5,0.9882010818,,,
44.5625000000,5,0.6632500291,,,
44.5781250000,5,0.1975173950,,,
44.5937500000,5,-0.1571578979,,,
44.6093750000,5,-0.2374763042,,,
44.6250000000,5,-0.0547828712,,,
44.6406250000,5,0.2208710015,,,
44.6562500000,5,0.4148865044,,,
44.6718750000,5,0.4381065071,,,
44.6875000000,5,0.3311614990,,,
44.7031250000,5,0.2202796936,,,
44.7187500000,5,0.2160034031,,,
44.7343750000,5,0.3385010064,,,
44.7500000000,5,0.5206336975,,,
44.7656250000,5,0.6677321792,,,
44.7812500000,5,0.7176895142,,,
44.7968750000,5,0.6780967712,,,
44.8125000000,5,0.5859107971,,,
44.8281250000,5,0.4751052856,,,
44.8437500000,5,0.3470726013,,,
44.8593750000,5,0.1838417053,,,
44.8750000000,5,-0.0219039898,,,
44.8906250000,5,-0.2666054070,,,
44.9062500000,5,-0.5220870972,,,
44.9218750000,5,-0.7522010803,,,
44.9375000000,5,-0.9261245728,,,
44.9531250000,5,-1.0168950558,,,
44.9687500000,5,-1.0210150480,,,
44.9843750000,5,-0.9521980286,,,
45.0000000000,5,-0.8394051194,,,
45.0156250000,5,-0.7103539109,,,
45.0312500000,5,-0.5933951735,,,
45.0468750000,5,-0.4835853875,,,
45.0625000000,5,-0.3840751946,,,
45.0781250000,5,-0.2904472053,,,
45.0937500000,5,-0.2176246941,,,
45.1093750000,5,-0.1758536994,,,
45.1250000000,5,-0.1460381001,,,
45.1406250000,5,-0.1076126024,,,
45.1562500000,5,-0.0299797095,,,
45.1718750000,5,0.1027565002,,,
45.1875000000,5,0.2603377998,,,
45.2031250000,5,0.3762626946,,,
45.2187500000,5,0.4004974067,,,
45.2343750000,5,0.3274841011,,,
45.2500000000,5,0.1951179951,,,
45.2656250000,5,0.0816078186,,,
45.2812500000,5,0.0284194909,,,
45.2968750000,5,0.0283622704,,,
45.3125000000,5,0.0446205102,,,
45.3281250000,5,0.0475921594,,,
45.3437500000,5,0.0369186401,,,
45.3593750000,5,0.0510978699,,,
45.3750000000,5,0.1305695027,,,
45.3906250000,5,0.2678452134,,,
45.4062500000,5,0.4328041077,,,
45.4218750000,5,0.5591698289,,,
45.4375000000,5,0.6086884141,,,
45.4531250000,5,0.5904387832,,,
45.4687500000,5,0.5387076735,,,
45.4843750000,5,0.4964142144,,,
45.5000000000,5,0.4630508125,,,
45.5156250000,5,0.3970221877,,,
45.5312500000,5,0.2266959995,,,
45.5468750000,5,-0.0782394409,,,
45.5625000000,5,-0.4849700928,,,
45.5781250000,5,-0.8607329726,,,
45.5937500000,5,-1.0541080236,,,
45.6093750000,5,-0.9650955200,,,
45.6250000000,5,-0.6232718825,,,
45.6406250000,5,-0.1589011997,,,
45.6562500000,5,0.2367133945,,,
45.6718750000,5,0.4179114997,,,
45.6875000000,5,0.3608664870,,,
45.7031250000,5,0.1326446980,,,
45.7187500000,5,-0.1523894966,,,
45.7343750000,5,-0.4160079956,,,
45.7500000000,5,-0.6408843994,,,
45.7656250000,5,-0.8312569261,,,
45.7812500000,5,-0.9831504822,,,
45.7968750000,5,-1.0461770296,,,
45.8125000000,5,-0.9526367188,,,
45.8281250000,5,-0.6717110276,,,
45.8437500000,5,-0.2499541938,,,
45.8593750000,5,0.2080421001,,,
45.8750000000,5,0.5857315063,,,
45.8906250000,5,0.8045349121,,,
45.9062500000,5,0.8600730896,,,
45.9218750000,5,0.7875556946,,,
45.9375000000,5,0.6336898804,,,
45.9531250000,5,0.4461174011,,,
45.9687500000,5,0.2752495110,,,
45.9843750000,5,0.1690520942,,,
46.0000000000,5,0.1611289978,,,
46.0156250000,5,0.2379378974,,,
46.0312500000,5,0.3541679084,,,
46.0468750000,5,0.4487000108,,,
46.0625000000,5,0.4677085876,,,
46.0781250000,5,0.4071731865,,,
46.0937500000,5,0.2999649048,,,
46.1093750000,5,0.1932259053,,,
46.1250000000,5,0.0968475267,,,
46.1406250000,5,0.0086059570,,,
46.1562500000,5,-0.0785293579,,,
46.1718750000,5,-0.1417160034,,,
46.1875000000,5,-0.1296309978,,,
46.2031250000,5,-0.0069198608,,,
46.2187500000,5,0.2049904019,,,
46.2343750000,5,0.4206848145,,,
46.2500000000,5,0.5142173767,,,
46.2656250000,5,0.4200325012,,,
46.2812500000,5,0.1589087993,,,
46.2968750000,5,-0.1672630012,,,
46.3125000000,5,-0.4170609117,,,
46.3281250000,5,-0.4971503913,,,
46.3437500000,5,-0.3977814019,,,
46.3593750000,5,-0.1851578057,,,
46.3750000000,5,0.0411491394,,,
46.3906250000,5,0.2055892944,,,
46.4062500000,5,0.2882767022,,,
46.4218750000,5,0.3222846985,,,
46.4375000000,5,0.3445777893,,,
46.4531250000,5,0.3504944146,,,
46.4687500000,5,0.3038254082,,,
46.4843750000,5,0.1594008952,,,
46.5000000000,5,-0.0976600572,,,
46.5156250000,5,-0.4198836982,,,
46.5312500000,5,-0.7200202942,,,
46.5468750000,5,-0.8919029236,,,
46.5625000000,5,-0.8775711060,,,
46.5781250000,5,-0.7158545852,,,
46.5937500000,5,-0.5093268752,,,
46.6093750000,5,-0.3810043037,,,
46.6250000000,5,-0.4040527046,,,
46.6406250000,5,-0.5526999831,,,
46.6562500000,5,-0.7233315110,,,
46.6718750000,5,-0.7909966111,,,
46.6875000000,5,-0.6906012893,,,
46.7031250000,5,-0.4437980950,,,
46.7187500000,5,-0.1593703926,,,
46.7343750000,5,0.0609054603,,,
46.7500000000,5,0.1468238980,,,
46.7656250000,5,0.1110038981,,,
46.7812500000,5,0.0365982093,,,
46.7968750000,5,0.0096206674,,,
46.8125000000,5,0.0830650330,,,
46.8281250000,5,0.2533606887,,,
46.8437500000,5,0.4619331062,,,
46.8593750000,5,0.6346703172,,,
46.8750000000,5,0.7297629714,,,
46.8906250000,5,0.7399672866,,,
46.9062500000,5,0.7017555237,,,
46.9218750000,5,0.6600800157,,,
46.9375000000,5,0.6559448242,,,
46.9531250000,5,0.6889533997,,,
46.9687500000,5,0.7311667800,,,
46.9843750000,5,0.7474442124,,,
47.0000000000,5,0.7200089097,,,
47.0156250000,5,0.6769599915,,,
47.0312500000,5,0.6568222046,,,
47.0468750000,5,0.6959229112,,,
47.0625000000,5,0.7822074890,,,
47.0781250000,5,0.8348999023,,,
47.0937500000,5,0.7495880127,,,
47.1093750000,5,0.4713859856,,,
47.1250000000,5,0.0383033790,,,
47.1406250000,5,-0.4261435866,,,
47.1562500000,5,-0.7771834731,,,
47.1718750000,5,-0.9147377014,,,
47.1875000000,5,-0.8594589233,,,
47.2031250000,5,-0.7120934129,,,
47.2187500000,5,-0.5938720703,,,
47.2343750000,5,-0.5760573745,,,
47.2500000000,5,-0.6390419006,,,
47.2656250000,5,-0.7074394226,,,
47.2812500000,5,-0.7012215257,,,
47.2968750000,5,-0.5942612290,,,
47.3125000000,5,-0.4412766099,,,
47.3281250000,5,-0.3310852051,,,
47.3437500000,5,-0.3354645073,,,
47.3593750000,5,-0.4642333984,,,
47.3750000000,5,-0.6466866136,,,
47.3906250000,5,-0.7532883286,,,
47.4062500000,5,-0.6703910828,,,
47.4218750000,5,-0.3668403924,,,
47.4375000000,5,0.0839385986,,,
47.4531250000,5,0.5092926025,,,
47.4687500000,5,0.7309494019,,,
47.4843750000,5,0.6575316787,,,
47.5000000000,5,0.3366012871,,,
47.5156250000,5,-0.0618095398,,,
47.5312500000,5,-0.3352431953,,,
47.5468750000,5,-0.3670234978,,,
47.5625000000,5,-0.1638946980,,,
47.5781250000,5,0.1621437073,,,
47.5937500000,5,0.4598121941,,,
47.6093750000,5,0.6201285720,,,
47.6250000000,5,0.6101036072,,,
47.6406250000,5,0.4631347954,,,
47.6562500000,5,0.2327460945,,,
47.6718750000,5,0.0032768250,,,
47.6875000000,5,-0.1656685024,,,
47.7031250000,5,-0.2364120036,,,
47.7187500000,5,-0.2113341987,,,
47.7343750000,5,-0.1272353977,,,
47.7500000000,5,-0.0310707092,,,
47.7656250000,5,0.0415573083,,,
47.7812500000,5,0.0972671509,,,
47.7968750000,5,0.1615372002,,,
47.8125000000,5,0.2613258064,,,
47.8281250000,5,0.3788528144,,,
47.8437500000,5,0.4647750854,,,
47.8593750000,5,0.4572525024,,,
47.8750000000,5,0.3243522942,,,
47.8906250000,5,0.1058577970,,,
47.9062500000,5,-0.1275252998,,,
47.9218750000,5,-0.3116379082,,,
47.9375000000,5,-0.4223288894,,,
47.9531250000,5,-0.4771690071,,,
47.9687500000,5,-0.5100708008,,,
47.9843750000,5,-0.5247650146,,,
48.0000000000,6,-0.5010222793,,,
48.0156250000,6,-0.4218369126,,,
48.0312500000,6,-0.2808265984,,,
48.0468750000,6,-0.1026192009,,,
48.0625000000,6,0.0641479492,,,
48.0781250000,6,0.2013473958,,,
48.0937500000,6,0.3082314134,,,
48.1093750000,6,0.4155654907,,,
48.1250000000,6,0.5478249192,,,
48.1406250000,6,0.7005118728,,,
48.1562500000,6,0.8184928894,,,
48.1718750000,6,0.8250312805,,,
48.1875000000,6,0.6502112746,,,
48.2031250000,6,0.2862854004,,,
48.2187500000,6,-0.1925392002,,,
48.2343750000,6,-0.6526947021,,,
48.2500000000,6,-0.9433670044,,,
48.2656250000,6,-0.9806290269,,,
48.2812500000,6,-0.7714499831,,,
48.2968750000,6,-0.4183425903,,,
48.3125000000,6,-0.0624847412,,,
48.3281250000,6,0.1855354011,,,
48.3437500000,6,0.3012275994,,,
48.3593750000,6,0.3331565857,,,
48.3750000000,6,0.3391456902,,,
48.3906250000,6,0.3539885879,,,
48.4062500000,6,0.3521575928,,,
48.4218750000,6,0.2810744941,,,
48.4375000000,6,0.1115150005,,,
48.4531250000,6,-0.1256981045,,,
48.4687500000,6,-0.3542060852,,,
48.4843750000,6,-0.5038719177,,,
48.5000000000,6,-0.5494843125,,,
48.5156250000,6,-0.5108528137,,,
48.5312500000,6,-0.4233055115,,,
48.5468750000,6,-0.2909278870,,,
48.5625000000,6,-0.0990905836,,,
48.5781250000,6,0.1709824055,,,
48.5937500000,6,0.4795112908,,,
48.6093750000,6,0.7500342727,,,
48.6250000000,6,0.8920134902,,,
48.6406250000,6,0.8719214797,,,
48.6562500000,6,0.7315369248,,,
48.6718750000,6,0.5759696960,,,
48.6875000000,6,0.5015525818,,,
48.7031250000,6,0.5262145996,,,
48.7187500000,6,0.5901299119,,,
48.7343750000,6,0.5832633972,,,
48.7500000000,6,0.4432143867,,,
48.7656250000,6,0.1879729927,,,
48.7812500000,6,-0.0965538025,,,
48.7968750000,6,-0.2928085029,,,
48.8125000000,6,-0.3343352973,,,
48.8281250000,6,-0.2331237942,,,
48.8437500000,6,-0.0558052100,,,
48.8593750000,6,0.1106719971,,,
48.8750000000,6,0.2010307014,,,
48.8906250000,6,0.1966972053,,,
48.9062500000,6,0.1257171929,,,
48.9218750000,6,0.0317153893,,,
48.9375000000,6,-0.0440177917,,,
48.9531250000,6,-0.0887260437,,,
48.9687500000,6,-0.1119576022,,,
48.9843750000,6,-0.1569900960,,,
49.0000000000,6,-0.2693443000,,,
49.0156250000,6,-0.4585990906,,,
49.0312500000,6,-0.6828842163,,,
49.0468750000,6,-0.8430557251,,,
49.0625000000,6,-0.8229218125,,,
49.0781250000,6,-0.5598946214,,,
49.0937500000,6,-0.1078071967,,,
49.1093750000,6,0.3807792962,,,
49.1250000000,6,0.7034568787,,,
49.1406250000,6,0.7324066162,,,
49.1562500000,6,0.4653396904,,,
49.1718750000,6,0.0373497009,,,
49.1875000000,6,-0.3777999878,,,
49.2031250000,6,-0.6640738845,,,
49.2187500000,6,-0.8250542283,,,
49.2343750000,6,-0.9492682815,,,
49.2500000000,6,-1.1156430244,,,
49.2656250000,6,-1.3216060400,,,
49.2812500000,6,-1.4954149723,,,
49.2968750000,6,-1.5333210230,,,
49.3125000000,6,-1.3758050203,,,
49.3281250000,6,-1.0574070215,,,
49.3437500000,6,-0.6494255066,,,
49.3593750000,6,-0.2319335938,,,
49.3750000000,6,0.1351051033,,,
49.3906250000,6,0.4246788025,,,
49.4062500000,6,0.6380500793,,,
49.4218750000,6,0.7709655762,,,
49.4375000000,6,0.8470383286,,,
49.4531250000,6,0.8999977112,,,
49.4687500000,6,0.9870223999,,,
49.4843750000,6,1.1437909603,,,
49.5000000000,6,1.3601950407,,,
49.5156250000,6,1.5678789616,,,
49.5312500000,6,1.6696590185,,,
49.5468750000,6,1.5884510279,,,
49.5625000000,6,1.3088610172,,,
49.5781250000,6,0.9004439712,,,
49.5937500000,6,0.4694480896,,,
49.6093750000,6,0.1159401014,,,
49.6250000000,6,-0.0967941284,,,
49.6406250000,6,-0.1519584954,,,
49.6562500000,6,-0.0828094482,,,
49.6718750000,6,0.0449562110,,,
49.6875000000,6,0.1595764011,,,
49.7031250000,6,0.2001419067,,,
49.7187500000,6,0.1430473030,,,
49.7343750000,6,0.0070762630,,,
49.7500000000,6,-0.1706085056,,,
49.7656250000,6,-0.3322257996,,,
49.7812500000,6,-0.4486809075,,,
49.7968750000,6,-0.5014762878,,,
49.8125000000,6,-0.4878653884,,,
49.8281250000,6,-0.4169312119,,,
49.8437500000,6,-0.2958030999,,,
49.8593750000,6,-0.1540070027,,,
49.8750000000,6,-0.0323066711,,,
49.8906250000,6,0.0211219806,,,
49.9062500000,6,-0.0201072693,,,
49.9218750000,6,-0.1355285943,,,
49.9375000000,6,-0.2538414001,,,
49.9531250000,6,-0.2911682129,,,
49.9687500000,6,-0.2019004971,,,
49.9843750000,6,-0.0133361798,,,
50.0000000000,6,0.1684951931,,,
50.0156250000,6,0.2089958042,,,
50.0312500000,6,0.0216598492,,,
50.0468750000,6,-0.3750000000,,,
50.0625000000,6,-0.8838729858,,,
50.0781250000,6,-1.3545910120,,,
50.0937500000,6,-1.6597939730,,,
50.1093750000,6,-1.7350460291,,,
50.1250000000,6,-1.5968279839,,,
50.1406250000,6,-1.3130379915,,,
50.1562500000,6,-0.9728202820,,,
50.1718750000,6,-0.6674575806,,,
50.1875000000,6,-0.4472885132,,,
50.2031250000,6,-0.3161925972,,,
50.2187500000,6,-0.2355384976,,,
50.2343750000,6,-0.1462097019,,,
50.2500000000,6,-0.0276489295,,,
50.2656250000,6,0.1217880026,,,
50.2812500000,6,0.2650260925,,,
50.2968750000,6,0.3788033128,,,
50.3125000000,6,0.4482612908,,,
50.3281250000,6,0.4723778069,,,
50.3437500000,6,0.4646148980,,,
50.3593750000,6,0.4069328010,,,
50.3750000000,6,0.2996062934,,,
50.3906250000,6,0.1703986973,,,
50.4062500000,6,0.0850486830,,,
50.4218750000,6,0.1158028021,,,
50.4375000000,6,0.2908515930,,,
50.4531250000,6,0.5518683791,,,
50.4687500000,6,0.7718886733,,,
50.4843750000,6,0.8264083862,,,
50.5000000000,6,0.6855164170,,,
50.5156250000,6,0.4457550049,,,
50.5312500000,6,0.2726401985,,,
50.5468750000,6,0.2891502082,,,
50.5625000000,6,0.4809226990,,,
50.5781250000,6,0.6993904114,,,
50.5937500000,6,0.7510489821,,,
50.6093750000,6,0.5276412964,,,
50.6250000000,6,0.0683822632,,,
50.6406250000,6,-0.4470176995,,,
50.6562500000,6,-0.7951583862,,,
50.6718750000,6,-0.8168334961,,,
50.6875000000,6,-0.4924431145,,,
50.7031250000,6,0.0473976098,,,
50.7187500000,6,0.5864791870,,,
50.7343750000,6,0.9048233032,,,
50.7500000000,6,0.8484572768,,,
50.7656250000,6,0.4085235894,,,
50.7812500000,6,-0.2719573975,,,
50.7968750000,6,-0.9387320876,,,
50.8125000000,6,-1.3138689995,,,
50.8281250000,6,-1.2205389738,,,
50.8437500000,6,-0.6660271287,,,
50.8593750000,6,0.1512070000,,,
50.8750000000,6,0.9344139099,,,
50.8906250000,6,1.4142340422,,,
50.9062500000,6,1.4836310148,,,
50.9218750000,6,1.2153400183,,,
50.9375000000,6,0.8018456101,,,
50.9531250000,6,0.4229354858,,,
50.9687500000,6,0.1646537930,,,
50.9843750000,6,-0.0036849980,,,
51.0000000000,6,-0.1701278985,,,
51.0156250000,6,-0.4096794128,,,
51.0312500000,6,-0.7163199782,,,
51.0468750000,6,-1.0252000093,,,
51.0625000000,6,-1.2320710421,,,
51.0781250000,6,-1.2704050541,,,
51.0937500000,6,-1.1400489807,,,
51.1093750000,6,-0.9064484239,,,
51.1250000000,6,-0.6858673096,,,
51.1406250000,6,-0.5674362183,,,
51.1562500000,6,-0.5624123216,,,
51.1718750000,6,-0.5822067261,,,
51.1875000000,6,-0.4840393066,,,
51.2031250000,6,-0.1753883064,,,
51.2187500000,6,0.2990264893,,,
51.2343750000,6,0.7607498169,,,
51.2500000000,6,0.9732437134,,,
51.2656250000,6,0.7959594727,,,
51.2812500000,6,0.3108710945,,,
51.2968750000,6,-0.2323990017,,,
51.3125000000,6,-0.5138167739,,,
51.3281250000,6,-0.3607330024,,,
51.3437500000,6,0.1510773003,,,
51.3593750000,6,0.7366561890,,,
51.3750000000,6,1.0818599463,,,
51.3906250000,6,1.0177689791,,,
51.4062500000,6,0.6063805223,,,
51.4218750000,6,0.0885543823,,,
51.4375000000,6,-0.2740479112,,,
51.4531250000,6,-0.3299522102,,,
51.4687500000,6,-0.1034011990,,,
51.4843750000,6,0.2586632073,,,
51.5000000000,6,0.5765076280,,,
51.5156250000,6,0.7248954773,,,
51.5312500000,6,0.6783370972,,,
51.5468750000,6,0.4828911126,,,
51.5625000000,6,0.2302666008,,,
51.5781250000,6,-0.0085296631,,,
51.5937500000,6,-0.2004203945,,,
51.6093750000,6,-0.3393287957,,,
51.6250000000,6,-0.4228554070,,,
51.6406250000,6,-0.4188995063,,,
51.6562500000,6,-0.2667084038,,,
51.6718750000,6,0.0852394104,,,
51.6875000000,6,0.6314125061,,,
51.7031250000,6,1.2552800179,,,
51.7187500000,6,1.7443579435,,,
51.7343750000,6,1.8756140471,,,
51.7500000000,6,1.5233310461,,,
51.7656250000,6,0.7309036255,,,
51.7812500000,6,-0.2783240974,,,
51.7968750000,6,-1.2135089636,,,
51.8125000000,6,-1.8228340149,,,
51.8281250000,6,-2.0074200630,,,
51.8437500000,6,-1.8146669865,,,
51.8593750000,6,-1.3977429867,,,
51.8750000000,6,-0.9186096191,,,
51.8906250000,6,-0.4955292046,,,
51.9062500000,6,-0.1919555962,,,
51.9218750000,6,-0.0136794997,,,
51.9375000000,6,0.0484352112,,,
51.9531250000,6,0.0303497296,,,
51.9687500000,6,-0.0223922692,,,
51.9843750000,6,-0.0714797974,,,
52.0000000000,6,-0.0945587233,,,
52.0156250000,6,-0.1089287028,,,
52.0312500000,6,-0.1566352993,,,
52.0468750000,6,-0.2631607056,,,
52.0625000000,6,-0.4134941101,,,
52.0781250000,6,-0.5238608718,,,
52.0937500000,6,-0.4930495918,,,
52.1093750000,6,-0.2457657009,,,
52.1250000000,6,0.2003479004,,,
52.1406250000,6,0.7423362732,,,
52.1562500000,6,1.2255480289,,,
52.1718750000,6,1.5168269873,,,
52.1875000000,6,1.5530170202,,,
52.2031250000,6,1.3521349430,,,
52.2187500000,6,0.9711112976,,,
52.2343750000,6,0.4803619087,,,
52.2500000000,6,-0.0521278419,,,
52.2656250000,6,-0.5530356765,,,
52.2812500000,6,-0.9340438843,,,
52.2968750000,6,-1.1013259888,,,
52.3125000000,6,-1.0115970373,,,
52.3281250000,6,-0.7026215196,,,
52.3437500000,6,-0.2938309014,,,
52.3593750000,6,0.0599594116,,,
52.3750000000,6,0.2474555969,,,
52.3906250000,6,0.2670479119,,,
52.4062500000,6,0.2036323994,,,
52.4218750000,6,0.1884192973,,,
52.4375000000,6,0.3023490906,,,
52.4531250000,6,0.5270195007,,,
52.4687500000,6,0.7702484131,,,
52.4843750000,6,0.9064177871,,,
52.5000000000,6,0.8627471924,,,
52.5156250000,6,0.6446037292,,,
52.5312500000,6,0.3319435120,,,
52.5468750000,6,0.0431327783,,,
52.5625000000,6,-0.1420478970,,,
52.5781250000,6,-0.1785431057,,,
52.5937500000,6,-0.1015549004,,,
52.6093750000,6,0.0469436608,,,
52.6250000000,6,0.2954826057,,,
52.6406250000,6,0.2981987000,,,
52.6562500000,6,0.1697884053,,,
52.6718750000,6,-0.1049880981,,,
52.6875000000,6,-0.4887695014,,,
52.7031250000,6,-0.8819885254,,,
52.7187500000,6,-1.1419789791,,,
52.7343750000,6,-1.1383819580,,,
52.7500000000,6,-0.8328322768,,,
52.7656250000,6,-0.3399238884,,,
52.7812500000,6,0.1207885966,,,
52.7968750000,6,0.3053398132,,,
52.8125000000,6,0.1047400981,,,
52.8281250000,6,-0.3816223145,,,
52.8437500000,6,-0.8876380920,,,
52.8593750000,6,-1.1307140589,,,
52.8750000000,6,-0.9640541077,,,
52.8906250000,6,-0.4721870124,,,
52.9062500000,6,0.1094741970,,,
52.9218750000,6,0.5400543213,,,
52.9375000000,6,0.7140998840,,,
52.9531250000,6,0.6995162964,,,
52.9687500000,6,0.6477394104,,,
52.9843750000,6,0.6731758118,,,
53.0000000000,6,0.7582932115,,,
53.0156250000,6,0.7995911241,,,
53.0312500000,6,0.6903113723,,,
53.0468750000,6,0.4088020027,,,
53.0625000000,6,0.0345535316,,,
53.0781250000,6,-0.3345909119,,,
53.0937500000,6,-0.6320800781,,,
53.1093750000,6,-0.8606491089,,,
53.1250000000,6,-1.0362889767,,,
53.1406250000,6,-1.1516460180,,,
53.1562500000,6,-1.1429790258,,,
53.1718750000,6,-0.9459189773,,,
53.1875000000,6,-0.5576438904,,,
53.2031250000,6,-0.0742378235,,,
53.2187500000,6,0.3432464898,,,
53.2343750000,6,0.5550156236,,,
53.2500000000,6,0.5179672241,,,
53.2656250000,6,0.3084183037,,,
53.2812500000,6,0.0701065063,,,
53.2968750000,6,-0.0766639709,,,
53.3125000000,6,-0.1030350029,,,
53.3281250000,6,-0.0572547913,,,
53.3437500000,6,-0.0077171330,,,
53.3593750000,6,0.0335845910,,,
53.3750000000,6,0.1282501072,,,
53.3906250000,6,0.3620185852,,,
53.4062500000,6,0.7547606826,,,
53.4218750000,6,1.2075769901,,,
53.4375000000,6,1.5356179476,,,
53.4531250000,6,1.5620570183,,,
53.4687500000,6,1.2340660095,,,
53.4843750000,6,0.6683350205,,,
53.5000000000,6,0.0754127502,,,
53.5156250000,6,-0.3279685974,,,
53.5312500000,6,-0.4516372979,,,
53.5468750000,6,-0.3352509141,,,
53.5625000000,6,-0.0957870483,,,
53.5781250000,6,0.1459922940,,,
53.5937500000,6,0.3261108100,,,
53.6093750000,6,0.4250183105,,,
53.6250000000,6,0.4609527886,,,
53.6406250000,6,0.4517669976,,,
53.6562500000,6,0.4109573066,,,
53.6718750000,6,0.3539466858,,,
53.6875000000,6,0.3007239997,,,
53.7031250000,6,0.2447243035,,,
53.7187500000,6,0.1578330994,,,
53.7343750000,6,0.0044860840,,,
53.7500000000,6,-0.2358283997,,,
53.7656250000,6,-0.5262680054,,,
53.7812500000,6,-0.7901496887,,,
53.7968750000,6,-0.9527434707,,,
53.8125000000,6,-0.9774361253,,,
53.8281250000,6,-0.8786315918,,,
53.8437500000,6,-0.7235488892,,,
53.8593750000,6,-0.5758972168,,,
53.8750000000,6,-0.4994925857,,,
53.8906250000,6,-0.5174788833,,,
53.9062500000,6,-0.6311913133,,,
53.9218750000,6,-0.8035851121,,,
53.9375000000,6,-0.9529076219,,,
53.9531250000,6,-0.9875183105,,,
53.9687500000,6,-0.8209381104,,,
53.9843750000,6,-0.4427109063,,,
54.0000000000,6,0.0549468994,,,
54.0156250000,6,0.5215073228,,,
54.0312500000,6,0.8005219102,,,
54.0468750000,6,0.8238831162,,,
54.0625000000,6,0.6319084167,,,
54.0781250000,6,0.3456496894,,,
54.0937500000,6,0.1066780016,,,
54.1093750000,6,0.0180892907,,,
54.1250000000,6,0.1007957011,,,
54.1406250000,6,0.3162308037,,,
54.1562500000,6,0.5744323730,,,
54.1718750000,6,0.7873229980,,,
54.1875000000,6,0.8759880066,,,
54.2031250000,6,0.7932968140,,,
54.2187500000,6,0.5437850952,,,
54.2343750000,6,0.1840362996,,,
54.2500000000,6,-0.1802216023,,,
54.2656250000,6,-0.4388962090,,,
54.2812500000,6,-0.5018004775,,,
54.2968750000,6,-0.3515739143,,,
54.3125000000,6,-0.0462265015,,,
54.3281250000,6,0.3165282905,,,
54.3437500000,6,0.6303749084,,,
54.3593750000,6,0.8266754150,,,
54.3750000000,6,0.8658257127,,,
54.3906250000,6,0.7463912964,,,
54.4062500000,6,0.4873313904,,,
54.4218750000,6,0.1316871941,,,
54.4375000000,6,-0.2511787117,,,
54.4531250000,6,-0.5841140747,,,
54.4687500000,6,-0.8004683852,,,
54.4843750000,6,-0.8778839111,,,
54.5000000000,6,-0.8608283997,,,
54.5156250000,6,-0.8246192932,,,
54.5312500000,6,-0.8464164734,,,
54.5468750000,6,-0.9592589736,,,
54.5625000000,6,-1.1313480139,,,
54.5781250000,6,-1.2840540409,,,
54.5937500000,6,-1.3284230232,,,
54.6093750000,6,-1.1897050142,,,
54.6250000000,6,-0.8459358215,,,
54.6406250000,6,-0.3492203057,,,
54.6562500000,6,0.1711997986,,,
54.6718750000,6,0.5574532151,,,
54.6875000000,6,0.6529350281,,,
54.7031250000,6,0.3916054070,,,
54.7187500000,6,-0.1669884026,,,
54.7343750000,6,-0.8520470262,,,
54.7500000000,6,-1.4337389469,,,
54.7656250000,6,-1.7207529545,,,
54.7812500000,6,-1.6370890141,,,
54.7968750000,6,-1.2383840084,,,
54.8125000000,6,-0.6796073914,,,
54.8281250000,6,-0.1269875020,,,
54.8437500000,6,0.3237915039,,,
54.8593750000,6,0.6525955200,,,
54.8750000000,6,0.8864554763,,,
54.8906250000,6,1.0633050203,,,
54.9062500000,6,1.1819800138,,,
54.9218750000,6,1.2159960270,,,
54.9375000000,6,1.1345479488,,,
54.9531250000,6,0.9308242798,,,
54.9687500000,6,0.6356391907,,,
54.9843750000,6,0.3434525132,,,
55.0000000000,6,0.1357841045,,,
55.0156250000,6,0.0700874329,,,
55.0312500000,6,0.1398354024,,,
55.0468750000,6,0.2725143135,,,
55.0625000000,6,0.3768996894,,,
55.0781250000,6,0.3764648139,,,
55.0937500000,6,0.2478027046,,,
55.1093750000,6,0.0173759498,,,
55.1250000000,6,-0.2397918999,,,
55.1406250000,6,-0.4518317878,,,
55.1562500000,6,-0.5582122803,,,
55.1718750000,6,-0.5296021104,,,
55.1875000000,6,-0.3841590881,,,
55.2031250000,6,-0.1536941975,,,
55.2187500000,6,0.1054726020,,,
55.2343750000,6,0.3530006111,,,
55.2500000000,6,0.5430374146,,,
55.2656250000,6,0.6559600830,,,
55.2812500000,6,0.6783180237,,,
55.2968750000,6,0.6350708008,,,
55.3125000000,6,0.5655174255,,,
55.3281250000,6,0.5174484253,,,
55.3437500000,6,0.5238761902,,,
55.3593750000,6,0.5756453872,,,
55.3750000000,6,0.6369438171,,,
55.3906250000,6,0.6396141052,,,
55.4062500000,6,0.5465660095,,,
55.4218750000,6,0.3568458855,,,
55.4375000000,6,0.1309508979,,,
55.4531250000,6,-0.0454711914,,,
55.4687500000,6,-0.1126250997,,,
55.4843750000,6,-0.0556831397,,,
55.5000000000,6,0.0688896179,,,
55.5156250000,6,0.1923408955,,,
55.5312500000,6,0.2709006965,,,
55.5468750000,6,0.2936249077,,,
55.5625000000,6,0.2748222053,,,
55.5781250000,6,0.2174759060,,,
55.5937500000,6,0.1089325026,,,
55.6093750000,6,-0.0684356689,,,
55.6250000000,6,-0.2861137092,,,
55.6406250000,6,-0.4787636101,,,
55.6562500000,6,-0.5517960191,,,
55.6718750000,6,-0.4687041938,,,
55.6875000000,6,-0.2845497131,,,
55.7031250000,6,-0.1269073039,,,
55.7187500000,6,-0.1185721979,,,
55.7343750000,6,-0.2911835015,,,
55.7500000000,6,-0.5624352098,,,
55.7656250000,6,-0.7678298950,,,
55.7812500000,6,-0.7841147780,,,
55.7968750000,6,-0.5866050720,,,
55.8125000000,6,-0.2703056037,,,
55.8281250000,6,0.0228424091,,,
55.8437500000,6,0.2007102966,,,
55.8593750000,6,0.2483253032,,,
55.8750000000,6,0.2372436970,,,
55.8906250000,6,0.2231139988,,,
55.9062500000,6,0.2259826958,,,
55.9218750000,6,0.2138634026,,,
55.9375000000,6,0.1587256938,,,
55.9531250000,6,0.0636215210,,,
55.9687500000,6,-0.0148200998,,,
55.9843750000,6,-0.0025215149,,,
56.0000000000,7,0.1260070950,,,
56.0156250000,7,0.3279990852,,,
56.0312500000,7,0.5124092102,,,
56.0468750000,7,0.5977668762,,,
56.0625000000,7,0.5423964858,,,
56.0781250000,7,0.3720703125,,,
56.0937500000,7,0.1524123996,,,
56.1093750000,7,-0.0645637512,,,
56.1250000000,7,-0.2520408928,,,
56.1406250000,7,-0.4285126030,,,
56.1562500000,7,-0.6076545715,,,
56.1718750000,7,-0.7696303725,,,
56.1875000000,7,-0.8544312119,,,
56.2031250000,7,-0.7980461121,,,
