Time:64Hz,Epoch,Channel 1,Event Id,Event Date,Event Duration
0.0000000000,0,-2.5530400276,,,
0.0156250000,0,-2.3000490665,,,
0.0312500000,0,-2.2049560547,,,
0.0468750000,0,-2.2442250252,,,
0.0625000000,0,-2.3213579655,,,
0.0781250000,0,-2.3429489136,,,
0.0937500000,0,-2.2784190178,,,
0.1093750000,0,-2.1431961060,,,
0.1250000000,0,-1.9551240206,,,
0.1406250000,0,-1.6965329647,,,
0.1562500000,0,-1.3220520020,,,
0.1718750000,0,-0.8157271743,,,
0.1875000000,0,-0.2565231025,,,
0.2031250000,0,0.1933517009,,,
0.2187500000,0,0.3470230103,,,
0.2343750000,0,0.1221695021,,,
0.2500000000,0,-0.3937377930,,,
0.2656250000,0,-0.9642639160,,,
0.2812500000,0,-1.3219909668,,,
0.2968750000,0,-1.3148800135,,,
0.3125000000,0,-0.9678267837,,,
0.3281250000,0,-0.4821395874,,,
0.3437500000,0,-0.0988693163,,,
0.3593750000,0,0.0240325909,,,
0.3750000000,0,-0.1049500033,,,
0.3906250000,0,-0.3505249023,,,
0.4062500000,0,-0.5199661255,,,
0.4218750000,0,-0.4895935059,,,
0.4375000000,0,-0.2449035943,,,
0.4531250000,0,0.1359252930,,,
0.4687500000,0,0.5630112290,,,
0.4843750000,0,0.9824982285,,,
0.5000000000,0,1.4056169987,,,
0.5156250000,0,1.8701250553,,,
0.5312500000,0,2.3842539787,,,
0.5468750000,0,2.8837659359,,,
0.5625000000,0,3.2594070435,,,
0.5781250000,0,3.4090580940,,,
0.5937500000,0,3.2852859497,,,
0.6093750000,0,2.9236979485,,,
0.6250000000,0,2.4130170345,,,
0.6406250000,0,1.8485640287,,,
0.6562500000,0,1.2959669828,,,
0.6718750000,0,0.7926558852,,,
0.6875000000,0,0.3790664971,,,
0.7031250000,0,0.1119614020,,,
0.7187500000,0,0.0527954102,,,
0.7343750000,0,0.2146300972,,,
0.7500000000,0,0.5283507705,,,
0.7656250000,0,0.8491591811,,,
0.7812500000,0,1.0262149572,,,
0.7968750000,0,0.9669876099,,,
0.8125000000,0,0.6830596924,,,
0.8281250000,0,0.2642517090,,,
0.8437500000,0,-0.1856231987,,,
0.8593750000,0,-0.6060333252,,,
0.8750000000,0,-0.9896469116,,,
0.8906250000,0,-1.3425829411,,,
0.9062500000,0,-1.6515660286,,,
0.9218750000,0,-1.8694529533,,,
0.9375000000,0,-1.9319610596,,,
0.9531250000,0,-1.8310170174,,,
0.9687500000,0,-1.6156309843,,,
0.9843750000,0,-1.4034270048,,,
1.0000000000,0,-1.2991559505,,,
1.0156250000,0,-1.3633190393,,,
1.0312500000,0,-1.5613709688,,,
1.0468750000,0,-1.8052059412,,,
1.0625000000,0,-1.9772260189,,,
1.0781250000,0,-1.9773479700,,,
1.0937500000,0,-1.7702939510,,,
1.1093750000,0,-1.3974080086,,,
1.1250000000,0,-0.9604567885,,,
1.1406250000,0,-0.5751724243,,,
1.1562500000,0,-0.3501740098,,,
1.1718750000,0,-0.3313522041,,,
1.1875000000,0,-0.4922561944,,,
1.2031250000,0,-0.7585372925,,,
1.2187500000,0,-1.0246349573,,,
1.2343750000,0,-1.1975860596,,,
1.2500000000,0,-1.2406619787,,,
1.2656250000,0,-1.1629179716,,,
1.2812500000,0,-0.9982451797,,,
1.2968750000,0,-0.7969284058,,,
1.3125000000,0,-0.5942841172,,,
1.3281250000,0,-0.4305573106,,,
1.3437500000,0,-0.3505249023,,,
1.3593750000,0,-0.3924483955,,,
1.3750000000,0,-0.5815430284,,,
1.3906250000,0,-0.8900604248,,,
1.4062500000,0,-1.2252579927,,,
1.4218750000,0,-1.4790040255,,,
1.4375000000,0,-1.5594710112,,,
1.4531250000,0,-1.4371030331,,,
1.4687500000,0,-1.1493680477,,,
1.4843750000,0,-0.7758330703,,,
1.5000000000,0,-0.4105988145,,,
1.5156250000,0,-0.1247252971,,,
1.5312500000,0,0.0557403602,,,
1.5468750000,0,0.1261672974,,,
1.5625000000,0,0.1002959982,,,
1.5781250000,0,-0.0040359502,,,
1.5937500000,0,-0.1585159004,,,
1.6093750000,0,-0.3247680962,,,
1.6250000000,0,-0.4577026069,,,
1.6406250000,0,-0.5102310181,,,
1.6562500000,0,-0.4602203071,,,
1.6718750000,0,-0.3165512085,,,
1.6875000000,0,-0.1077347025,,,
1.7031250000,0,0.1081923991,,,
1.7187500000,0,0.2787475884,,,
1.7343750000,0,0.3833388984,,,
1.7500000000,0,0.4244002998,,,
1.7656250000,0,0.4358521104,,,
1.7812500000,0,0.4632186890,,,
1.7968750000,0,0.5495147705,,,
1.8125000000,0,0.7068024278,,,
1.8281250000,0,0.9063950181,,,
1.8437500000,0,1.0769200325,,,
1.8593750000,0,1.1630630493,,,
1.8750000000,0,1.1453859806,,,
1.8906250000,0,1.0475310087,,,
1.9062500000,0,0.9285202026,,,
1.9218750000,0,0.8423690796,,,
1.9375000000,0,0.8024672866,,,
1.9531250000,0,0.7883530259,,,
1.9687500000,0,0.7504196167,,,
1.9843750000,0,0.6539611816,,,
2.0000000000,0,0.5107880235,,,
2.0156250000,0,0.3662796021,,,
2.0312500000,0,0.2864685059,,,
2.0468750000,0,0.3034439087,,,
2.0625000000,0,0.4031600952,,,
2.0781250000,0,0.5194625854,,,
2.0937500000,0,0.5760269165,,,
2.1093750000,0,0.5286179185,,,
2.1250000000,0,0.3617095947,,,
2.1406250000,0,0.1109694988,,,
2.1562500000,0,-0.1623153985,,,
2.1718750000,0,-0.4064331055,,,
2.1875000000,0,-0.5868759155,,,
2.2031250000,0,-0.7150803208,,,
2.2187500000,0,-0.8160018921,,,
2.2343750000,0,-0.9142150879,,,
2.2500000000,0,-0.9904937744,,,
2.2656250000,0,-1.0001909733,,,
2.2812500000,0,-0.8816605210,,,
2.2968750000,0,-0.6090012193,,,
2.3125000000,0,-0.2307053059,,,
2.3281250000,0,0.1539916992,,,
2.3437500000,0,0.4246062934,,,
2.3593750000,0,0.5095748901,,,
2.3750000000,0,0.4006271064,,,
2.3906250000,0,0.1775588989,,,
2.4062500000,0,-0.0532836914,,,
2.4218750000,0,-0.1950072944,,,
2.4375000000,0,-0.2198639065,,,
2.4531250000,0,-0.1462250054,,,
2.4687500000,0,-0.0281524695,,,
2.4843750000,0,0.0746994019,,,
2.5000000000,0,0.1288834065,,,
2.5156250000,0,0.1148682013,,,
2.5312500000,0,0.0309524499,,,
2.5468750000,0,-0.1124954000,,,
2.5625000000,0,-0.2740707099,,,
2.5781250000,0,-0.4048767090,,,
2.5937500000,0,-0.4457244873,,,
2.6093750000,0,-0.3551253974,,,
2.6250000000,0,-0.1435623020,,,
2.6406250000,0,0.1516266018,,,
2.6562500000,0,0.4618988037,,,
2.6718750000,0,0.7322006226,,,
2.6875000000,0,0.9352722168,,,
2.7031250000,0,1.0673140287,,,
2.7187500000,0,1.1509629488,,,
2.7343750000,0,1.1963809729,,,
2.7500000000,0,1.1971509457,,,
2.7656250000,0,1.1099549532,,,
2.7812500000,0,0.9074401855,,,
2.7968750000,0,0.6017609239,,,
2.8125000000,0,0.2748259902,,,
2.8281250000,0,0.0668258667,,,
2.8437500000,0,0.1096497029,,,
2.8593750000,0,0.4610061944,,,
2.8750000000,0,1.0391620398,,,
2.8906250000,0,1.6625440121,,,
2.9062500000,0,2.0869669914,,,
2.9218750000,0,2.1531140804,,,
2.9375000000,0,1.8272930384,,,
2.9531250000,0,1.2291409969,,,
2.9687500000,0,0.5505753160,,,
2.9843750000,0,-0.0460968018,,,
3.0000000000,0,-0.4759292901,,,
3.0156250000,0,-0.7472609878,,,
3.0312500000,0,-0.9087219238,,,
3.0468750000,0,-1.0014649630,,,
3.0625000000,0,-1.0116729736,,,
3.0781250000,0,-0.9287567139,,,
3.0937500000,0,-0.7461928725,,,
3.1093750000,0,-0.4931792915,,,
3.1250000000,0,-0.2352447957,,,
3.1406250000,0,-0.0155563401,,,
3.1562500000,0,0.1367644966,,,
3.1718750000,0,0.2226790935,,,
3.1875000000,0,0.2434082031,,,
3.2031250000,0,0.1907272041,,,
3.2187500000,0,0.0566177405,,,
3.2343750000,0,-0.1500778049,,,
3.2500000000,0,-0.3759078979,,,
3.2656250000,0,-0.5556641221,,,
3.2812500000,0,-0.6374207139,,,
3.2968750000,0,-0.6157150269,,,
3.3125000000,0,-0.5298386216,,,
3.3281250000,0,-0.4359206855,,,
3.3437500000,0,-0.3651733100,,,
3.3593750000,0,-0.2930983901,,,
3.3750000000,0,-0.1721497029,,,
3.3906250000,0,0.0528411902,,,
3.4062500000,0,0.3580245972,,,
3.4218750000,0,0.6683884263,,,
3.4375000000,0,0.8741608262,,,
3.4531250000,0,0.9138870239,,,
3.4687500000,0,0.8162307739,,,
3.4843750000,0,0.6689453125,,,
3.5000000000,0,0.5626220703,,,
3.5156250000,0,0.5357285142,,,
3.5312500000,0,0.5489959717,,,
3.5468750000,0,0.5122451782,,,
3.5625000000,0,0.3646622002,,,
3.5781250000,0,0.1013718024,,,
3.5937500000,0,-0.2139586955,,,
3.6093750000,0,-0.4939117134,,,
3.6250000000,0,-0.6767807007,,,
3.6406250000,0,-0.7463530898,,,
3.6562500000,0,-0.7332764268,,,
3.6718750000,0,-0.6875000000,,,
3.6875000000,0,-0.6584014893,,,
3.7031250000,0,-0.6629105210,,,
3.7187500000,0,-0.7029572129,,,
3.7343750000,0,-0.7779235840,,,
3.7500000000,0,-0.8796997070,,,
3.7656250000,0,-0.9928436279,,,
3.7812500000,0,-1.0884699821,,,
3.7968750000,0,-1.1435090303,,,
3.8125000000,0,-1.1200710535,,,
3.8281250000,0,-0.9988327026,,,
3.8437500000,0,-0.7866516113,,,
3.8593750000,0,-0.5023574829,,,
3.8750000000,0,-0.2046127021,,,
3.8906250000,0,0.0563125610,,,
3.9062500000,0,0.2264022976,,,
3.9218750000,0,0.2939606011,,,
3.9375000000,0,0.2724761963,,,
3.9531250000,0,0.1860504001,,,
3.9687500000,0,0.0799255371,,,
3.9843750000,0,-0.0117874099,,,
4.0000000000,0,-0.0885925293,,,
4.0156250000,0,-0.1589584053,,,
4.0312500000,0,-0.2423934937,,,
4.0468750000,0,-0.3504256904,,,
4.0625000000,0,-0.4786911011,,,
4.0781250000,0,-0.6055222154,,,
4.0937500000,0,-0.7206801772,,,
4.1093750000,0,-0.8029708862,,,
4.1250000000,0,-0.8347167969,,,
4.1406250000,0,-0.8002700806,,,
4.1562500000,0,-0.6680983901,,,
4.1718750000,0,-0.4087677002,,,
4.1875000000,0,-0.0221862793,,,
4.2031250000,0,0.4391098022,,,
4.2187500000,0,0.8779677749,,,
4.2343750000,0,1.1745450497,,,
4.2500000000,0,1.2420120239,,,
4.2656250000,0,1.0595550537,,,
4.2812500000,0,0.7145844102,,,
4.2968750000,0,0.3298949897,,,
4.3125000000,0,0.0307006799,,,
4.3281250000,0,-0.1244888008,,,
4.3437500000,0,-0.1641387939,,,
4.3593750000,0,-0.1515578926,,,
4.3750000000,0,-0.1506499946,,,
4.3906250000,0,-0.1704864949,,,
4.4062500000,0,-0.1941452026,,,
4.4218750000,0,-0.1828995049,,,
4.4375000000,0,-0.1293563992,,,
4.4531250000,0,-0.0663604736,,,
4.4687500000,0,-0.0414047204,,,
4.4843750000,0,-0.0757217407,,,
4.5000000000,0,-0.1634826958,,,
4.5156250000,0,-0.2622680962,,,
4.5312500000,0,-0.3350448906,,,
4.5468750000,0,-0.3877029121,,,
4.5625000000,0,-0.4529418945,,,
4.5781250000,0,-0.5553054810,,,
4.5937500000,0,-0.7041472793,,,
4.6093750000,0,-0.8820571899,,,
4.6250000000,0,-1.0532610416,,,
4.6406250000,0,-1.2067259550,,,
4.6562500000,0,-1.3393479586,,,
4.6718750000,0,-1.4567259550,,,
4.6875000000,0,-1.5224380493,,,
4.7031250000,0,-1.4757920504,,,
4.7187500000,0,-1.2489240170,,,
4.7343750000,0,-0.8250579834,,,
4.7500000000,0,-0.2621765137,,,
4.7656250000,0,0.3203049004,,,
4.7812500000,0,0.7698897719,,,
4.7968750000,0,0.9828109741,,,
4.8125000000,0,0.9346694946,,,
4.8281250000,0,0.6930161119,,,
4.8437500000,0,0.3819962144,,,
4.8593750000,0,0.1238173991,,,
4.8750000000,0,-0.0233688392,,,
4.8906250000,0,-0.0717086792,,,
4.9062500000,0,-0.1021729037,,,
4.9218750000,0,-0.2102736980,,,
4.9375000000,0,-0.4436264038,,,
4.9531250000,0,-0.7627410889,,,
4.9687500000,0,-1.0626909733,,,
4.9843750000,0,-1.2039259672,,,
5.0000000000,0,-1.1138989925,,,
5.0156250000,0,-0.8105010986,,,
5.0312500000,0,-0.3914260864,,,
5.0468750000,0,0.0314483605,,,
5.0625000000,0,0.3595581055,,,
5.0781250000,0,0.5421143174,,,
5.0937500000,0,0.5638275146,,,
5.1093750000,0,0.4030457139,,,
5.1250000000,0,0.0696868896,,,
5.1406250000,0,-0.3901062012,,,
5.1562500000,0,-0.8584442139,,,
5.1718750000,0,-1.1857299805,,,
5.1875000000,0,-1.2463150024,,,
5.2031250000,0,-1.0084609985,,,
5.2187500000,0,-0.5592728257,,,
5.2343750000,0,-0.0602874793,,,
5.2500000000,0,0.3304901123,,,
5.2656250000,0,0.5633010864,,,
5.2812500000,0,0.6761931777,,,
5.2968750000,0,0.7619475722,,,
5.3125000000,0,0.8852385879,,,
5.3281250000,0,1.0408400297,,,
5.3437500000,0,1.1819610596,,,
5.3593750000,0,1.2741320133,,,
5.3750000000,0,1.3393100500,,,
5.3906250000,0,1.4311070442,,,
5.4062500000,0,1.5872269869,,,
5.4218750000,0,1.7696230412,,,
5.4375000000,0,1.8626400232,,,
5.4531250000,0,1.7465209961,,,
5.4687500000,0,1.3881839514,,,
5.4843750000,0,0.8845366836,,,
5.5000000000,0,0.4174042046,,,
5.5156250000,0,0.1468658000,,,
5.5312500000,0,0.1041945964,,,
5.5468750000,0,0.1916351020,,,
5.5625000000,0,0.2378769070,,,
5.5781250000,0,0.1244812012,,,
5.5937500000,0,-0.1220398024,,,
5.6093750000,0,-0.3604660034,,,
5.6250000000,0,-0.4311447144,,,
5.6406250000,0,-0.2677231133,,,
5.6562500000,0,0.0554809608,,,
5.6718750000,0,0.3626174927,,,
5.6875000000,0,0.4920653999,,,
5.7031250000,0,0.3700866997,,,
5.7187500000,0,0.0481338501,,,
5.7343750000,0,-0.3391799927,,,
5.7500000000,0,-0.6603469849,,,
5.7656250000,0,-0.8244019151,,,
5.7812500000,0,-0.8020554185,,,
5.7968750000,0,-0.6230239868,,,
5.8125000000,0,-0.3469924927,,,
5.8281250000,0,-0.0402679406,,,
5.8437500000,0,0.2182541043,,,
5.8593750000,0,0.3613280952,,,
5.8750000000,0,0.3526611030,,,
5.8906250000,0,0.1888733059,,,
5.9062500000,0,-0.0883178711,,,
5.9218750000,0,-0.3923797905,,,
5.9375000000,0,-0.6452255249,,,
5.9531250000,0,-0.7838364244,,,
5.9687500000,0,-0.7950438857,,,
5.9843750000,0,-0.7170485854,,,
6.0000000000,0,-0.6153945923,,,
6.0156250000,0,-0.5594481826,,,
6.0312500000,0,-0.5900573730,,,
6.0468750000,0,-0.6765593886,,,
6.0625000000,0,-0.7204437256,,,
6.0781250000,0,-0.6173248291,,,
6.0937500000,0,-0.3077239990,,,
6.1093750000,0,0.1664199978,,,
6.1250000000,0,0.6657485962,,,
6.1406250000,0,1.0267790556,,,
6.1562500000,0,1.1299740076,,,
6.1718750000,0,0.9625396729,,,
6.1875000000,0,0.6180573106,,,
6.2031250000,0,0.2375335991,,,
6.2187500000,0,-0.0637741089,,,
6.2343750000,0,-0.2221145928,,,
6.2500000000,0,-0.2662124932,,,
6.2656250000,0,-0.2589721978,,,
6.2812500000,0,-0.2583541870,,,
6.2968750000,0,-0.2902602851,,,
6.3125000000,0,-0.3505249023,,,
6.3281250000,0,-0.4096069038,,,
6.3437500000,0,-0.4392166138,,,
6.3593750000,0,-0.4250792861,,,
6.3750000000,0,-0.3562088013,,,
6.3906250000,0,-0.2456970066,,,
6.4062500000,0,-0.1078490987,,,
6.4218750000,0,0.0486144982,,,
6.4375000000,0,0.2079696953,,,
6.4531250000,0,0.3738479912,,,
6.4687500000,0,0.5445250869,,,
6.4843750000,0,0.7095947266,,,
6.5000000000,0,0.8625488281,,,
6.5156250000,0,0.9950637817,,,
6.5312500000,0,1.0796740055,,,
6.5468750000,0,1.1033170223,,,
6.5625000000,0,1.0486830473,,,
6.5781250000,0,0.9190139771,,,
6.5937500000,0,0.7618712783,,,
6.6093750000,0,0.6334229112,,,
6.6250000000,0,0.5828018188,,,
6.6406250000,0,0.6131668091,,,
6.6562500000,0,0.6850891113,,,
6.6718750000,0,0.7263870239,,,
6.6875000000,0,0.6764069200,,,
6.7031250000,0,0.5097351074,,,
6.7187500000,0,0.2403182983,,,
6.7343750000,0,-0.0884094164,,,
6.7500000000,0,-0.4318923950,,,
6.7656250000,0,-0.7446135879,,,
6.7812500000,0,-0.9922943115,,,
6.7968750000,0,-1.1562349796,,,
6.8125000000,0,-1.2376630306,,,
6.8281250000,0,-1.2464289665,,,
6.8437500000,0,-1.2298129797,,,
6.8593750000,0,-1.2407530546,,,
6.8750000000,0,-1.2834630013,,,
6.8906250000,0,-1.3119809628,,,
6.9062500000,0,-1.2254869938,,,
6.9218750000,0,-0.9248886108,,,
6.9375000000,0,-0.3845672905,,,
6.9531250000,0,0.3055191040,,,
6.9687500000,0,0.9665604234,,,
6.9843750000,0,1.4026570320,,,
7.0000000000,0,1.4961550236,,,
7.0156250000,0,1.2549060583,,,
7.0312500000,0,0.7879257202,,,
7.0468750000,0,0.2793883979,,,
7.0625000000,0,-0.1089249030,,,
7.0781250000,0,-0.2916870117,,,
7.0937500000,0,-0.2671813965,,,
7.1093750000,0,-0.1014022976,,,
7.1250000000,0,0.1025085002,,,
7.1406250000,0,0.2553864121,,,
7.1562500000,0,0.3121947944,,,
7.1718750000,0,0.2663573921,,,
7.1875000000,0,0.1406479031,,,
7.2031250000,0,-0.0271835309,,,
7.2187500000,0,-0.1906585991,,,
7.2343750000,0,-0.3286818862,,,
7.2500000000,0,-0.4407958984,,,
7.2656250000,0,-0.5538635254,,,
7.2812500000,0,-0.6926116943,,,
7.2968750000,0,-0.8676528931,,,
7.3125000000,0,-1.0739820004,,,
7.3281250000,0,-1.2560269833,,,
7.3437500000,0,-1.3571089506,,,
7.3593750000,0,-1.3234250546,,,
7.3750000000,0,-1.1307070255,,,
7.3906250000,0,-0.8130034804,,,
7.4062500000,0,-0.4312210083,,,
7.4218750000,0,-0.0630340576,,,
7.4375000000,0,0.2310791016,,,
7.4531250000,0,0.4194945991,,,
7.4687500000,0,0.4888916016,,,
7.4843750000,0,0.4349670112,,,
7.5000000000,0,0.2683486938,,,
7.5156250000,0,0.0195922907,,,
7.5312500000,0,-0.2365036011,,,
7.5468750000,0,-0.4053040147,,,
7.5625000000,0,-0.3964157104,,,
7.5781250000,0,-0.1864777058,,,
7.5937500000,0,0.1719284058,,,
7.6093750000,0,0.5672072768,,,
7.6250000000,0,0.8623961806,,,
7.6406250000,0,0.9789810181,,,
7.6562500000,0,0.9174271226,,,
7.6718750000,0,0.7509307861,,,
7.6875000000,0,0.5761185288,,,
7.7031250000,0,0.4638138115,,,
7.7187500000,0,0.4365768135,,,
7.7343750000,0,0.4520721138,,,
7.7500000000,0,0.4442825019,,,
7.7656250000,0,0.3565140069,,,
7.7812500000,0,0.1617660969,,,
7.7968750000,0,-0.1137389988,,,
7.8125000000,0,-0.3964005113,,,
7.8281250000,0,-0.5863265991,,,
7.8437500000,0,-0.6127852798,,,
7.8593750000,0,-0.4538039863,,,
7.8750000000,0,-0.1464232951,,,
7.8906250000,0,0.2130431980,,,
7.9062500000,0,0.5228652954,,,
7.9218750000,0,0.7107697129,,,
7.9375000000,0,0.7318419814,,,
7.9531250000,0,0.5827866197,,,
7.9687500000,0,0.2998046875,,,
7.9843750000,0,-0.0539093018,,,
8.0000000000,1,-0.3839417100,,,
8.0156250000,1,-0.6004943848,,,
8.0312500000,1,-0.6299362183,,,
8.0468750000,1,-0.4654236138,,,
8.0625000000,1,-0.1508789063,,,
8.0781250000,1,0.2148285061,,,
8.0937500000,1,0.5351943970,,,
8.1093750000,1,0.7378768921,,,
8.1250000000,1,0.7820891738,,,
8.1406250000,1,0.6873779297,,,
8.1562500000,1,0.5143051147,,,
8.1718750000,1,0.3404006958,,,
8.1875000000,1,0.2309418023,,,
8.2031250000,1,0.2087630928,,,
8.2187500000,1,0.2463912964,,,
8.2343750000,1,0.2738265991,,,
8.2500000000,1,0.2358932048,,,
8.2656250000,1,0.1245803982,,,
8.2812500000,1,0.0001678467,,,
8.2968750000,1,-0.0726699829,,,
8.3125000000,1,-0.0518798791,,,
8.3281250000,1,0.0230560303,,,
8.3437500000,1,0.0654067993,,,
8.3593750000,1,-0.0023880000,,,
8.3750000000,1,-0.1838759929,,,
8.3906250000,1,-0.3983764946,,,
8.4062500000,1,-0.5344619751,,,
8.4218750000,1,-0.5142822266,,,
8.4375000000,1,-0.3582992852,,,
8.4531250000,1,-0.1511230022,,,
8.4687500000,1,0.0000534058,,,
8.4843750000,1,0.0324249305,,,
8.5000000000,1,-0.0505371094,,,
8.5156250000,1,-0.2004929036,,,
8.5312500000,1,-0.3335953057,,,
8.5468750000,1,-0.3828963935,,,
8.5625000000,1,-0.2854843140,,,
8.5781250000,1,-0.0292968806,,,
8.5937500000,1,0.3471297920,,,
8.6093750000,1,0.7404251099,,,
8.6250000000,1,1.0226819515,,,
8.6406250000,1,1.1007610559,,,
8.6562500000,1,0.9688416123,,,
8.6718750000,1,0.7083129883,,,
8.6875000000,1,0.4195862114,,,
8.7031250000,1,0.1981201023,,,
8.7187500000,1,0.0702743530,,,
8.7343750000,1,0.0194854699,,,
8.7500000000,1,0.0162658691,,,
8.7656250000,1,0.0397109985,,,
8.7812500000,1,0.0931549072,,,
8.7968750000,1,0.1661452949,,,
8.8125000000,1,0.2448578030,,,
8.8281250000,1,0.2921752930,,,
8.8437500000,1,0.2905730903,,,
8.8593750000,1,0.2370605022,,,
8.8750000000,1,0.1486968994,,,
8.8906250000,1,0.0451889001,,,
8.9062500000,1,-0.0692596436,,,
8.9218750000,1,-0.1986542046,,,
8.9375000000,1,-0.3478546143,,,
8.9531250000,1,-0.5019912720,,,
8.9687500000,1,-0.6355972290,,,
8.9843750000,1,-0.7220153809,,,
9.0000000000,1,-0.7319869995,,,
9.0156250000,1,-0.6410750747,,,
9.0312500000,1,-0.4360961914,,,
9.0468750000,1,-0.1319275051,,,
9.0625000000,1,0.2312698066,,,
9.0781250000,1,0.5890502930,,,
9.0937500000,1,0.8783950806,,,
9.1093750000,1,1.0454640388,,,
9.1250000000,1,1.0568239689,,,
9.1406250000,1,0.8877639771,,,
9.1562500000,1,0.5416718125,,,
9.1718750000,1,0.0652694702,,,
9.1875000000,1,-0.4372558892,,,
9.2031250000,1,-0.8131104112,,,
9.2187500000,1,-0.9305573106,,,
9.2343750000,1,-0.7281876206,,,
9.2500000000,1,-0.2766953111,,,
9.2656250000,1,0.2737044990,,,
9.2812500000,1,0.7439041138,,,
9.2968750000,1,1.0196690559,,,
9.3125000000,1,1.0827640295,,,
9.3281250000,1,0.9619750977,,,
9.3437500000,1,0.7025299072,,,
9.3593750000,1,0.3325653076,,,
9.3750000000,1,-0.1169890985,,,
9.3906250000,1,-0.5724105835,,,
9.4062500000,1,-0.9311599731,,,
9.4218750000,1,-1.0962749720,,,
9.4375000000,1,-1.0323790312,,,
9.4531250000,1,-0.7808914185,,,
9.4687500000,1,-0.4444808960,,,
9.4843750000,1,-0.1398238987,,,
9.5000000000,1,0.0497970618,,,
9.5156250000,1,0.0718688965,,,
9.5312500000,1,-0.0776825026,,,
9.5468750000,1,-0.3833541870,,,
9.5625000000,1,-0.7819519043,,,
9.5781250000,1,-1.1762009859,,,
9.5937500000,1,-1.4268800020,,,
9.6093750000,1,-1.4171830416,,,
9.6250000000,1,-1.0981830359,,,
9.6406250000,1,-0.5389022827,,,
9.6562500000,1,0.0868072510,,,
9.6718750000,1,0.5815352798,,,
9.6875000000,1,0.8010559082,,,
9.7031250000,1,0.7155609131,,,
9.7187500000,1,0.3923186958,,,
9.7343750000,1,-0.0329894982,,,
9.7500000000,1,-0.4284897149,,,
9.7656250000,1,-0.6987380981,,,
9.7812500000,1,-0.8113480210,,,
9.7968750000,1,-0.8044434190,,,
9.8125000000,1,-0.7470244765,,,
9.8281250000,1,-0.7102890015,,,
9.8437500000,1,-0.7226486206,,,
9.8593750000,1,-0.7608489990,,,
9.8750000000,1,-0.7658615112,,,
9.8906250000,1,-0.6754683852,,,
9.9062500000,1,-0.4701462090,,,
9.9218750000,1,-0.1758347005,,,
9.9375000000,1,0.1408462971,,,
9.9531250000,1,0.4296570122,,,
9.9687500000,1,0.6565322876,,,
9.9843750000,1,0.8255156875,,,
10.0000000000,1,0.9507369995,,,
10.0156250000,1,1.0193630457,,,
10.0312500000,1,1.0006480217,,,
10.0468750000,1,0.8512114882,,,
10.0625000000,1,0.5842589736,,,
10.0781250000,1,0.2718276978,,,
10.0937500000,1,0.0538482703,,,
10.1093750000,1,0.0439147912,,,
10.1250000000,1,0.2658615112,,,
10.1406250000,1,0.6144257188,,,
10.1562500000,1,0.8890457153,,,
10.1718750000,1,0.9040756226,,,
10.1875000000,1,0.5674285889,,,
10.2031250000,1,-0.0440979004,,,
10.2187500000,1,-0.7335280776,,,
10.2343750000,1,-1.2963869572,,,
10.2500000000,1,-1.6173779964,,,
10.2656250000,1,-1.7224659920,,,
10.2812500000,1,-1.7265239954,,,
10.2968750000,1,-1.7459870577,,,
10.3125000000,1,-1.8003460169,,,
10.3281250000,1,-1.8081049919,,,
10.3437500000,1,-1.6570589542,,,
10.3593750000,1,-1.3006589413,,,
10.3750000000,1,-0.7982025146,,,
10.3906250000,1,-0.2687073052,,,
10.4062500000,1,0.1898041070,,,
10.4218750000,1,0.5557250977,,,
10.4375000000,1,0.8828353882,,,
10.4531250000,1,1.2447429895,,,
10.4687500000,1,1.6351699829,,,
10.4843750000,1,1.9594420195,,,
10.5000000000,1,2.0763549805,,,
10.5156250000,1,1.8854600191,,,
10.5312500000,1,1.3863979578,,,
10.5468750000,1,0.7008361816,,,
10.5625000000,1,0.0162124597,,,
10.5781250000,1,-0.5005264282,,,
10.5937500000,1,-0.7618178725,,,
10.6093750000,1,-0.7871016860,,,
10.6250000000,1,-0.6859664917,,,
10.6406250000,1,-0.5994948745,,,
10.6562500000,1,-0.6505736709,,,
10.6718750000,1,-0.8684235215,,,
10.6875000000,1,-1.1883770227,,,
10.7031250000,1,-1.4847949743,,,
10.7187500000,1,-1.6032030582,,,
10.7343750000,1,-1.4458849430,,,
10.7500000000,1,-1.0075910091,,,
10.7656250000,1,-0.3889617920,,,
10.7812500000,1,0.2376327962,,,
10.7968750000,1,0.6797255874,,,
10.8125000000,1,0.8084868789,,,
10.8281250000,1,0.5986176133,,,
10.8437500000,1,0.1335677952,,,
10.8593750000,1,-0.4188919067,,,
10.8750000000,1,-0.8925858140,,,
10.8906250000,1,-1.1536710262,,,
10.9062500000,1,-1.1502530575,,,
10.9218750000,1,-0.9224472046,,,
10.9375000000,1,-0.5560225844,,,
10.9531250000,1,-0.1597366035,,,
10.9687500000,1,0.1887436062,,,
10.9843750000,1,0.4346924126,,,
11.0000000000,1,0.5678787231,,,
11.0156250000,1,0.5832291245,,,
11.0312500000,1,0.4957732856,,,
11.0468750000,1,0.3363265991,,,
11.0625000000,1,0.1686553955,,,
11.0781250000,1,0.0485000610,,,
11.0937500000,1,0.0170745794,,,
11.1093750000,1,0.0822753906,,,
11.1250000000,1,0.2035979927,,,
11.1406250000,1,0.3100967109,,,
11.1562500000,1,0.3181000054,,,
11.1718750000,1,0.1867294014,,,
11.1875000000,1,-0.0575180091,,,
11.2031250000,1,-0.3319855034,,,
11.2187500000,1,-0.5232543945,,,
11.2343750000,1,-0.5449448228,,,
11.2500000000,1,-0.3742142022,,,
11.2656250000,1,-0.0713043213,,,
11.2812500000,1,0.2670440972,,,
11.2968750000,1,0.5289077759,,,
11.3125000000,1,0.6345366836,,,
11.3281250000,1,0.5548248291,,,
11.3437500000,1,0.3063735962,,,
11.3593750000,1,-0.0491333008,,,
11.3750000000,1,-0.4146347046,,,
11.3906250000,1,-0.6852874756,,,
11.4062500000,1,-0.7736206055,,,
11.4218750000,1,-0.6401367188,,,
11.4375000000,1,-0.3061294854,,,
11.4531250000,1,0.1445236057,,,
11.4687500000,1,0.6075592041,,,
11.4843750000,1,1.0012209415,,,
11.5000000000,1,1.2916029692,,,
11.5156250000,1,1.4789049625,,,
11.5312500000,1,1.5638580322,,,
11.5468750000,1,1.5271760225,,,
11.5625000000,1,1.3566360474,,,
11.5781250000,1,1.0436480045,,,
11.5937500000,1,0.6355515122,,,
11.6093750000,1,0.2104187012,,,
11.6250000000,1,-0.1465836018,,,
11.6406250000,1,-0.3984450996,,,
11.6562500000,1,-0.5754395127,,,
11.6718750000,1,-0.7474899292,,,
11.6875000000,1,-0.9725800157,,,
11.7031250000,1,-1.2371059656,,,
11.7187500000,1,-1.4556879997,,,
11.7343750000,1,-1.5107799768,,,
11.7500000000,1,-1.3129119873,,,
11.7656250000,1,-0.8646469116,,,
11.7812500000,1,-0.2735900879,,,
11.7968750000,1,0.2881165147,,,
11.8125000000,1,0.6758347154,,,
11.8281250000,1,0.8431854248,,,
11.8437500000,1,0.8514633179,,,
11.8593750000,1,0.8205947876,,,
11.8750000000,1,0.8704453111,,,
11.8906250000,1,1.0205080509,,,
11.9062500000,1,1.1880040169,,,
11.9218750000,1,1.2397990227,,,
11.9375000000,1,1.0818480253,,,
11.9531250000,1,0.7271270752,,,
11.9687500000,1,0.2869338989,,,
11.9843750000,1,-0.0942077637,,,
12.0000000000,1,-0.3321990967,,,
12.0156250000,1,-0.4380263984,,,
12.0312500000,1,-0.5128936768,,,
12.0468750000,1,-0.6611937881,,,
12.0625000000,1,-0.8952103257,,,
12.0781250000,1,-1.1366419792,,,
12.0937500000,1,-1.2470929623,,,
12.1093750000,1,-1.1255719662,,,
12.1250000000,1,-0.7657470703,,,
12.1406250000,1,-0.2548598945,,,
12.1562500000,1,0.2882767022,,,
12.1718750000,1,0.7622222900,,,
12.1875000000,1,1.1239320040,,,
12.2031250000,1,1.3825229406,,,
12.2187500000,1,1.5617599487,,,
12.2343750000,1,1.6632610559,,,
12.2500000000,1,1.6692049503,,,
12.2656250000,1,1.5643999577,,,
12.2812500000,1,1.3438110352,,,
12.2968750000,1,1.0417939425,,,
12.3125000000,1,0.7105330825,,,
12.3281250000,1,0.4210587144,,,
12.3437500000,1,0.2412872016,,,
12.3593750000,1,0.1898193061,,,
12.3750000000,1,0.2533339858,,,
12.3906250000,1,0.3533096015,,,
12.4062500000,1,0.4243392944,,,
12.4218750000,1,0.4181213081,,,
12.4375000000,1,0.3447647095,,,
12.4531250000,1,0.2562485039,,,
12.4687500000,1,0.1789322048,,,
12.4843750000,1,0.0929870605,,,
12.5000000000,1,-0.0808486864,,,
12.5156250000,1,-0.3941040039,,,
12.5312500000,1,-0.8227080703,,,
12.5468750000,1,-1.2414629459,,,
12.5625000000,1,-1.4662480354,,,
12.5781250000,1,-1.3695069551,,,
12.5937500000,1,-0.9556884766,,,
12.6093750000,1,-0.3814773858,,,
12.6250000000,1,0.1465988010,,,
12.6406250000,1,0.4641875923,,,
12.6562500000,1,0.5524901748,,,
12.6718750000,1,0.5149077773,,,
12.6875000000,1,0.5115737915,,,
12.7031250000,1,0.6480026245,,,
12.7187500000,1,0.9069901109,,,
12.7343750000,1,1.1673200130,,,
12.7500000000,1,1.2723770142,,,
12.7656250000,1,1.1345059872,,,
12.7812500000,1,0.7475432754,,,
12.7968750000,1,0.2154387981,,,
12.8125000000,1,-0.3129043877,,,
12.8281250000,1,-0.7070693970,,,
12.8437500000,1,-0.8862457275,,,
12.8593750000,1,-0.8474578857,,,
12.8750000000,1,-0.6279373169,,,
12.8906250000,1,-0.2934874892,,,
12.9062500000,1,0.1264190972,,,
12.9218750000,1,0.5924301147,,,
12.9375000000,1,1.0797499418,,,
12.9531250000,1,1.5205919743,,,
12.9687500000,1,1.8175510168,,,
12.9843750000,1,1.8972630501,,,
13.0000000000,1,1.7345960140,,,
13.0156250000,1,1.4062039852,,,
13.0312500000,1,1.0516660213,,,
13.0468750000,1,0.8072891235,,,
13.0625000000,1,0.7230681777,,,
13.0781250000,1,0.7533112168,,,
13.0937500000,1,0.7930678725,,,
13.1093750000,1,0.7353972793,,,
13.1250000000,1,0.5544281006,,,
13.1406250000,1,0.3038712144,,,
13.1562500000,1,0.0719909668,,,
13.1718750000,1,-0.0753631592,,,
13.1875000000,1,-0.0998840332,,,
13.2031250000,1,-0.0023422239,,,
13.2187500000,1,0.2117232978,,,
13.2343750000,1,0.5125122070,,,
13.2500000000,1,0.8307723999,,,
13.2656250000,1,1.0602259636,,,
13.2812500000,1,1.0779880285,,,
13.2968750000,1,0.8235015869,,,
13.3125000000,1,0.3441086113,,,
13.3281250000,1,-0.2074127048,,,
13.3437500000,1,-0.6563950181,,,
13.3593750000,1,-0.8790283203,,,
13.3750000000,1,-0.8715590835,,,
13.3906250000,1,-0.7275161743,,,
13.4062500000,1,-0.5622406006,,,
13.4218750000,1,-0.4696274102,,,
13.4375000000,1,-0.4521560967,,,
13.4531250000,1,-0.4788742065,,,
13.4687500000,1,-0.4912261963,,,
13.4843750000,1,-0.4500580132,,,
13.5000000000,1,-0.3453293145,,,
13.5156250000,1,-0.2002106011,,,
13.5312500000,1,-0.0625228882,,,
13.5468750000,1,0.0248413105,,,
13.5625000000,1,0.0186996497,,,
13.5781250000,1,-0.0652236864,,,
13.5937500000,1,-0.1792984009,,,
13.6093750000,1,-0.2624892890,,,
13.6250000000,1,-0.3044585884,,,
13.6406250000,1,-0.3330002129,,,
13.6562500000,1,-0.4012145996,,,
13.6718750000,1,-0.5405883789,,,
13.6875000000,1,-0.7106704712,,,
13.7031250000,1,-0.8257141113,,,
13.7187500000,1,-0.7898331285,,,
13.7343750000,1,-0.5660706162,,,
13.7500000000,1,-0.2196349949,,,
13.7656250000,1,0.1238097996,,,
13.7812500000,1,0.3195953071,,,
13.7968750000,1,0.3000031114,,,
13.8125000000,1,0.0975341797,,,
13.8281250000,1,-0.1869736016,,,
13.8437500000,1,-0.4406737983,,,
13.8593750000,1,-0.5939406753,,,
13.8750000000,1,-0.6436005235,,,
13.8906250000,1,-0.6332778931,,,
13.9062500000,1,-0.6020507813,,,
13.9218750000,1,-0.5606461167,,,
13.9375000000,1,-0.4673080146,,,
13.9531250000,1,-0.2721785903,,,
13.9687500000,1,0.0727310181,,,
13.9843750000,1,0.5428009033,,,
14.0000000000,1,1.0489350557,,,
14.0156250000,1,1.4510350227,,,
14.0312500000,1,1.6099619865,,,
14.0468750000,1,1.4815829992,,,
14.0625000000,1,1.0892939568,,,
14.0781250000,1,0.5443801880,,,
14.0937500000,1,-0.0399093591,,,
14.1093750000,1,-0.5696411133,,,
14.1250000000,1,-1.0057369471,,,
14.1406250000,1,-1.3287960291,,,
14.1562500000,1,-1.5096969604,,,
14.1718750000,1,-1.5162199736,,,
14.1875000000,1,-1.3171770573,,,
14.2031250000,1,-0.9519423842,,,
14.2187500000,1,-0.5222777724,,,
14.2343750000,1,-0.1762389988,,,
14.2500000000,1,-0.0429611206,,,
14.2656250000,1,-0.1375426948,,,
14.2812500000,1,-0.3839035034,,,
14.2968750000,1,-0.6397476196,,,
14.3125000000,1,-0.7873076797,,,
14.3281250000,1,-0.7830429077,,,
14.3437500000,1,-0.6660537720,,,
14.3593750000,1,-0.5035858154,,,
14.3750000000,1,-0.3467864990,,,
14.3906250000,1,-0.2082825005,,,
14.4062500000,1,-0.0740356371,,,
14.4218750000,1,0.0523757897,,,
14.4375000000,1,0.1430206001,,,
14.4531250000,1,0.1464156955,,,
14.4687500000,1,0.0426330604,,,
14.4843750000,1,-0.1571502984,,,
14.5000000000,1,-0.3811034858,,,
14.5156250000,1,-0.5560836792,,,
14.5312500000,1,-0.6215819716,,,
14.5468750000,1,-0.5542755127,,,
14.5625000000,1,-0.3802567124,,,
14.5781250000,1,-0.1278152019,,,
14.5937500000,1,0.1463164985,,,
14.6093750000,1,0.3951187134,,,
14.6250000000,1,0.5641632080,,,
14.6406250000,1,0.6196060181,,,
14.6562500000,1,0.5407485962,,,
14.6718750000,1,0.3428801894,,,
14.6875000000,1,0.0748672485,,,
14.7031250000,1,-0.2116013020,,,
14.7187500000,1,-0.4589766860,,,
14.7343750000,1,-0.6565322876,,,
14.7500000000,1,-0.8299484253,,,
14.7656250000,1,-1.0158309937,,,
14.7812500000,1,-1.2287369967,,,
14.7968750000,1,-1.4313280582,,,
14.8125000000,1,-1.5568239689,,,
14.8281250000,1,-1.5282059908,,,
14.8437500000,1,-1.3175510168,,,
14.8593750000,1,-0.9544829726,,,
14.8750000000,1,-0.5369110107,,,
14.8906250000,1,-0.1748352051,,,
14.9062500000,1,0.0486373901,,,
14.9218750000,1,0.1142807007,,,
14.9375000000,1,0.0612182617,,,
14.9531250000,1,-0.0322723389,,,
14.9687500000,1,-0.0948715210,,,
14.9843750000,1,-0.0971221924,,,
15.0000000000,1,-0.0445175208,,,
15.0156250000,1,0.0273590107,,,
15.0312500000,1,0.1033096015,,,
15.0468750000,1,0.1689071953,,,
15.0625000000,1,0.2394333035,,,
15.0781250000,1,0.3397980034,,,
15.0937500000,1,0.4934464097,,,
15.1093750000,1,0.7029265761,,,
15.1250000000,1,0.9313812256,,,
15.1406250000,1,1.1076129675,,,
15.1562500000,1,1.1388549805,,,
15.1718750000,1,0.9663773179,,,
15.1875000000,1,0.5903090835,,,
15.2031250000,1,0.1053619012,,,
15.2187500000,1,-0.3437652886,,,
15.2343750000,1,-0.6116256714,,,
15.2500000000,1,-0.6137694716,,,
15.2656250000,1,-0.3738251030,,,
15.2812500000,1,-0.0000305176,,,
15.2968750000,1,0.3444137871,,,
15.3125000000,1,0.5232772827,,,
15.3281250000,1,0.4741592109,,,
15.3437500000,1,0.2280272990,,,
15.3593750000,1,-0.0982589722,,,
15.3750000000,1,-0.3737334907,,,
15.3906250000,1,-0.4929504097,,,
15.4062500000,1,-0.4275436103,,,
15.4218750000,1,-0.2250518948,,,
15.4375000000,1,-0.0015182500,,,
15.4531250000,1,0.1271439046,,,
15.4687500000,1,0.0723724365,,,
15.4843750000,1,-0.1863936931,,,
15.5000000000,1,-0.6298294067,,,
15.5156250000,1,-1.1976089478,,,
15.5312500000,1,-1.8146899939,,,
15.5468750000,1,-2.4152219296,,,
15.5625000000,1,-2.9363400936,,,
15.5781250000,1,-3.3397290707,,,
15.5937500000,1,-3.6029820442,,,
15.6093750000,1,-3.7676539421,,,
15.6250000000,1,-3.8962628841,,,
15.6406250000,1,-4.0851821899,,,
15.6562500000,1,-4.4023737907,,,
15.6718750000,1,-4.8619232178,,,
15.6875000000,1,-5.4323959351,,,
15.7031250000,1,-6.0380020142,,,
15.7187500000,1,-6.6294560432,,,
15.7343750000,1,-7.1849517822,,,
15.7500000000,1,-7.7397608757,,,
15.7656250000,1,-8.3601455688,,,
15.7812500000,1,-9.1013031006,,,
15.7968750000,1,-9.9928359985,,,
15.8125000000,1,-11.0370903015,,,
15.8281250000,1,-12.2255802155,,,
15.8437500000,1,-13.5686597824,,,
15.8593750000,1,-15.1090497971,,,
15.8750000000,1,-16.8787097931,,,
15.8906250000,1,-18.8561191559,,,
15.9062500000,1,-20.9187908173,,,
15.9218750000,1,-22.8998794556,,,
15.9375000000,1,-24.7146091461,,,
15.9531250000,1,-26.4517993927,,,
15.9687500000,1,-28.4313392639,,,
15.9843750000,1,-31.0456695557,,,
16.0000000000,2,-34.6116485596,,,
16.0156250000,2,-39.1309814453,,,
16.0312500000,2,-44.2644004822,,,
16.0468750000,2,-49.4739799500,,,
16.0625000000,2,-54.3068809509,,,
16.0781250000,2,-58.6477088928,,,
16.0937500000,2,-62.7739601135,,,
16.1093750000,2,-67.2484970093,,,
16.1250000000,2,-72.5908203125,,,
16.1406250000,2,-79.0670928955,,,
16.1562500000,2,-86.5134582520,,,
16.1718750000,2,-94.4766464233,,,
16.1875000000,2,-102.4028015137,,,
16.2031250000,2,-109.9276962280,,,
16.2187500000,2,-117.0636978149,,,
16.2343750000,2,-124.1864013672,,,
16.2500000000,2,-131.9533996582,,,
16.2656250000,2,-141.0715942383,,,
16.2812500000,2,-152.1329956055,,,
16.2968750000,2,-165.2830963135,,,
16.3125000000,2,-179.9358978271,,,
16.3281250000,2,-194.4929962158,,,
16.3437500000,2,-206.4058990479,,,
16.3593750000,2,-212.6959991455,,,
16.3750000000,2,-210.8565979004,,,
16.3906250000,2,-199.8372955322,,,
16.4062500000,2,-180.4400024414,,,
16.4218750000,2,-155.1558990479,,,
16.4375000000,2,-127.1367034912,,,
16.4531250000,2,-99.0101318359,,,
16.4687500000,2,-72.0552062988,,,
16.4843750000,2,-46.0026588440,,,
16.5000000000,2,-19.4689292908,,,
16.5156250000,2,9.3299865723,,,
16.5312500000,2,41.7882690430,,,
16.5468750000,2,78.2843627930,,,
16.5625000000,2,117.6957015991,,,
16.5781250000,2,157.3267974854,,,
16.5937500000,2,193.2714996338,,,
16.6093750000,2,221.3757934570,,,
16.6250000000,2,238.5449981689,,,
16.6406250000,2,243.7834930420,,,
16.6562500000,2,238.5433044434,,,
16.6718750000,2,225.9907073975,,,
16.6875000000,2,209.7978057861,,,
16.7031250000,2,192.8881072998,,,
16.7187500000,2,176.8827056885,,,
16.7343750000,2,162.3166046143,,,
16.7500000000,2,149.2359008789,,,
16.7656250000,2,137.7252044678,,,
16.7812500000,2,127.9824981689,,,
16.7968750000,2,120.0358963013,,,
16.8125000000,2,113.4512023926,,,
16.8281250000,2,107.3507003784,,,
16.8437500000,2,100.7652969360,,,
16.8593750000,2,93.1231079102,,,
16.8750000000,2,84.5067062378,,,
16.8906250000,2,75.5591964722,,,
16.9062500000,2,67.2393798828,,,
16.9218750000,2,60.2935791016,,,
16.9375000000,2,54.9594688416,,,
16.9531250000,2,50.8916015625,,,
16.9687500000,2,47.3654785156,,,
16.9843750000,2,43.6240196228,,,
17.0000000000,2,39.2021484375,,,
17.0156250000,2,34.1069908142,,,
17.0312500000,2,28.7553100586,,,
17.0468750000,2,23.7626991272,,,
17.0625000000,2,19.6461200714,,,
17.0781250000,2,16.6400794983,,,
17.0937500000,2,14.6301898956,,,
17.1093750000,2,13.2579298019,,,
17.1250000000,2,12.0886802673,,,
17.1406250000,2,10.7424898148,,,
17.1562500000,2,9.0074462891,,,
17.1718750000,2,6.8634638786,,,
17.1875000000,2,4.4771728516,,,
17.2031250000,2,2.1448359489,,,
17.2187500000,2,0.1951903999,,,
17.2343750000,2,-1.1177979708,,,
17.2500000000,2,-1.7108759880,,,
17.2656250000,2,-1.7380369902,,,
17.2812500000,2,-1.5167850256,,,
17.2968750000,2,-1.4153439999,,,
17.3125000000,2,-1.6948850155,,,
17.3281250000,2,-2.4305419922,,,
17.3437500000,2,-3.5029909611,,,
17.3593750000,2,-4.6779170036,,,
17.3750000000,2,-5.7244868279,,,
17.3906250000,2,-6.5126948357,,,
17.4062500000,2,-7.0405268669,,,
17.4218750000,2,-7.4266362190,,,
17.4375000000,2,-7.8373408318,,,
17.4531250000,2,-8.4342041016,,,
17.4687500000,2,-9.3149414063,,,
17.4843750000,2,-10.4638099670,,,
17.5000000000,2,-11.7615995407,,,
17.5156250000,2,-13.0312500000,,,
17.5312500000,2,-14.0974102020,,,
17.5468750000,2,-14.8913602829,,,
17.5625000000,2,-15.4800996780,,,
17.5781250000,2,-16.0374794006,,,
17.5937500000,2,-16.7817401886,,,
17.6093750000,2,-17.9261493683,,,
17.6250000000,2,-19.6264591217,,,
17.6406250000,2,-21.9349994659,,,
17.6562500000,2,-24.6936607361,,,
17.6718750000,2,-27.4147300720,,,
17.6875000000,2,-29.2772808075,,,
17.7031250000,2,-29.2815608978,,,
17.7187500000,2,-26.6275596619,,,
17.7343750000,2,-21.0868492126,,,
17.7500000000,2,-13.2089195251,,,
17.7656250000,2,-4.2037959099,,,
17.7812500000,2,4.4734501839,,,
17.7968750000,2,11.6356801987,,,
17.8125000000,2,16.7279701233,,,
17.8281250000,2,19.8623695374,,,
17.8437500000,2,21.5943603516,,,
17.8593750000,2,22.5537700653,,,
17.8750000000,2,23.1927509308,,,
17.8906250000,2,23.6998291016,,,
17.9062500000,2,24.1012001038,,,
17.9218750000,2,24.3681602478,,,
17.9375000000,2,24.4907207489,,,
17.9531250000,2,24.4612407684,,,
17.9687500000,2,24.2486000061,,,
17.9843750000,2,23.7908306122,,,
18.0000000000,2,23.0449790955,,,
18.0156250000,2,21.9991493225,,,
18.0312500000,2,20.6863994598,,,
18.0468750000,2,19.1716899872,,,
18.0625000000,2,17.5379009247,,,
18.0781250000,2,15.8875102997,,,
18.0937500000,2,14.3337402344,,,
18.1093750000,2,12.9934701920,,,
18.1250000000,2,11.9533100128,,,
18.1406250000,2,11.2288799286,,,
18.1562500000,2,10.7487802505,,,
18.1718750000,2,10.3655395508,,,
18.1875000000,2,9.9152221680,,,
18.2031250000,2,9.2925424576,,,
18.2187500000,2,8.4744262695,,,
18.2343750000,2,7.5423579216,,,
18.2500000000,2,6.6239619255,,,
18.2656250000,2,5.8352050781,,,
18.2812500000,2,5.2337040901,,,
18.2968750000,2,4.8233637810,,,
18.3125000000,2,4.5576782227,,,
18.3281250000,2,4.3743290901,,,
18.3437500000,2,4.2051391602,,,
18.3593750000,2,3.9890749454,,,
18.3750000000,2,3.7097170353,,,
18.3906250000,2,3.4116818905,,,
18.4062500000,2,3.1984860897,,,
18.4218750000,2,3.1857910156,,,
18.4375000000,2,3.4167480469,,,
18.4531250000,2,3.8166499138,,,
18.4687500000,2,4.2387080193,,,
18.4843750000,2,4.5202641487,,,
18.5000000000,2,4.5977778435,,,
18.5156250000,2,4.5618290901,,,
18.5312500000,2,4.6195068359,,,
18.5468750000,2,4.9775390625,,,
18.5625000000,2,5.7503051758,,,
18.5781250000,2,6.8941040039,,,
18.5937500000,2,8.2185058594,,,
18.6093750000,2,9.4923706055,,,
18.6250000000,2,10.5202598572,,,
18.6406250000,2,11.2056303024,,,
18.6562500000,2,11.5073900223,,,
18.6718750000,2,11.3918504715,,,
18.6875000000,2,10.7915601730,,,
18.7031250000,2,9.6592407227,,,
18.7187500000,2,8.0283813477,,,
18.7343750000,2,6.0734248161,,,
18.7500000000,2,4.0971679688,,,
18.7656250000,2,2.4306640625,,,
18.7812500000,2,1.3020019531,,,
18.7968750000,2,0.7715454102,,,
18.8125000000,2,0.7371826172,,,
18.8281250000,2,1.0224610567,,,
18.8437500000,2,1.4826049805,,,
18.8593750000,2,2.0502929688,,,
18.8750000000,2,2.6841430664,,,
18.8906250000,2,3.3276979923,,,
18.9062500000,2,3.8662109375,,,
18.9218750000,2,4.1971440315,,,
18.9375000000,2,4.3027338982,,,
18.9531250000,2,4.2908940315,,,
18.9687500000,2,4.3702998161,,,
18.9843750000,2,4.7106318474,,,
19.0000000000,2,5.3663330078,,,
19.0156250000,2,6.2659301758,,,
19.0312500000,2,7.3495478630,,,
19.0468750000,2,8.6534423828,,,
19.0625000000,2,10.3748197556,,,
19.0781250000,2,12.7660503387,,,
19.0937500000,2,15.9572801590,,,
19.1093750000,2,19.8158607483,,,
19.1250000000,2,23.8883094788,,,
19.1406250000,2,27.5991802216,,,
19.1562500000,2,30.4834003448,,,
19.1718750000,2,32.4639892578,,,
19.1875000000,2,33.9453086853,,,
19.2031250000,2,35.7383384705,,,
19.2187500000,2,38.7656898499,,,
19.2343750000,2,43.6868896484,,,
19.2500000000,2,50.6132812500,,,
19.2656250000,2,58.9586181641,,,
19.2812500000,2,67.4845581055,,,
19.2968750000,2,74.5695190430,,,
19.3125000000,2,78.6769409180,,,
19.3281250000,2,78.9079589844,,,
19.3437500000,2,75.4358520508,,,
19.3593750000,2,69.6296997070,,,
19.3750000000,2,63.6303710938,,,
19.3906250000,2,59.5857505798,,,
19.4062500000,2,58.7930297852,,,
19.4218750000,2,61.2983398438,,,
19.4375000000,2,66.0311889648,,,
19.4531250000,2,71.5836181641,,,
19.4687500000,2,77.0729370117,,,
19.4843750000,2,82.6219482422,,,
19.5000000000,2,89.2728881836,,,
19.5156250000,2,98.3629226685,,,
19.5312500000,2,110.7838973999,,,
19.5468750000,2,126.4072036743,,,
19.5625000000,2,143.9051971436,,,
19.5781250000,2,160.9134979248,,,
19.5937500000,2,174.5314941406,,,
19.6093750000,2,181.9949035645,,,
19.6250000000,2,181.3016052246,,,
19.6406250000,2,171.8287048340,,,
19.6562500000,2,154.4620056152,,,
19.6718750000,2,131.2328033447,,,
19.6875000000,2,104.5307006836,,,
19.7031250000,2,76.2189865112,,,
19.7187500000,2,46.9795494080,,,
19.7343750000,2,16.2636699677,,,
19.7500000000,2,-17.0969791412,,,
19.7656250000,2,-53.8421592712,,,
19.7812500000,2,-93.2799682617,,,
19.7968750000,2,-132.8968048096,,,
19.8125000000,2,-168.8096923828,,,
19.8281250000,2,-196.9208068848,,,
19.8437500000,2,-214.3271026611,,,
19.8593750000,2,-220.3274993896,,,
19.8750000000,2,-216.5462951660,,,
19.8906250000,2,-206.1585998535,,,
19.9062500000,2,-192.6018981934,,,
19.9218750000,2,-178.3786010742,,,
19.9375000000,2,-164.6663055420,,,
19.9531250000,2,-151.6466064453,,,
19.9687500000,2,-139.2485961914,,,
19.9843750000,2,-127.7519989014,,,
20.0000000000,2,-117.8118972778,,,
20.0156250000,2,-110.0047988892,,,
20.0312500000,2,-104.3056030273,,,
20.0468750000,2,-99.9058532715,,,
20.0625000000,2,-95.5243072510,,,
20.0781250000,2,-90.0477371216,,,
20.0937500000,2,-83.0672912598,,,
20.1093750000,2,-75.0084686279,,,
20.1250000000,2,-66.9351806641,,,
20.1406250000,2,-59.9700317383,,,
20.1562500000,2,-54.7369384766,,,
20.1718750000,2,-51.1193199158,,,
20.1875000000,2,-48.3518714905,,,
20.2031250000,2,-45.4355506897,,,
20.2187500000,2,-41.6514701843,,,
20.2343750000,2,-36.8771209717,,,
20.2500000000,2,-31.6011009216,,,
20.2656250000,2,-26.6519508362,,,
20.2812500000,2,-22.7656993866,,,
20.2968750000,2,-20.2560901642,,,
20.3125000000,2,-18.9224491119,,,
20.3281250000,2,-18.2103996277,,,
20.3437500000,2,-17.4917297363,,,
20.3593750000,2,-16.3386802673,,,
20.3750000000,2,-14.6450700760,,,
20.3906250000,2,-12.5903301239,,,
20.4062500000,2,-10.4882402420,,,
20.4218750000,2,-8.6107482910,,,
20.4375000000,2,-7.0797419548,,,
20.4531250000,2,-5.8735961914,,,
20.4687500000,2,-4.8536992073,,,
20.4843750000,2,-3.8821558952,,,
20.5000000000,2,-2.8807220459,,,
20.5156250000,2,-1.8480830193,,,
20.5312500000,2,-0.8557434082,,,
20.5468750000,2,-0.0172424298,,,
20.5625000000,2,0.5547028184,,,
20.5781250000,2,0.7886353135,,,
20.5937500000,2,0.6701812744,,,
20.6093750000,2,0.2658843994,,,
20.6250000000,2,-0.2819365859,,,
20.6406250000,2,-0.7938842773,,,
20.6562500000,2,-1.0981290340,,,
20.6718750000,2,-1.0908809900,,,
20.6875000000,2,-0.7732238770,,,
20.7031250000,2,-0.2356262058,,,
20.7187500000,2,0.3708344102,,,
20.7343750000,2,0.9134063721,,,
20.7500000000,2,1.2934110165,,,
20.7656250000,2,1.4632420540,,,
20.7812500000,2,1.4106450081,,,
20.7968750000,2,1.1525269747,,,
20.8125000000,2,0.7276458740,,,
20.8281250000,2,0.2313538045,,,
20.8437500000,2,-0.2328795940,,,
20.8593750000,2,-0.5725402832,,,
20.8750000000,2,-0.7579650879,,,
20.8906250000,2,-0.8220977783,,,
20.9062500000,2,-0.8386383057,,,
20.9218750000,2,-0.8537750244,,,
20.9375000000,2,-0.8467559814,,,
20.9531250000,2,-0.7494354248,,,
20.9687500000,2,-0.4701690972,,,
20.9843750000,2,0.0177002009,,,
21.0000000000,2,0.6603394151,,,
21.0156250000,2,1.3325959444,,,
21.0312500000,2,1.9035639763,,,
21.0468750000,2,2.2869110107,,,
21.0625000000,2,2.4689331055,,,
21.0781250000,2,2.4826509953,,,
21.0937500000,2,2.3711400032,,,
21.1093750000,2,2.1555020809,,,
21.1250000000,2,1.8537139893,,,
21.1406250000,2,1.5081020594,,,
21.1562500000,2,1.1786650419,,,
21.1718750000,2,0.9401550293,,,
21.1875000000,2,0.8332061768,,,
21.2031250000,2,0.8470458984,,,
21.2187500000,2,0.9100037217,,,
21.2343750000,2,0.9478911757,,,
21.2500000000,2,0.9187622070,,,
21.2656250000,2,0.8477324843,,,
21.2812500000,2,0.7860717773,,,
21.2968750000,2,0.7706146240,,,
21.3125000000,2,0.7749022841,,,
21.3281250000,2,0.7351531982,,,
21.3437500000,2,0.5924376845,,,
21.3593750000,2,0.3632355034,,,
21.3750000000,2,0.1325684041,,,
21.3906250000,2,0.0235748291,,,
21.4062500000,2,0.1012267992,,,
21.4218750000,2,0.3361968994,,,
21.4375000000,2,0.6051024795,,,
21.4531250000,2,0.7575988770,,,
21.4687500000,2,0.7224578857,,,
21.4843750000,2,0.5319061279,,,
21.5000000000,2,0.2984619141,,,
21.5156250000,2,0.1436768025,,,
21.5312500000,2,0.1420440972,,,
21.5468750000,2,0.2669678032,,,
21.5625000000,2,0.4299927056,,,
21.5781250000,2,0.5278319716,,,
21.5937500000,2,0.4893035889,,,
21.6093750000,2,0.2995910943,,,
21.6250000000,2,0.0085296631,,,
21.6406250000,2,-0.2905730903,,,
21.6562500000,2,-0.5147399902,,,
21.6718750000,2,-0.6184082031,,,
21.6875000000,2,-0.6325684190,,,
21.7031250000,2,-0.6485595703,,,
21.7187500000,2,-0.7643889785,,,
21.7343750000,2,-1.0334320068,,,
21.7500000000,2,-1.4148410559,,,
21.7656250000,2,-1.7723239660,,,
21.7812500000,2,-1.9312590361,,,
21.7968750000,2,-1.7456820011,,,
21.8125000000,2,-1.1675720215,,,
21.8281250000,2,-0.2803649902,,,
21.8437500000,2,0.7165985107,,,
21.8593750000,2,1.5944060087,,,
21.8750000000,2,2.1618800163,,,
21.8906250000,2,2.3239140511,,,
21.9062500000,2,2.0757288933,,,
21.9218750000,2,1.4959410429,,,
21.9375000000,2,0.7195891738,,,
21.9531250000,2,-0.0977478027,,,
21.9687500000,2,-0.7927399278,,,
21.9843750000,2,-1.2241519690,,,
22.0000000000,2,-1.3254239559,,,
22.0156250000,2,-1.1280820370,,,
22.0312500000,2,-0.7434082031,,,
22.0468750000,2,-0.3431701958,,,
22.0625000000,2,-0.0763091967,,,
22.0781250000,2,-0.0149231004,,,
22.0937500000,2,-0.1344147027,,,
22.1093750000,2,-0.3304137886,,,
22.1250000000,2,-0.4810943902,,,
22.1406250000,2,-0.5068358779,,,
22.1562500000,2,-0.4136199951,,,
22.1718750000,2,-0.2557677925,,,
22.1875000000,2,-0.1087493971,,,
22.2031250000,2,-0.0224456806,,,
22.2187500000,2,0.0207061805,,,
22.2343750000,2,0.0678558275,,,
22.2500000000,2,0.1621398926,,,
22.2656250000,2,0.3090515137,,,
22.2812500000,2,0.4525299072,,,
22.2968750000,2,0.5076904297,,,
22.3125000000,2,0.4201354980,,,
22.3281250000,2,0.2274322957,,,
22.3437500000,2,0.0329894982,,,
22.3593750000,2,-0.0346679688,,,
22.3750000000,2,0.0853881836,,,
22.3906250000,2,0.3440856934,,,
22.4062500000,2,0.6063842773,,,
22.4218750000,2,0.7490540147,,,
22.4375000000,2,0.7272797227,,,
22.4531250000,2,0.5990142822,,,
22.4687500000,2,0.4855651855,,,
22.4843750000,2,0.4779205024,,,
22.5000000000,2,0.5879821777,,,
22.5156250000,2,0.7324218750,,,
22.5312500000,2,0.8208770752,,,
22.5468750000,2,0.7840576172,,,
22.5625000000,2,0.6364287734,,,
22.5781250000,2,0.4510344863,,,
22.5937500000,2,0.2975158989,,,
22.6093750000,2,0.2128905952,,,
22.6250000000,2,0.1768493950,,,
22.6406250000,2,0.1417998970,,,
22.6562500000,2,0.0501251183,,,
22.6718750000,2,-0.1058197021,,,
22.6875000000,2,-0.2990722954,,,
22.7031250000,2,-0.4776305854,,,
22.7187500000,2,-0.5942841172,,,
22.7343750000,2,-0.6303557754,,,
22.7500000000,2,-0.5903167725,,,
22.7656250000,2,-0.5049896240,,,
22.7812500000,2,-0.4015044868,,,
22.7968750000,2,-0.3029327095,,,
22.8125000000,2,-0.2315673977,,,
22.8281250000,2,-0.2230681926,,,
22.8437500000,2,-0.3202362061,,,
22.8593750000,2,-0.5549774170,,,
22.8750000000,2,-0.9327545166,,,
22.8906250000,2,-1.3848880529,,,
22.9062500000,2,-1.8093409538,,,
22.9218750000,2,-2.0812530518,,,
22.9375000000,2,-2.1164400578,,,
22.9531250000,2,-1.9253540039,,,
22.9687500000,2,-1.5720520020,,,
22.9843750000,2,-1.1497800350,,,
23.0000000000,2,-0.7298583984,,,
23.0156250000,2,-0.3608398139,,,
23.0312500000,2,-0.0472412109,,,
23.0468750000,2,0.1823119968,,,
23.0625000000,2,0.2935943902,,,
23.0781250000,2,0.2621459961,,,
23.0937500000,2,0.1013640985,,,
23.1093750000,2,-0.1033629999,,,
23.1250000000,2,-0.2242888957,,,
23.1406250000,2,-0.1499329060,,,
23.1562500000,2,0.1411743015,,,
23.1718750000,2,0.5866088867,,,
23.1875000000,2,1.0429840088,,,
23.2031250000,2,1.3822629452,,,
23.2187500000,2,1.5334630013,,,
23.2343750000,2,1.4986720085,,,
23.2500000000,2,1.3346409798,,,
23.2656250000,2,1.0903780460,,,
23.2812500000,2,0.7977294922,,,
23.2968750000,2,0.4700011909,,,
23.3125000000,2,0.1440124959,,,
23.3281250000,2,-0.1356963962,,,
23.3437500000,2,-0.3056182861,,,
23.3593750000,2,-0.3206177056,,,
23.3750000000,2,-0.2112579048,,,
23.3906250000,2,-0.0606689490,,,
23.4062500000,2,0.0125274695,,,
23.4218750000,2,-0.0590515099,,,
23.4375000000,2,-0.2375946045,,,
23.4531250000,2,-0.3930510879,,,
23.4687500000,2,-0.3732300103,,,
23.4843750000,2,-0.0792083666,,,
23.5000000000,2,0.4455566108,,,
23.5156250000,2,1.0126039982,,,
23.5312500000,2,1.3988649845,,,
23.5468750000,2,1.4451290369,,,
23.5625000000,2,1.1518100500,,,
23.5781250000,2,0.6802672744,,,
23.5937500000,2,0.2442931980,,,
23.6093750000,2,-0.0125427200,,,
23.6250000000,2,-0.0768737793,,,
23.6406250000,2,-0.0502624512,,,
23.6562500000,2,-0.0707397535,,,
23.6718750000,2,-0.1828002930,,,
23.6875000000,2,-0.3269957900,,,
23.7031250000,2,-0.3722687066,,,
23.7187500000,2,-0.2215424031,,,
23.7343750000,2,0.1109009013,,,
23.7500000000,2,0.4827117920,,,
23.7656250000,2,0.7272034287,,,
23.7812500000,2,0.7454528809,,,
23.7968750000,2,0.5654755235,,,
23.8125000000,2,0.3357697129,,,
23.8281250000,2,0.2064362019,,,
23.8437500000,2,0.2360229045,,,
23.8593750000,2,0.3493652046,,,
23.8750000000,2,0.4032897949,,,
23.8906250000,2,0.2881011963,,,
23.9062500000,2,0.0099334717,,,
23.9218750000,2,-0.2909697890,,,
23.9375000000,2,-0.4313049018,,,
23.9531250000,2,-0.2751311958,,,
23.9687500000,2,0.1560973972,,,
23.9843750000,2,0.7019196153,,,
24.0000000000,3,1.1274720430,,,
24.0156250000,3,1.2394870520,,,
24.0312500000,3,0.9827423096,,,
24.0468750000,3,0.4712066948,,,
24.0625000000,3,-0.0904235765,,,
24.0781250000,3,-0.5140686035,,,
24.0937500000,3,-0.7120667100,,,
24.1093750000,3,-0.7166594863,,,
24.1250000000,3,-0.6505280137,,,
24.1406250000,3,-0.6275634766,,,
24.1562500000,3,-0.6976317763,,,
24.1718750000,3,-0.8206481934,,,
24.1875000000,3,-0.9223175049,,,
24.2031250000,3,-0.9474030137,,,
24.2187500000,3,-0.8973236084,,,
24.2343750000,3,-0.7945557237,,,
24.2500000000,3,-0.6764525771,,,
24.2656250000,3,-0.5335083008,,,
24.2812500000,3,-0.3314819038,,,
24.2968750000,3,-0.0513610803,,,
24.3125000000,3,0.2794800103,,,
24.3281250000,3,0.5907744765,,,
24.3437500000,3,0.8212128282,,,
24.3593750000,3,0.9287108779,,,
24.3750000000,3,0.9315032959,,,
24.3906250000,3,0.8575134277,,,
24.4062500000,3,0.7233734131,,,
24.4218750000,3,0.5326995850,,,
24.4375000000,3,0.2792206109,,,
24.4531250000,3,-0.0110473596,,,
24.4687500000,3,-0.2781524956,,,
24.4843750000,3,-0.4380340874,,,
24.5000000000,3,-0.4330902100,,,
24.5156250000,3,-0.2549895942,,,
24.5312500000,3,0.0350647010,,,
24.5468750000,3,0.3401947021,,,
24.5625000000,3,0.5569000244,,,
24.5781250000,3,0.6169434190,,,
24.5937500000,3,0.4920043945,,,
24.6093750000,3,0.2053374946,,,
24.6250000000,3,-0.1652221978,,,
24.6406250000,3,-0.5150908828,,,
24.6562500000,3,-0.7115020752,,,
24.6718750000,3,-0.6656951904,,,
24.6875000000,3,-0.3763122857,,,
24.7031250000,3,0.0494537391,,,
24.7187500000,3,0.4153442085,,,
24.7343750000,3,0.5359343886,,,
24.7500000000,3,0.3267365098,,,
24.7656250000,3,-0.1493683010,,,
24.7812500000,3,-0.7101898193,,,
24.7968750000,3,-1.1460109949,,,
24.8125000000,3,-1.3182530403,,,
24.8281250000,3,-1.2211610079,,,
24.8437500000,3,-0.9328308105,,,
24.8593750000,3,-0.5590667725,,,
24.8750000000,3,-0.1518554986,,,
24.8906250000,3,0.2736052871,,,
24.9062500000,3,0.6945800781,,,
24.9218750000,3,1.0407259464,,,
24.9375000000,3,1.1941679716,,,
24.9531250000,3,1.0586240292,,,
24.9687500000,3,0.6381072998,,,
24.9843750000,3,0.0576629601,,,
25.0000000000,3,-0.4769287109,,,
25.0156250000,3,-0.7787780762,,,
25.0312500000,3,-0.7704772949,,,
25.0468750000,3,-0.5109406114,,,
25.0625000000,3,-0.1443939060,,,
25.0781250000,3,0.1891631931,,,
25.0937500000,3,0.4089049995,,,
25.1093750000,3,0.5017700195,,,
25.1250000000,3,0.4919281006,,,
25.1406250000,3,0.3932189941,,,
25.1562500000,3,0.1915131062,,,
25.1718750000,3,-0.1061249003,,,
25.1875000000,3,-0.4508514106,,,
25.2031250000,3,-0.7382354736,,,
25.2187500000,3,-0.8536071777,,,
25.2343750000,3,-0.7413330078,,,
25.2500000000,3,-0.4328002930,,,
25.2656250000,3,-0.0496826209,,,
25.2812500000,3,0.2609100044,,,
25.2968750000,3,0.4149475098,,,
25.3125000000,3,0.4372101128,,,
25.3281250000,3,0.4446868896,,,
25.3437500000,3,0.5750731826,,,
25.3593750000,3,0.8905029297,,,
25.3750000000,3,1.3451540470,,,
25.3906250000,3,1.8011629581,,,
25.4062500000,3,2.0959630013,,,
25.4218750000,3,2.1227259636,,,
25.4375000000,3,1.8691560030,,,
25.4531250000,3,1.4045259953,,,
25.4687500000,3,0.8487091064,,,
25.4843750000,3,0.2831572890,,,
25.5000000000,3,-0.2408600003,,,
25.5156250000,3,-0.7034760118,,,
25.5312500000,3,-1.0915679932,,,
25.5468750000,3,-1.3774260283,,,
25.5625000000,3,-1.5190279484,,,
25.5781250000,3,-1.4824370146,,,
25.5937500000,3,-1.2742919922,,,
25.6093750000,3,-0.9657592773,,,
25.6250000000,3,-0.6688994765,,,
25.6406250000,3,-0.4757995903,,,
25.6562500000,3,-0.4444122016,,,
25.6718750000,3,-0.5469818115,,,
25.6875000000,3,-0.6959229112,,,
25.7031250000,3,-0.7932280898,,,
25.7187500000,3,-0.7874755859,,,
25.7343750000,3,-0.7099304199,,,
25.7500000000,3,-0.6405792236,,,
25.7656250000,3,-0.6566619873,,,
25.7812500000,3,-0.7749633789,,,
25.7968750000,3,-0.9066315293,,,
25.8125000000,3,-0.9061737061,,,
25.8281250000,3,-0.6593627930,,,
25.8437500000,3,-0.1661987007,,,
25.8593750000,3,0.4404296875,,,
25.8750000000,3,0.9513245225,,,
25.8906250000,3,1.1945500374,,,
25.9062500000,3,1.1224520206,,,
25.9218750000,3,0.8143311143,,,
25.9375000000,3,0.4236755073,,,
25.9531250000,3,0.0920257568,,,
25.9687500000,3,-0.1072845012,,,
25.9843750000,3,-0.1795348972,,,
26.0000000000,3,-0.1584624946,,,
26.0156250000,3,-0.0652770996,,,
26.0312500000,3,0.0942077637,,,
26.0468750000,3,0.3073424995,,,
26.0625000000,3,0.5333557129,,,
26.0781250000,3,0.7106323242,,,
26.0937500000,3,0.7919464111,,,
26.1093750000,3,0.7499694824,,,
26.1250000000,3,0.5929564834,,,
26.1406250000,3,0.3416748047,,,
26.1562500000,3,0.0203552209,,,
26.1718750000,3,-0.3454284966,,,
26.1875000000,3,-0.7059630752,,,
26.2031250000,3,-0.9844207764,,,
26.2187500000,3,-1.1150050163,,,
26.2343750000,3,-1.0868680477,,,
26.2500000000,3,-0.9799500108,,,
26.2656250000,3,-0.9182280898,,,
26.2812500000,3,-1.0092159510,,,
26.2968750000,3,-1.2599329948,,,
26.3125000000,3,-1.5599670410,,,
26.3281250000,3,-1.7487180233,,,
26.3437500000,3,-1.7080080509,,,
26.3593750000,3,-1.4231870174,,,
26.3750000000,3,-0.9965363145,,,
26.3906250000,3,-0.5659180284,,,
26.4062500000,3,-0.2404479980,,,
26.4218750000,3,-0.0515747108,,,
26.4375000000,3,0.0474090613,,,
26.4531250000,3,0.1236267015,,,
26.4687500000,3,0.2272491008,,,
26.4843750000,3,0.3552550972,,,
26.5000000000,3,0.4822692871,,,
26.5156250000,3,0.5869597793,,,
26.5312500000,3,0.6705474854,,,
26.5468750000,3,0.7360839844,,,
26.5625000000,3,0.7691040039,,,
26.5781250000,3,0.7315673828,,,
26.5937500000,3,0.5700225830,,,
26.6093750000,3,0.2568970025,,,
26.6250000000,3,-0.1604918987,,,
26.6406250000,3,-0.5807495117,,,
26.6562500000,3,-0.8811035156,,,
26.6718750000,3,-0.9868010879,,,
26.6875000000,3,-0.9156035781,,,
26.7031250000,3,-0.7436676025,,,
26.7187500000,3,-0.5639038086,,,
26.7343750000,3,-0.3982849121,,,
26.7500000000,3,-0.2125549018,,,
26.7656250000,3,0.0700378418,,,
26.7812500000,3,0.4654541016,,,
26.7968750000,3,0.8885498047,,,
26.8125000000,3,1.1942139864,,,
26.8281250000,3,1.2513279915,,,
26.8437500000,3,1.0151209831,,,
26.8593750000,3,0.5705261230,,,
26.8750000000,3,0.0630493164,,,
26.8906250000,3,-0.3622893989,,,
26.9062500000,3,-0.6308289170,,,
26.9218750000,3,-0.7445526123,,,
26.9375000000,3,-0.7432250977,,,
26.9531250000,3,-0.6698914170,,,
26.9687500000,3,-0.5360869765,,,
26.9843750000,3,-0.3587341011,,,
27.0000000000,3,-0.1610565037,,,
27.0156250000,3,0.0254974402,,,
27.0312500000,3,0.1741791070,,,
27.0468750000,3,0.2597809136,,,
27.0625000000,3,0.2696990967,,,
27.0781250000,3,0.2069396973,,,
27.0937500000,3,0.0878753737,,,
27.1093750000,3,-0.0610809289,,,
27.1250000000,3,-0.1945800930,,,
27.1406250000,3,-0.2587279975,,,
27.1562500000,3,-0.2180633992,,,
27.1718750000,3,-0.0684814528,,,
27.1875000000,3,0.1341399997,,,
27.2031250000,3,0.3103485107,,,
27.2187500000,3,0.3937683105,,,
27.2343750000,3,0.3823699951,,,
27.2500000000,3,0.3098906875,,,
27.2656250000,3,0.2542113960,,,
27.2812500000,3,0.2581787109,,,
27.2968750000,3,0.3060455024,,,
27.3125000000,3,0.3340454102,,,
27.3281250000,3,0.2800598145,,,
27.3437500000,3,0.1258545071,,,
27.3593750000,3,-0.0480499305,,,
27.3750000000,3,-0.1099243015,,,
27.3906250000,3,0.0509643592,,,
27.4062500000,3,0.4430237114,,,
27.4218750000,3,0.9513245225,,,
27.4375000000,3,1.3772280216,,,
27.4531250000,3,1.5636750460,,,
27.4687500000,3,1.4766390324,,,
27.4843750000,3,1.2115939856,,,
27.5000000000,3,0.9451904297,,,
27.5156250000,3,0.8126831055,,,
27.5312500000,3,0.8433380127,,,
27.5468750000,3,0.9630889893,,,
27.5625000000,3,1.0729680061,,,
27.5781250000,3,1.1178129911,,,
27.5937500000,3,1.1339720488,,,
27.6093750000,3,1.2098389864,,,
27.6250000000,3,1.4060670137,,,
27.6406250000,3,1.6909790039,,,
27.6562500000,3,1.9389649630,,,
27.6718750000,3,1.9938960075,,,
27.6875000000,3,1.7504270077,,,
27.7031250000,3,1.2302860022,,,
27.7187500000,3,0.5720977783,,,
27.7343750000,3,-0.0313873291,,,
27.7500000000,3,-0.4193572998,,,
27.7656250000,3,-0.5436553955,,,
27.7812500000,3,-0.4725799859,,,
27.7968750000,3,-0.3421936035,,,
27.8125000000,3,-0.2933807075,,,
27.8281250000,3,-0.3914948106,,,
27.8437500000,3,-0.6100922227,,,
27.8593750000,3,-0.8696898818,,,
27.8750000000,3,-1.0870970488,,,
27.8906250000,3,-1.2050930262,,,
27.9062500000,3,-1.2081300020,,,
27.9218750000,3,-1.1036070585,,,
27.9375000000,3,-0.8985291123,,,
27.9531250000,3,-0.5967255235,,,
27.9687500000,3,-0.2294922024,,,
27.9843750000,3,0.1213684008,,,
28.0000000000,3,0.3406676948,,,
28.0156250000,3,0.3446959853,,,
28.0312500000,3,0.1364593953,,,
28.0468750000,3,-0.1949768066,,,
28.0625000000,3,-0.4921112061,,,
28.0781250000,3,-0.6483154297,,,
28.0937500000,3,-0.6508942246,,,
28.1093750000,3,-0.5943145752,,,
28.1250000000,3,-0.5956572890,,,
28.1406250000,3,-0.7126312256,,,
28.1562500000,3,-0.8891602159,,,
28.1718750000,3,-1.0096889734,,,
28.1875000000,3,-0.9756621718,,,
28.2031250000,3,-0.7877960205,,,
28.2187500000,3,-0.5409545898,,,
28.2343750000,3,-0.3649444878,,,
28.2500000000,3,-0.3107146919,,,
28.2656250000,3,-0.3340758979,,,
28.2812500000,3,-0.3279572129,,,
28.2968750000,3,-0.2099152058,,,
28.3125000000,3,0.0035705571,,,
28.3281250000,3,0.2028656006,,,
28.3437500000,3,0.2718657851,,,
28.3593750000,3,0.1648865044,,,
28.3750000000,3,-0.0575561486,,,
28.3906250000,3,-0.2563171089,,,
28.4062500000,3,-0.3147887886,,,
28.4218750000,3,-0.2080536038,,,
28.4375000000,3,-0.0133667002,,,
28.4531250000,3,0.1294402927,,,
28.4687500000,3,0.1183013991,,,
28.4843750000,3,-0.0438385010,,,
28.5000000000,3,-0.2619628906,,,
28.5156250000,3,-0.3973082900,,,
28.5312500000,3,-0.3605957031,,,
28.5468750000,3,-0.1790924072,,,
28.5625000000,3,0.0340576209,,,
28.5781250000,3,0.1485596001,,,
28.5937500000,3,0.1139220968,,,
28.6093750000,3,-0.0217895508,,,
28.6250000000,3,-0.1403502971,,,
28.6406250000,3,-0.1390227973,,,
28.6562500000,3,0.0242157001,,,
28.6718750000,3,0.2791442871,,,
28.6875000000,3,0.5221251845,,,
28.7031250000,3,0.6642150879,,,
28.7187500000,3,0.6862335205,,,
28.7343750000,3,0.6174468994,,,
28.7500000000,3,0.5190430284,,,
28.7656250000,3,0.4276275933,,,
28.7812500000,3,0.3445434868,,,
28.7968750000,3,0.2563934028,,,
28.8125000000,3,0.1688690037,,,
28.8281250000,3,0.1075439006,,,
28.8437500000,3,0.0965270996,,,
28.8593750000,3,0.1383208930,,,
28.8750000000,3,0.1717528999,,,
28.8906250000,3,0.1203612983,,,
28.9062500000,3,-0.0758361816,,,
28.9218750000,3,-0.4021148980,,,
28.9375000000,3,-0.7611389160,,,
28.9531250000,3,-1.0180820227,,,
28.9687500000,3,-1.0673979521,,,
28.9843750000,3,-0.8852233887,,,
29.0000000000,3,-0.5608826280,,,
29.0156250000,3,-0.2288818061,,,
29.0312500000,3,-0.0045318599,,,
29.0468750000,3,0.0773162767,,,
29.0625000000,3,0.0535583496,,,
29.0781250000,3,-0.0019683840,,,
29.0937500000,3,-0.0466918908,,,
29.1093750000,3,-0.0959472731,,,
29.1250000000,3,-0.1825561970,,,
29.1406250000,3,-0.3240356147,,,
29.1562500000,3,-0.4639281929,,,
29.1718750000,3,-0.5089722276,,,
29.1875000000,3,-0.3746185005,,,
29.2031250000,3,-0.0527648889,,,
29.2187500000,3,0.3739013970,,,
29.2343750000,3,0.7449799180,,,
29.2500000000,3,0.9087523818,,,
29.2656250000,3,0.7817078233,,,
29.2812500000,3,0.3786621094,,,
29.2968750000,3,-0.1976929009,,,
29.3125000000,3,-0.7853394151,,,
29.3281250000,3,-1.2295529842,,,
29.3437500000,3,-1.4340820313,,,
29.3593750000,3,-1.3544919491,,,
29.3750000000,3,-1.0324250460,,,
29.3906250000,3,-0.5610352159,,,
29.4062500000,3,-0.0703582764,,,
29.4218750000,3,0.3157958984,,,
29.4375000000,3,0.5087280273,,,
29.4531250000,3,0.4960938096,,,
29.4687500000,3,0.3176575005,,,
29.4843750000,3,0.0705413818,,,
29.5000000000,3,-0.1504210979,,,
29.5156250000,3,-0.2914733887,,,
29.5312500000,3,-0.3376770020,,,
29.5468750000,3,-0.3243865967,,,
29.5625000000,3,-0.3147430122,,,
29.5781250000,3,-0.3486481011,,,
29.5937500000,3,-0.4529266059,,,
29.6093750000,3,-0.6287537217,,,
29.6250000000,3,-0.8489531875,,,
29.6406250000,3,-1.0865169764,,,
29.6562500000,3,-1.3102569580,,,
29.6718750000,3,-1.4803769588,,,
29.6875000000,3,-1.5670469999,,,
29.7031250000,3,-1.5584260225,,,
29.7187500000,3,-1.4947509766,,,
29.7343750000,3,-1.4459990263,,,
29.7500000000,3,-1.5000460148,,,
29.7656250000,3,-1.6977839470,,,
29.7812500000,3,-1.9971159697,,,
29.7968750000,3,-2.3049468994,,,
29.8125000000,3,-2.5037379265,,,
29.8281250000,3,-2.5362091064,,,
29.8437500000,3,-2.4307401180,,,
29.8593750000,3,-2.2921910286,,,
29.8750000000,3,-2.2415308952,,,
29.8906250000,3,-2.3676609993,,,
29.9062500000,3,-2.6879730225,,,
29.9218750000,3,-3.1535189152,,,
29.9375000000,3,-3.6879119873,,,
29.9531250000,3,-4.2245030403,,,
29.9687500000,3,-4.7433619499,,,
29.9843750000,3,-5.2686309814,,,
30.0000000000,3,-5.8524169922,,,
30.0156250000,3,-6.5474238396,,,
30.0312500000,3,-7.3821868896,,,
30.0468750000,3,-8.3735809326,,,
30.0625000000,3,-9.5020141602,,,
30.0781250000,3,-10.6683502197,,,
30.0937500000,3,-11.6350402832,,,
30.1093750000,3,-12.0190401077,,,
30.1250000000,3,-11.3532695770,,,
30.1406250000,3,-9.2848052979,,,
30.1562500000,3,-5.7695469856,,,
30.1718750000,3,-1.1858060360,,,
30.1875000000,3,3.6935269833,,,
30.2031250000,3,7.9818878174,,,
30.2187500000,3,10.9630403519,,,
30.2343750000,3,12.3661699295,,,
30.2500000000,3,12.3751401901,,,
30.2656250000,3,11.4945096970,,,
30.2812500000,3,10.2638502121,,,
30.2968750000,3,9.0526885986,,,
30.3125000000,3,8.0035705566,,,
30.3281250000,3,7.0905461311,,,
30.3437500000,3,6.2949371338,,,
30.3593750000,3,5.6501159668,,,
30.3750000000,3,5.2585449219,,,
30.3906250000,3,5.1810460091,,,
30.4062500000,3,5.3915100098,,,
30.4218750000,3,5.7400050163,,,
30.4375000000,3,6.0086359978,,,
30.4531250000,3,6.0115199089,,,
30.4687500000,3,5.6757202148,,,
30.4843750000,3,5.0872192383,,,
30.5000000000,3,4.4226231575,,,
30.5156250000,3,3.8633270264,,,
30.5312500000,3,3.5019071102,,,
30.5468750000,3,3.3207550049,,,
30.5625000000,3,3.2174379826,,,
30.5781250000,3,3.0845339298,,,
30.5937500000,3,2.8919830322,,,
30.6093750000,3,2.6678309441,,,
30.6250000000,3,2.4863278866,,,
30.6406250000,3,2.3924560547,,,
30.6562500000,3,2.3814389706,,,
30.6718750000,3,2.4043879509,,,
30.6875000000,3,2.4053800106,,,
30.7031250000,3,2.3546299934,,,
30.7187500000,3,2.2541348934,,,
30.7343750000,3,2.1346590519,,,
30.7500000000,3,2.0130920410,,,
30.7656250000,3,1.8904110193,,,
30.7812500000,3,1.7294620275,,,
30.7968750000,3,1.5048520565,,,
30.8125000000,3,1.2253880501,,,
30.8281250000,3,0.9471740723,,,
30.8437500000,3,0.7682343125,,,
30.8593750000,3,0.7672576904,,,
30.8750000000,3,0.9533386230,,,
30.8906250000,3,1.2173769474,,,
30.9062500000,3,1.3769530058,,,
30.9218750000,3,1.2352910042,,,
30.9375000000,3,0.7119141221,,,
30.9531250000,3,-0.1084899977,,,
30.9687500000,3,-0.9997406006,,,
30.9843750000,3,-1.7060550451,,,
31.0000000000,3,-2.0649259090,,,
31.0156250000,3,-2.0986020565,,,
31.0312500000,3,-1.9785460234,,,
31.0468750000,3,-1.9126889706,,,
31.0625000000,3,-2.0255889893,,,
31.0781250000,3,-2.2951350212,,,
31.0937500000,3,-2.5817720890,,,
31.1093750000,3,-2.7311251163,,,
31.1250000000,3,-2.6677699089,,,
31.1406250000,3,-2.4215850830,,,
31.1562500000,3,-2.0865330696,,,
31.1718750000,3,-1.7508089542,,,
31.1875000000,3,-1.4474639893,,,
31.2031250000,3,-1.1538389921,,,
31.2187500000,3,-0.8350219727,,,
31.2343750000,3,-0.4764708877,,,
31.2500000000,3,-0.1224822998,,,
31.2656250000,3,0.1604918987,,,
31.2812500000,3,0.3161315918,,,
31.2968750000,3,0.3224945068,,,
31.3125000000,3,0.1966094971,,,
31.3281250000,3,-0.0143890399,,,
31.3437500000,3,-0.2553864121,,,
31.3593750000,3,-0.4817656875,,,
31.3750000000,3,-0.6615753174,,,
31.3906250000,3,-0.7891234756,,,
31.4062500000,3,-0.8752747178,,,
31.4218750000,3,-0.9371489882,,,
31.4375000000,3,-0.9789580703,,,
31.4531250000,3,-0.9828186035,,,
31.4687500000,3,-0.9023590088,,,
31.4843750000,3,-0.6999968886,,,
31.5000000000,3,-0.3579253852,,,
31.5156250000,3,0.0690307617,,,
31.5312500000,3,0.4790039063,,,
31.5468750000,3,0.7393950820,,,
31.5625000000,3,0.7580565810,,,
31.5781250000,3,0.5333098769,,,
31.5937500000,3,0.1680756062,,,
31.6093750000,3,-0.1718139946,,,
31.6250000000,3,-0.3290709853,,,
31.6406250000,3,-0.2486114949,,,
31.6562500000,3,-0.0083618164,,,
31.6718750000,3,0.2340545952,,,
31.6875000000,3,0.3096924126,,,
31.7031250000,3,0.1456604004,,,
31.7187500000,3,-0.2137145996,,,
31.7343750000,3,-0.6090698242,,,
31.7500000000,3,-0.8731079102,,,
31.7656250000,3,-0.9156798720,,,
31.7812500000,3,-0.7552794814,,,
31.7968750000,3,-0.5137634277,,,
31.8125000000,3,-0.3378601074,,,
31.8281250000,3,-0.3101500869,,,
31.8437500000,3,-0.4135437012,,,
31.8593750000,3,-0.5534514785,,,
31.8750000000,3,-0.6162108779,,,
31.8906250000,3,-0.5339508057,,,
31.9062500000,3,-0.3306579888,,,
31.9218750000,3,-0.1094971001,,,
31.9375000000,3,0.0053253169,,,
31.9531250000,3,-0.0677032471,,,
31.9687500000,3,-0.2995604873,,,
31.9843750000,3,-0.5767517090,,,
32.0000000000,4,-0.7472229004,,,
32.0156250000,4,-0.7094879150,,,
32.0312500000,4,-0.4532927871,,,
32.0468750000,4,-0.0918121263,,,
32.0625000000,4,0.2138672024,,,
32.0781250000,4,0.3226318061,,,
32.0937500000,4,0.1968993992,,,
32.1093750000,4,-0.1014252007,,,
32.1250000000,4,-0.4140625000,,,
32.1406250000,4,-0.5899658203,,,
32.1562500000,4,-0.5611876845,,,
32.1718750000,4,-0.3468781114,,,
32.1875000000,4,-0.0539398193,,,
32.2031250000,4,0.2160034031,,,
32.2187500000,4,0.4191131890,,,
32.2343750000,4,0.5822753906,,,
32.2500000000,4,0.7602233887,,,
32.2656250000,4,0.9839934707,,,
32.2812500000,4,1.2190400362,,,
32.2968750000,4,1.3851170540,,,
32.3125000000,4,1.3929439783,,,
32.3281250000,4,1.2096099854,,,
32.3437500000,4,0.8694304824,,,
32.3593750000,4,0.4473876953,,,
32.3750000000,4,0.0117340097,,,
32.3906250000,4,-0.4018706977,,,
32.4062500000,4,-0.7705382705,,,
32.4218750000,4,-1.0703430176,,,
32.4375000000,4,-1.2518620491,,,
32.4531250000,4,-1.2721250057,,,
32.4687500000,4,-1.1140140295,,,
32.4843750000,4,-0.8255310059,,,
32.5000000000,4,-0.5016478896,,,
32.5156250000,4,-0.2378997952,,,
32.5312500000,4,-0.0702972412,,,
32.5468750000,4,0.0071258540,,,
32.5625000000,4,0.0348053016,,,
32.5781250000,4,0.0561828613,,,
32.5937500000,4,0.0963287428,,,
32.6093750000,4,0.1623076946,,,
32.6250000000,4,0.2644805908,,,
32.6406250000,4,0.4183349907,,,
32.6562500000,4,0.6179047227,,,
32.6718750000,4,0.8213654160,,,
32.6875000000,4,0.9438170791,,,
32.7031250000,4,0.9029541016,,,
32.7187500000,4,0.6885985732,,,
32.7343750000,4,0.3709717095,,,
32.7500000000,4,0.0776062012,,,
32.7656250000,4,-0.0807037428,,,
32.7812500000,4,-0.0797119066,,,
32.7968750000,4,0.0163116492,,,
32.8125000000,4,0.1140441969,,,
32.8281250000,4,0.1521605998,,,
32.8437500000,4,0.1555785984,,,
32.8593750000,4,0.2109221965,,,
32.8750000000,4,0.3930968940,,,
32.8906250000,4,0.7074431777,,,
32.9062500000,4,1.0652159452,,,
32.9218750000,4,1.3314210176,,,
32.9375000000,4,1.3860780001,,,
32.9531250000,4,1.1998749971,,,
32.9687500000,4,0.8558654785,,,
32.9843750000,4,0.5036774278,,,
33.0000000000,4,0.2891387939,,,
33.0156250000,4,0.2654572129,,,
33.0312500000,4,0.3907166123,,,
33.0468750000,4,0.5276184082,,,
33.0625000000,4,0.5218505859,,,
33.0781250000,4,0.2964324951,,,
33.0937500000,4,-0.1189116985,,,
33.1093750000,4,-0.5958861709,,,
33.1250000000,4,-0.9707489014,,,
33.1406250000,4,-1.1477199793,,,
33.1562500000,4,-1.1556400061,,,
33.1718750000,4,-1.1109470129,,,
33.1875000000,4,-1.1425019503,,,
33.2031250000,4,-1.2927249670,,,
33.2187500000,4,-1.4805760384,,,
33.2343750000,4,-1.5637209415,,,
33.2500000000,4,-1.4306639433,,,
33.2656250000,4,-1.0828549862,,,
33.2812500000,4,-0.6268615723,,,
33.2968750000,4,-0.2222899944,,,
33.3125000000,4,0.0337677002,,,
33.3281250000,4,0.1502685994,,,
33.3437500000,4,0.2240753025,,,
33.3593750000,4,0.3686371148,,,
33.3750000000,4,0.6062622070,,,
33.3906250000,4,0.8671721816,,,
33.4062500000,4,1.0039830208,,,
33.4218750000,4,0.9149628282,,,
33.4375000000,4,0.6119080186,,,
33.4531250000,4,0.2507629097,,,
33.4687500000,4,0.0296783391,,,
33.4843750000,4,0.0784301832,,,
33.5000000000,4,0.3826903999,,,
33.5156250000,4,0.7763977051,,,
33.5312500000,4,1.0420069695,,,
33.5468750000,4,1.0291140079,,,
33.5625000000,4,0.7234650254,,,
33.5781250000,4,0.2532348931,,,
33.5937500000,4,-0.1912841946,,,
33.6093750000,4,-0.4835663140,,,
33.6250000000,4,-0.6022338867,,,
33.6406250000,4,-0.6239166260,,,
33.6562500000,4,-0.6558380127,,,
33.6718750000,4,-0.7367553711,,,
33.6875000000,4,-0.8312531114,,,
33.7031250000,4,-0.8533325195,,,
33.7187500000,4,-0.7315369248,,,
33.7343750000,4,-0.4573059082,,,
33.7500000000,4,-0.0905761719,,,
33.7656250000,4,0.2681731880,,,
33.7812500000,4,0.5330657959,,,
33.7968750000,4,0.6511536241,,,
33.8125000000,4,0.6272277832,,,
33.8281250000,4,0.5083007813,,,
33.8437500000,4,0.3636474907,,,
33.8593750000,4,0.2621001899,,,
33.8750000000,4,0.2248993069,,,
33.8906250000,4,0.2518768013,,,
33.9062500000,4,0.2921752930,,,
33.9218750000,4,0.2887114882,,,
33.9375000000,4,0.1929168999,,,
33.9531250000,4,0.0088500977,,,
33.9687500000,4,-0.2186127007,,,
33.9843750000,4,-0.4277038872,,,
34.0000000000,4,-0.5737000108,,,
34.0156250000,4,-0.6493073106,,,
34.0312500000,4,-0.6868895888,,,
34.0468750000,4,-0.7155150771,,,
34.0625000000,4,-0.7454224229,,,
34.0781250000,4,-0.7468413711,,,
34.0937500000,4,-0.6784058213,,,
34.1093750000,4,-0.5268555284,,,
34.1250000000,4,-0.3398284912,,,
34.1406250000,4,-0.1923827976,,,
34.1562500000,4,-0.1531676948,,,
34.1718750000,4,-0.2345122993,,,
34.1875000000,4,-0.3861388862,,,
34.2031250000,4,-0.5239257813,,,
34.2187500000,4,-0.5648499131,,,
34.2343750000,4,-0.4835815132,,,
34.2500000000,4,-0.3121033013,,,
34.2656250000,4,-0.1275482029,,,
34.2812500000,4,0.0023193359,,,
34.2968750000,4,0.0359802209,,,
34.3125000000,4,-0.0245056208,,,
34.3281250000,4,-0.1681060940,,,
34.3437500000,4,-0.3717041016,,,
34.3593750000,4,-0.6096649170,,,
34.3750000000,4,-0.8560637832,,,
34.3906250000,4,-1.0593110323,,,
34.4062500000,4,-1.1640009880,,,
34.4218750000,4,-1.1226500273,,,
34.4375000000,4,-0.9178009033,,,
34.4531250000,4,-0.5793151855,,,
34.4687500000,4,-0.1689911038,,,
34.4843750000,4,0.2298583984,,,
34.5000000000,4,0.5274047852,,,
34.5156250000,4,0.6565247178,,,
34.5312500000,4,0.6244049072,,,
34.5468750000,4,0.5137786865,,,
34.5625000000,4,0.4430237114,,,
34.5781250000,4,0.5027465820,,,
34.5937500000,4,0.6981964111,,,
34.6093750000,4,0.9244843125,,,
34.6250000000,4,1.0253750086,,,
34.6406250000,4,0.9027100205,,,
34.6562500000,4,0.5887299180,,,
34.6718750000,4,0.2466277927,,,
34.6875000000,4,0.0772399902,,,
34.7031250000,4,0.1785888970,,,
34.7187500000,4,0.4789124131,,,
34.7343750000,4,0.7735291123,,,
34.7500000000,4,0.8602905273,,,
34.7656250000,4,0.6537780762,,,
34.7812500000,4,0.2557219863,,,
34.7968750000,4,-0.1226349026,,,
34.8125000000,4,-0.2879332900,,,
34.8281250000,4,-0.1897583008,,,
34.8437500000,4,0.0633087233,,,
34.8593750000,4,0.2882232964,,,
34.8750000000,4,0.3502196968,,,
34.8906250000,4,0.2257537991,,,
34.9062500000,4,0.0019226070,,,
34.9218750000,4,-0.1914824992,,,
34.9375000000,4,-0.2719115913,,,
34.9531250000,4,-0.2410431057,,,
34.9687500000,4,-0.1569060981,,,
34.9843750000,4,-0.0813445970,,,
35.0000000000,4,-0.0241241492,,,
35.0156250000,4,0.0672149733,,,
35.0312500000,4,0.2671661079,,,
35.0468750000,4,0.6194152832,,,
35.0625000000,4,1.1015629768,,,
35.0781250000,4,1.6043549776,,,
35.0937500000,4,1.9892430305,,,
35.1093750000,4,2.1307220459,,,
35.1250000000,4,1.9756770134,,,
35.1406250000,4,1.5853270292,,,
35.1562500000,4,1.0952609777,,,
35.1718750000,4,0.6813812256,,,
35.1875000000,4,0.4865570068,,,
35.2031250000,4,0.5522003174,,,
35.2187500000,4,0.8171386719,,,
35.2343750000,4,1.1379239559,,,
35.2500000000,4,1.3525539637,,,
35.2656250000,4,1.3415369987,,,
35.2812500000,4,1.0723420382,,,
35.2968750000,4,0.5870056152,,,
35.3125000000,4,-0.0205688495,,,
35.3281250000,4,-0.6440277100,,,
35.3437500000,4,-1.1964110136,,,
35.3593750000,4,-1.6192929745,,,
35.3750000000,4,-1.8612370491,,,
35.3906250000,4,-1.8853909969,,,
35.4062500000,4,-1.6897130013,,,
35.4218750000,4,-1.3128659725,,,
35.4375000000,4,-0.8429718018,,,
35.4531250000,4,-0.3995971978,,,
35.4687500000,4,-0.0920715332,,,
35.4843750000,4,0.0263824500,,,
35.5000000000,4,-0.0265197791,,,
35.5156250000,4,-0.1535796970,,,
35.5312500000,4,-0.2465362996,,,
35.5468750000,4,-0.2359008938,,,
35.5625000000,4,-0.1128692999,,,
35.5781250000,4,0.0587463416,,,
35.5937500000,4,0.2116241008,,,
35.6093750000,4,0.3142547905,,,
35.6250000000,4,0.3553009033,,,
35.6406250000,4,0.3688201904,,,
35.6562500000,4,0.3685913086,,,
35.6718750000,4,0.3619231880,,,
35.6875000000,4,0.3414612114,,,
35.7031250000,4,0.3010253906,,,
35.7187500000,4,0.2433166951,,,
35.7343750000,4,0.1882476956,,,
35.7500000000,4,0.1502380073,,,
35.7656250000,4,0.1369781047,,,
35.7812500000,4,0.1685027927,,,
35.7968750000,4,0.2363739014,,,
35.8125000000,4,0.3177337945,,,
35.8281250000,4,0.3513947129,,,
35.8437500000,4,0.2531737983,,,
35.8593750000,4,-0.0486450195,,,
35.8750000000,4,-0.5437927246,,,
35.8906250000,4,-1.1248780489,,,
35.9062500000,4,-1.6041109562,,,
35.9218750000,4,-1.8075259924,,,
35.9375000000,4,-1.6617740393,,,
35.9531250000,4,-1.2310179472,,,
35.9687500000,4,-0.6978455186,,,
35.9843750000,4,-0.2580718994,,,
36.0000000000,4,-0.0433807410,,,
36.0156250000,4,-0.0723877028,,,
36.0312500000,4,-0.2578735054,,,
36.0468750000,4,-0.4725799859,,,
36.0625000000,4,-0.6080780029,,,
36.0781250000,4,-0.6279144287,,,
36.0937500000,4,-0.5535277724,,,
36.1093750000,4,-0.4323883057,,,
36.1250000000,4,-0.3175812066,,,
36.1406250000,4,-0.2106322944,,,
36.1562500000,4,-0.0852356032,,,
36.1718750000,4,0.0902404785,,,
36.1875000000,4,0.3116607964,,,
36.2031250000,4,0.5311431885,,,
36.2187500000,4,0.6555938721,,,
36.2343750000,4,0.6381072998,,,
36.2500000000,4,0.4907990098,,,
36.2656250000,4,0.2922515869,,,
36.2812500000,4,0.1670074016,,,
36.2968750000,4,0.1677093953,,,
36.3125000000,4,0.2860718071,,,
36.3281250000,4,0.4446105957,,,
36.3437500000,4,0.5718383789,,,
36.3593750000,4,0.6184998155,,,
36.3750000000,4,0.6311798096,,,
36.3906250000,4,0.6524506211,,,
36.4062500000,4,0.7042542100,,,
36.4218750000,4,0.7599334717,,,
36.4375000000,4,0.7395172119,,,
36.4531250000,4,0.5789641738,,,
36.4687500000,4,0.2747192085,,,
36.4843750000,4,-0.1103058010,,,
36.5000000000,4,-0.4764708877,,,
36.5156250000,4,-0.7454987168,,,
36.5312500000,4,-0.8806304932,,,
36.5468750000,4,-0.8761138916,,,
36.5625000000,4,-0.7336273193,,,
36.5781250000,4,-0.4601897895,,,
36.5937500000,4,-0.0827331468,,,
36.6093750000,4,0.3386841118,,,
36.6250000000,4,0.7164307237,,,
36.6406250000,4,0.9598389268,,,
36.6562500000,4,1.0362399817,,,
36.6718750000,4,0.9628601074,,,
36.6875000000,4,0.7873076797,,,
36.7031250000,4,0.5702208877,,,
36.7187500000,4,0.3258971870,,,
36.7343750000,4,0.0691070631,,,
36.7500000000,4,-0.1936797947,,,
36.7656250000,4,-0.4174500108,,,
36.7812500000,4,-0.5098267198,,,
36.7968750000,4,-0.3722381890,,,
36.8125000000,4,0.0141143799,,,
36.8281250000,4,0.5785521865,,,
36.8437500000,4,1.1704250574,,,
36.8593750000,4,1.6025999784,,,
36.8750000000,4,1.7943420410,,,
36.8906250000,4,1.7870789766,,,
36.9062500000,4,1.7185519934,,,
36.9218750000,4,1.7187960148,,,
36.9375000000,4,1.8099819422,,,
36.9531250000,4,1.8676609993,,,
36.9687500000,4,1.6915440559,,,
36.9843750000,4,1.1295009851,,,
37.0000000000,4,0.1887664944,,,
37.0156250000,4,-0.9378662109,,,
37.0312500000,4,-1.9779210091,,,
37.0468750000,4,-2.7071080208,,,
37.0625000000,4,-3.0512540340,,,
37.0781250000,4,-3.0722661018,,,
37.0937500000,4,-2.8843379021,,,
37.1093750000,4,-2.5678861141,,,
37.1250000000,4,-2.1353149414,,,
37.1406250000,4,-1.5972900391,,,
37.1562500000,4,-1.0265049934,,,
37.1718750000,4,-0.5764008164,,,
37.1875000000,4,-0.4016571045,,,
37.2031250000,4,-0.5641937256,,,
37.2187500000,4,-0.9875792861,,,
37.2343750000,4,-1.4711149931,,,
37.2500000000,4,-1.7999730110,,,
37.2656250000,4,-1.8555150032,,,
37.2812500000,4,-1.6520229578,,,
37.2968750000,4,-1.3023530245,,,
37.3125000000,4,-0.9683074951,,,
37.3281250000,4,-0.7562561035,,,
37.3437500000,4,-0.7035980225,,,
37.3593750000,4,-0.7581940293,,,
37.3750000000,4,-0.8323822021,,,
37.3906250000,4,-0.8444213867,,,
37.4062500000,4,-0.7541046143,,,
37.4218750000,4,-0.5928192139,,,
37.4375000000,4,-0.4340972900,,,
37.4531250000,4,-0.3495025933,,,
37.4687500000,4,-0.3511199951,,,
37.4843750000,4,-0.4095306098,,,
37.5000000000,4,-0.4624786079,,,
37.5156250000,4,-0.4695129097,,,
37.5312500000,4,-0.4237976074,,,
37.5468750000,4,-0.3720703125,,,
37.5625000000,4,-0.3479767144,,,
37.5781250000,4,-0.3602752984,,,
37.5937500000,4,-0.3648375869,,,
37.6093750000,4,-0.3029175103,,,
37.6250000000,4,-0.1552277058,,,
37.6406250000,4,0.0586242713,,,
37.6562500000,4,0.2623595893,,,
37.6718750000,4,0.3984527886,,,
37.6875000000,4,0.4650574028,,,
37.7031250000,4,0.5120543838,,,
37.7187500000,4,0.5918732285,,,
37.7343750000,4,0.7080687881,,,
37.7500000000,4,0.8191071153,,,
37.7656250000,4,0.8397827148,,,
37.7812500000,4,0.7348480225,,,
37.7968750000,4,0.5241699219,,,
37.8125000000,4,0.2798919976,,,
37.8281250000,4,0.0934448168,,,
37.8437500000,4,-0.0105743399,,,
37.8593750000,4,-0.0517272912,,,
37.8750000000,4,-0.0741271973,,,
37.8906250000,4,-0.1194000021,,,
37.9062500000,4,-0.1746979058,,,
37.9218750000,4,-0.2049866021,,,
37.9375000000,4,-0.2026367038,,,
37.9531250000,4,-0.1808318943,,,
37.9687500000,4,-0.1713103950,,,
37.9843750000,4,-0.1824492961,,,
38.0000000000,4,-0.1712189019,,,
38.0156250000,4,-0.0727081299,,,
38.0312500000,4,0.1660614014,,,
38.0468750000,4,0.5023040771,,,
38.0625000000,4,0.8121184707,,,
38.0781250000,4,0.9346160889,,,
38.0937500000,4,0.7730255127,,,
38.1093750000,4,0.3630828857,,,
38.1250000000,4,-0.1153258979,,,
38.1406250000,4,-0.4056701958,,,
38.1562500000,4,-0.3274689019,,,
38.1718750000,4,0.1404418945,,,
38.1875000000,4,0.8267822266,,,
38.2031250000,4,1.4645999670,,,
38.2187500000,4,1.8172149658,,,
38.2343750000,4,1.7893220186,,,
38.2500000000,4,1.4571080208,,,
38.2656250000,4,1.0063480139,,,
38.2812500000,4,0.6225891113,,,
38.2968750000,4,0.4142608941,,,
38.3125000000,4,0.3768616021,,,
38.3281250000,4,0.4727782905,,,
38.3437500000,4,0.6484375000,,,
38.3593750000,4,0.8590393066,,,
38.3750000000,4,1.0613249540,,,
38.3906250000,4,1.1702580452,,,
38.4062500000,4,1.1072390079,,,
38.4218750000,4,0.8420714736,,,
38.4375000000,4,0.4264984131,,,
38.4531250000,4,-0.0024414060,,,
38.4687500000,4,-0.3034515083,,,
38.4843750000,4,-0.3879241943,,,
38.5000000000,4,-0.2878723145,,,
38.5156250000,4,-0.1040955037,,,
38.5312500000,4,0.0482635498,,,
38.5468750000,4,0.1199493036,,,
38.5625000000,4,0.1207733005,,,
38.5781250000,4,0.0964508131,,,
38.5937500000,4,0.0852966309,,,
38.6093750000,4,0.0768127367,,,
38.6250000000,4,0.0478668213,,,
38.6406250000,4,-0.0185394306,,,
38.6562500000,4,-0.1057586968,,,
38.6718750000,4,-0.1724396050,,,
38.6875000000,4,-0.1949310005,,,
38.7031250000,4,-0.1904906929,,,
38.7187500000,4,-0.2233428955,,,
38.7343750000,4,-0.3495788872,,,
38.7500000000,4,-0.5959473252,,,
38.7656250000,4,-0.8991240859,,,
38.7812500000,4,-1.1362299919,,,
38.7968750000,4,-1.1666109562,,,
38.8125000000,4,-0.9283599854,,,
38.8281250000,4,-0.4504851997,,,
38.8437500000,4,0.1432494968,,,
38.8593750000,4,0.6951447129,,,
38.8750000000,4,1.0856930017,,,
38.8906250000,4,1.2735899687,,,
38.9062500000,4,1.3081510067,,,
38.9218750000,4,1.2684940100,,,
38.9375000000,4,1.2251590490,,,
38.9531250000,4,1.1902309656,,,
38.9687500000,4,1.1031490564,,,
38.9843750000,4,0.9067534804,,,
39.0000000000,4,0.5745239258,,,
39.0156250000,4,0.1547241062,,,
39.0312500000,4,-0.2502898872,,,
39.0468750000,4,-0.5177916884,,,
39.0625000000,4,-0.5759124756,,,
39.0781250000,4,-0.4250031114,,,
39.0937500000,4,-0.1234740987,,,
39.1093750000,4,0.2370299995,,,
39.1250000000,4,0.5738831162,,,
39.1406250000,4,0.8461914063,,,
39.1562500000,4,1.0330049992,,,
39.1718750000,4,1.1162259579,,,
39.1875000000,4,1.0821839571,,,
39.2031250000,4,0.9191436768,,,
39.2187500000,4,0.6471558213,,,
39.2343750000,4,0.3410491943,,,
39.2500000000,4,0.0679626465,,,
39.2656250000,4,-0.1422729045,,,
39.2812500000,4,-0.3096466064,,,
39.2968750000,4,-0.4780578911,,,
39.3125000000,4,-0.6755065918,,,
39.3281250000,4,-0.8716583252,,,
39.3437500000,4,-1.0117490292,,,
39.3593750000,4,-1.0555729866,,,
39.3750000000,4,-1.0179899931,,,
39.3906250000,4,-0.9661254883,,,
39.4062500000,4,-0.9570770264,,,
39.4218750000,4,-0.9948577881,,,
39.4375000000,4,-1.0326390266,,,
39.4531250000,4,-1.0052490234,,,
39.4687500000,4,-0.8931427002,,,
39.4843750000,4,-0.7433167100,,,
39.5000000000,4,-0.6358643174,,,
39.5156250000,4,-0.6406707764,,,
39.5312500000,4,-0.7522277832,,,
39.5468750000,4,-0.8886107802,,,
39.5625000000,4,-0.9553833008,,,
39.5781250000,4,-0.8940886855,,,
39.5937500000,4,-0.7171478271,,,
39.6093750000,4,-0.4713745117,,,
39.6250000000,4,-0.2100220025,,,
39.6406250000,4,0.0460968018,,,
39.6562500000,4,0.3074950874,,,
39.6718750000,4,0.5727539063,,,
39.6875000000,4,0.8180847168,,,
39.7031250000,4,0.9838562012,,,
39.7187500000,4,1.0068509579,,,
39.7343750000,4,0.8679503798,,,
39.7500000000,4,0.6130371094,,,
39.7656250000,4,0.3332825005,,,
39.7812500000,4,0.1223296970,,,
39.7968750000,4,0.0381927490,,,
39.8125000000,4,0.0613708496,,,
39.8281250000,4,0.0997161865,,,
39.8437500000,4,0.0554656982,,,
39.8593750000,4,-0.1204224005,,,
39.8750000000,4,-0.3922424018,,,
39.8906250000,4,-0.6515045166,,,
39.9062500000,4,-0.7874603271,,,
39.9218750000,4,-0.7311248779,,,
39.9375000000,4,-0.4983215034,,,
39.9531250000,4,-0.1734313965,,,
39.9687500000,4,0.1501464993,,,
39.9843750000,4,0.4035950005,,,
40.0000000000,5,0.5646209717,,,
40.0156250000,5,0.6246796250,,,
40.0312500000,5,0.5821381211,,,
40.0468750000,5,0.4257659912,,,
40.0625000000,5,0.1513518989,,,
40.0781250000,5,-0.1941528022,,,
40.0937500000,5,-0.5263671875,,,
40.1093750000,5,-0.7351378798,,,
40.1250000000,5,-0.7174683213,,,
40.1406250000,5,-0.4502258003,,,
40.1562500000,5,0.0021209719,,,
40.1718750000,5,0.4909820855,,,
40.1875000000,5,0.8444365859,,,
40.2031250000,5,0.9390563965,,,
40.2187500000,5,0.7498015761,,,
40.2343750000,5,0.3600006104,,,
40.2500000000,5,-0.0623474084,,,
40.2656250000,5,-0.3325805962,,,
40.2812500000,5,-0.3510132134,,,
40.2968750000,5,-0.1278381050,,,
40.3125000000,5,0.2240142971,,,
40.3281250000,5,0.5212097168,,,
40.3437500000,5,0.6312255859,,,
40.3593750000,5,0.5212860107,,,
40.3750000000,5,0.2704010010,,,
40.3906250000,5,0.0263061505,,,
40.4062500000,5,-0.0870666504,,,
40.4218750000,5,-0.0272064209,,,
40.4375000000,5,0.1500702053,,,
40.4531250000,5,0.3438872993,,,
40.4687500000,5,0.4733428955,,,
40.4843750000,5,0.5254517198,,,
40.5000000000,5,0.5497589111,,,
40.5156250000,5,0.6089171767,,,
40.5312500000,5,0.7208251953,,,
40.5468750000,5,0.8522034287,,,
40.5625000000,5,0.9234467149,,,
40.5781250000,5,0.8775939941,,,
40.5937500000,5,0.7063292861,,,
40.6093750000,5,0.4439544976,,,
40.6250000000,5,0.1640319973,,,
40.6406250000,5,-0.0942687988,,,
40.6562500000,5,-0.3030700982,,,
40.6718750000,5,-0.4542084038,,,
40.6875000000,5,-0.5428314209,,,
40.7031250000,5,-0.5393218994,,,
40.7187500000,5,-0.4217681885,,,
40.7343750000,5,-0.2167357951,,,
40.7500000000,5,-0.0100097703,,,
40.7656250000,5,0.0704803467,,,
40.7812500000,5,-0.0708618164,,,
40.7968750000,5,-0.4367676079,,,
40.8125000000,5,-0.9015197754,,,
40.8281250000,5,-1.2694849968,,,
40.8437500000,5,-1.3639219999,,,
40.8593750000,5,-1.1207430363,,,
40.8750000000,5,-0.6214293838,,,
40.8906250000,5,-0.0578613319,,,
40.9062500000,5,0.3683623970,,,
40.9218750000,5,0.5193176270,,,
40.9375000000,5,0.3611907959,,,
40.9531250000,5,-0.0274810791,,,
40.9687500000,5,-0.5117645264,,,
40.9843750000,5,-0.9434357285,,,
41.0000000000,5,-1.2232969999,,,
41.0156250000,5,-1.3009639978,,,
41.0312500000,5,-1.1946109533,,,
41.0468750000,5,-0.9636688232,,,
41.0625000000,5,-0.6746520996,,,
41.0781250000,5,-0.3764953911,,,
41.0937500000,5,-0.0875701904,,,
41.1093750000,5,0.1879577935,,,
41.1250000000,5,0.4373627007,,,
41.1406250000,5,0.6074982285,,,
41.1562500000,5,0.6276854873,,,
41.1718750000,5,0.4482421875,,,
41.1875000000,5,0.0785217285,,,
41.2031250000,5,-0.3949738145,,,
41.2187500000,5,-0.8454437256,,,
41.2343750000,5,-1.1615600586,,,
41.2500000000,5,-1.2730410099,,,
41.2656250000,5,-1.1967159510,,,
41.2812500000,5,-0.9801024795,,,
41.2968750000,5,-0.7007750869,,,
41.3125000000,5,-0.4126282036,,,
41.3281250000,5,-0.1602173001,,,
41.3437500000,5,0.0412902795,,,
41.3593750000,5,0.2024535984,,,
41.3750000000,5,0.3325347900,,,
41.3906250000,5,0.4434661865,,,
41.4062500000,5,0.5436859131,,,
41.4218750000,5,0.6336060166,,,
41.4375000000,5,0.7198485732,,,
41.4531250000,5,0.8069915771,,,
41.4687500000,5,0.8880767822,,,
41.4843750000,5,0.9561309814,,,
41.5000000000,5,0.9714661241,,,
41.5156250000,5,0.8905792236,,,
41.5312500000,5,0.6894379258,,,
41.5468750000,5,0.3702850044,,,
41.5625000000,5,0.0026855471,,,
41.5781250000,5,-0.3106994927,,,
41.5937500000,5,-0.4659270942,,,
41.6093750000,5,-0.4035491943,,,
41.6250000000,5,-0.1584777981,,,
41.6406250000,5,0.1521148980,,,
41.6562500000,5,0.3802795112,,,
41.6718750000,5,0.4301910102,,,
41.6875000000,5,0.3025512993,,,
41.7031250000,5,0.1037598029,,,
41.7187500000,5,-0.0202484094,,,
41.7343750000,5,0.0181579608,,,
41.7500000000,5,0.2074431926,,,
41.7656250000,5,0.4459838867,,,
41.7812500000,5,0.6187744141,,,
41.7968750000,5,0.6526793838,,,
41.8125000000,5,0.5688781738,,,
41.8281250000,5,0.4262999892,,,
41.8437500000,5,0.2732239068,,,
41.8593750000,5,0.1000671014,,,
41.8750000000,5,-0.1467133015,,,
41.8906250000,5,-0.4927673042,,,
41.9062500000,5,-0.8907470703,,,
41.9218750000,5,-1.2396850586,,,
41.9375000000,5,-1.4072419405,,,
41.9531250000,5,-1.3200229406,,,
41.9687500000,5,-0.9931030273,,,
41.9843750000,5,-0.5145416260,,,
42.0000000000,5,-0.0105438204,,,
42.0156250000,5,0.4119414985,,,
42.0312500000,5,0.6842346191,,,
42.0468750000,5,0.7794647217,,,
42.0625000000,5,0.7241973877,,,
42.0781250000,5,0.5671082139,,,
42.0937500000,5,0.3825378120,,,
42.1093750000,5,0.2465056926,,,
42.1250000000,5,0.2290955037,,,
42.1406250000,5,0.3660430908,,,
42.1562500000,5,0.6279907227,,,
42.1718750000,5,0.9345397949,,,
42.1875000000,5,1.1523740292,,,
42.2031250000,5,1.1452790499,,,
42.2187500000,5,0.8524932861,,,
42.2343750000,5,0.3301697075,,,
42.2500000000,5,-0.2566070855,,,
42.2656250000,5,-0.6789246202,,,
42.2812500000,5,-0.7655487061,,,
42.2968750000,5,-0.5040894151,,,
42.3125000000,5,-0.0440063514,,,
42.3281250000,5,0.3758240044,,,
42.3437500000,5,0.5681915283,,,
42.3593750000,5,0.4870604873,,,
42.3750000000,5,0.2357178032,,,
42.3906250000,5,-0.0137329102,,,
42.4062500000,5,-0.1307678074,,,
42.4218750000,5,-0.1111603007,,,
42.4375000000,5,-0.0457000695,,,
42.4531250000,5,-0.0216522198,,,
42.4687500000,5,-0.0602569617,,,
42.4843750000,5,-0.1020355001,,,
42.5000000000,5,-0.0672454834,,,
42.5156250000,5,0.0566558801,,,
42.5312500000,5,0.1799774021,,,
42.5468750000,5,0.1606293023,,,
42.5625000000,5,-0.0961914137,,,
42.5781250000,5,-0.5721129775,,,
42.5937500000,5,-1.1089320183,,,
42.6093750000,5,-1.5184329748,,,
42.6250000000,5,-1.6764529943,,,
42.6406250000,5,-1.5940550566,,,
42.6562500000,5,-1.3976900578,,,
42.6718750000,5,-1.2225040197,,,
42.6875000000,5,-1.1309510469,,,
42.7031250000,5,-1.0654139519,,,
42.7187500000,5,-0.9036865234,,,
42.7343750000,5,-0.5387877822,,,
42.7500000000,5,0.0149536096,,,
42.7656250000,5,0.6282501221,,,
42.7812500000,5,1.1238399744,,,
42.7968750000,5,1.3578950167,,,
42.8125000000,5,1.3029789925,,,
42.8281250000,5,1.0426939726,,,
42.8437500000,5,0.7160338759,,,
42.8593750000,5,0.4358215034,,,
42.8750000000,5,0.2478943020,,,
42.8906250000,5,0.1253204048,,,
42.9062500000,5,0.0339202918,,,
42.9218750000,5,-0.0518798791,,,
42.9375000000,5,-0.1343231052,,,
42.9531250000,5,-0.1856842041,,,
42.9687500000,5,-0.1836394966,,,
42.9843750000,5,-0.1307068020,,,
43.0000000000,5,-0.0389556885,,,
43.0156250000,5,0.0610961914,,,
43.0312500000,5,0.1397857964,,,
43.0468750000,5,0.1716156006,,,
43.0625000000,5,0.1537628025,,,
43.0781250000,5,0.0859985426,,,
43.0937500000,5,0.0031585691,,,
43.1093750000,5,-0.0829315186,,,
43.1250000000,5,-0.1524048001,,,
43.1406250000,5,-0.2160187066,,,
43.1562500000,5,-0.2764892876,,,
43.1718750000,5,-0.3373871148,,,
43.1875000000,5,-0.3925476074,,,
43.2031250000,5,-0.4265899956,,,
43.2187500000,5,-0.4435425103,,,
43.2343750000,5,-0.4479218125,,,
43.2500000000,5,-0.4546661079,,,
43.2656250000,5,-0.4518738091,,,
43.2812500000,5,-0.4106749892,,,
43.2968750000,5,-0.3038024902,,,
43.3125000000,5,-0.1246796027,,,
43.3281250000,5,0.0847625732,,,
43.3437500000,5,0.2538757026,,,
43.3593750000,5,0.3146820068,,,
43.3750000000,5,0.2398833930,,,
43.3906250000,5,0.0440063514,,,
43.4062500000,5,-0.2088318020,,,
43.4218750000,5,-0.4475403130,,,
43.4375000000,5,-0.6267241836,,,
43.4531250000,5,-0.7168120742,,,
43.4687500000,5,-0.7187042236,,,
43.4843750000,5,-0.6566925049,,,
43.5000000000,5,-0.5702362061,,,
43.5156250000,5,-0.5221862793,,,
43.5312500000,5,-0.5784606934,,,
43.5468750000,5,-0.7906342149,,,
43.5625000000,5,-1.1534270048,,,
43.5781250000,5,-1.5996090174,,,
43.5937500000,5,-1.9721369743,,,
43.6093750000,5,-2.0977170467,,,
43.6250000000,5,-1.8397220373,,,
43.6406250000,5,-1.1976929903,,,
43.6562500000,5,-0.3071289063,,,
43.6718750000,5,0.5722045898,,,
43.6875000000,5,1.1890109777,,,
43.7031250000,5,1.4122010469,,,
43.7187500000,5,1.2781679630,,,
43.7343750000,5,0.9561614990,,,
43.7500000000,5,0.6234130859,,,
43.7656250000,5,0.3750458062,,,
43.7812500000,5,0.1952666938,,,
43.7968750000,5,0.0226287805,,,
43.8125000000,5,-0.1762237996,,,
43.8281250000,5,-0.3562468886,,,
43.8437500000,5,-0.4332580864,,,
43.8593750000,5,-0.3613891900,,,
43.8750000000,5,-0.1862183064,,,
43.8906250000,5,-0.0267944299,,,
43.9062500000,5,-0.0125885000,,,
43.9218750000,5,-0.1873778999,,,
43.9375000000,5,-0.5100402832,,,
43.9531250000,5,-0.8756104112,,,
43.9687500000,5,-1.1911469698,,,
43.9843750000,5,-1.4240419865,,,
44.0000000000,5,-1.5991519690,,,
44.0156250000,5,-1.7370300293,,,
44.0312500000,5,-1.8345179558,,,
44.0468750000,5,-1.8703000546,,,
44.0625000000,5,-1.8454439640,,,
44.0781250000,5,-1.8172760010,,,
44.0937500000,5,-1.8813320398,,,
44.1093750000,5,-2.1261289120,,,
44.1250000000,5,-2.5691680908,,,
44.1406250000,5,-3.1313021183,,,
44.1562500000,5,-3.6560211182,,,
44.1718750000,5,-3.9860839844,,,
44.1875000000,5,-4.0359649658,,,
44.2031250000,5,-3.8620450497,,,
44.2187500000,5,-3.6612548828,,,
44.2343750000,5,-3.6804049015,,,
44.2500000000,5,-4.1005711555,,,
44.2656250000,5,-4.9409790039,,,
44.2812500000,5,-6.0260620117,,,
44.2968750000,5,-7.0625758171,,,
44.3125000000,5,-7.7992401123,,,
44.3281250000,5,-8.1473236084,,,
44.3437500000,5,-8.2379760742,,,
44.3593750000,5,-8.3622741699,,,
44.3750000000,5,-8.7910614014,,,
44.3906250000,5,-9.5920410156,,,
44.4062500000,5,-10.5761299133,,,
44.4218750000,5,-11.3553495407,,,
44.4375000000,5,-11.5635499954,,,
44.4531250000,5,-11.0540304184,,,
44.4687500000,5,-9.9903564453,,,
44.4843750000,5,-8.7740173340,,,
44.5000000000,5,-7.8615112305,,,
44.5156250000,5,-7.5657200813,,,
44.5312500000,5,-7.9640960693,,,
44.5468750000,5,-8.9003295898,,,
44.5625000000,5,-10.0840301514,,,
44.5781250000,5,-11.2178602219,,,
44.5937500000,5,-12.0808000565,,,
44.6093750000,5,-12.6025495529,,,
44.6250000000,5,-12.8682603836,,,
44.6406250000,5,-13.0938701630,,,
44.6562500000,5,-13.5876502991,,,
44.6718750000,5,-14.7158699036,,,
44.6875000000,5,-16.7756690979,,,
44.7031250000,5,-19.8649902344,,,
44.7187500000,5,-23.6789894104,,,
44.7343750000,5,-27.4002799988,,,
44.7500000000,5,-29.7716808319,,,
44.7656250000,5,-29.4004707336,,,
44.7812500000,5,-25.2570495605,,,
44.7968750000,5,-17.1440296173,,,
44.8125000000,5,-5.9503779411,,,
44.8281250000,5,6.5217437744,,,
44.8437500000,5,18.1106300354,,,
44.8593750000,5,26.9778900146,,,
44.8750000000,5,32.1763916016,,,
44.8906250000,5,33.8030204773,,,
44.9062500000,5,32.7329101563,,,
44.9218750000,5,30.1244392395,,,
44.9375000000,5,26.9409198761,,,
44.9531250000,5,23.7266502380,,,
44.9687500000,5,20.6586208344,,,
44.9843750000,5,17.7389106750,,,
45.0000000000,5,15.0011596680,,,
45.0156250000,5,12.5551004410,,,
45.0312500000,5,10.5052499771,,,
45.0468750000,5,8.8419952393,,,
45.0625000000,5,7.4073181152,,,
45.0781250000,5,6.0029139519,,,
45.0937500000,5,4.5795898438,,,
45.1093750000,5,3.3595890999,,,
45.1250000000,5,2.7773129940,,,
45.1406250000,5,3.2592160702,,,
45.1562500000,5,4.9380488396,,,
45.1718750000,5,7.4831237793,,,
45.1875000000,5,10.1913795471,,,
45.2031250000,5,12.2630596161,,,
45.2187500000,5,13.1623497009,,,
45.2343750000,5,12.8323402405,,,
45.2500000000,5,11.6846303940,,,
45.2656250000,5,10.3462800980,,,
45.2812500000,5,9.3309936523,,,
45.2968750000,5,8.8442382813,,,
45.3125000000,5,8.7513427734,,,
45.3281250000,5,8.7549743652,,,
45.3437500000,5,8.5975646973,,,
45.3593750000,5,8.1978759766,,,
45.3750000000,5,7.6491699219,,,
45.3906250000,5,7.1031188965,,,
45.4062500000,5,6.6588439941,,,
45.4218750000,5,6.3107299805,,,
45.4375000000,5,5.9770197868,,,
45.4531250000,5,5.5847778320,,,
45.4687500000,5,5.1319580078,,,
45.4843750000,5,4.6839900017,,,
45.5000000000,5,4.3143310547,,,
45.5156250000,5,4.0326228142,,,
45.5312500000,5,3.7699279785,,,
45.5468750000,5,3.4039309025,,,
45.5625000000,5,2.8425600529,,,
45.5781250000,5,2.0833439827,,,
45.5937500000,5,1.2287900448,,,
45.6093750000,5,0.4464721978,,,
45.6250000000,5,-0.0977783203,,,
45.6406250000,5,-0.3016051948,,,
45.6562500000,5,-0.1429443061,,,
45.6718750000,5,0.3143616021,,,
45.6875000000,5,0.9498900771,,,
45.7031250000,5,1.6191099882,,,
45.7187500000,5,2.1925659180,,,
45.7343750000,5,2.5776369572,,,
45.7500000000,5,2.7571411133,,,
45.7656250000,5,2.7813720703,,,
45.7812500000,5,2.7332150936,,,
45.7968750000,5,2.6983950138,,,
45.8125000000,5,2.7084350586,,,
45.8281250000,5,2.7408449650,,,
45.8437500000,5,2.7215878963,,,
45.8593750000,5,2.5936579704,,,
45.8750000000,5,2.3663330078,,,
45.8906250000,5,2.1129760742,,,
45.9062500000,5,1.9439090490,,,
45.9218750000,5,1.9463200569,,,
45.9375000000,5,2.1352229118,,,
45.9531250000,5,2.4465939999,,,
45.9687500000,5,2.7715449333,,,
45.9843750000,5,3.0086359978,,,
46.0000000000,5,3.1229550838,,,
46.0156250000,5,3.1681520939,,,
46.0312500000,5,3.2565000057,,,
46.0468750000,5,3.5128479004,,,
46.0625000000,5,4.0145869255,,,
46.0781250000,5,4.7248539925,,,
46.0937500000,5,5.4898071289,,,
46.1093750000,5,6.0909729004,,,
46.1250000000,5,6.3498539925,,,
46.1406250000,5,6.2229309082,,,
46.1562500000,5,5.8750309944,,,
46.1718750000,5,5.6148071289,,,
46.1875000000,5,5.7741999626,,,
46.2031250000,5,6.5276179314,,,
46.2187500000,5,7.7767028809,,,
46.2343750000,5,9.1933288574,,,
46.2500000000,5,10.3667602539,,,
46.2656250000,5,11.0263996124,,,
46.2812500000,5,11.1780996323,,,
46.2968750000,5,11.1105699539,,,
46.3125000000,5,11.2372398376,,,
46.3281250000,5,11.9093303680,,,
46.3437500000,5,13.2988901138,,,
46.3593750000,5,15.3630104065,,,
46.3750000000,5,17.9137306213,,,
46.3906250000,5,20.5977802277,,,
46.4062500000,5,22.8490295410,,,
46.4218750000,5,23.8523597717,,,
46.4375000000,5,22.6746196747,,,
46.4531250000,5,18.6000709534,,,
46.4687500000,5,11.5625295639,,,
46.4843750000,5,2.4056088924,,,
46.5000000000,5,-7.2582550049,,,
46.5156250000,5,-15.5815095901,,,
46.5312500000,5,-21.1765403748,,,
46.5468750000,5,-23.5997295380,,,
46.5625000000,5,-23.3616504669,,,
46.5781250000,5,-21.5146808624,,,
46.5937500000,5,-19.0848407745,,,
46.6093750000,5,-16.6595897675,,,
46.6250000000,5,-14.3701896667,,,
46.6406250000,5,-12.1400098801,,,
46.6562500000,5,-9.9872894287,,,
46.6718750000,5,-8.1536865234,,,
46.6875000000,5,-6.9611821175,,,
46.7031250000,5,-6.5541839600,,,
46.7187500000,5,-6.7421879768,,,
46.7343750000,5,-7.0148930550,,,
46.7500000000,5,-6.7628169060,,,
46.7656250000,5,-5.5478358269,,,
46.7812500000,5,-3.3155360222,,,
46.7968750000,5,-0.4174652100,,,
46.8125000000,5,2.5037379265,,,
46.8281250000,5,4.7202448845,,,
46.8437500000,5,5.6536102295,,,
46.8593750000,5,5.0276031494,,,
46.8750000000,5,2.9544370174,,,
46.8906250000,5,-0.1039429009,,,
46.9062500000,5,-3.4660949707,,,
46.9218750000,5,-6.4230961800,,,
46.9375000000,5,-8.4500732422,,,
46.9531250000,5,-9.3364562988,,,
46.9687500000,5,-9.2323760986,,,
46.9843750000,5,-8.5115814209,,,
47.0000000000,5,-7.5949711800,,,
47.0156250000,5,-6.7780151367,,,
47.0312500000,5,-6.1484217644,,,
47.0468750000,5,-5.6185908318,,,
47.0625000000,5,-5.0302891731,,,
47.0781250000,5,-4.2584228516,,,
47.0937500000,5,-3.2798919678,,,
47.1093750000,5,-2.1751708984,,,
47.1250000000,5,-1.1218570471,,,
47.1406250000,5,-0.3201752007,,,
47.1562500000,5,0.0659637526,,,
47.1718750000,5,-0.0154724102,,,
47.1875000000,5,-0.4709778130,,,
47.2031250000,5,-1.0793759823,,,
47.2187500000,5,-1.5720520020,,,
47.2343750000,5,-1.7439579964,,,
47.2500000000,5,-1.5455780029,,,
47.2656250000,5,-1.0634919405,,,
47.2812500000,5,-0.4715118110,,,
47.2968750000,5,0.0808105469,,,
47.3125000000,5,0.5054321289,,,
47.3281250000,5,0.7758635879,,,
47.3437500000,5,0.8658295274,,,
47.3593750000,5,0.7313994765,,,
47.3750000000,5,0.3453369141,,,
47.3906250000,5,-0.2871094048,,,
47.4062500000,5,-1.0875849724,,,
47.4218750000,5,-1.9228819609,,,
47.4375000000,5,-2.6682128906,,,
47.4531250000,5,-3.2624509335,,,
47.4687500000,5,-3.7250978947,,,
47.4843750000,5,-4.1228790283,,,
47.5000000000,5,-4.5179901123,,,
47.5156250000,5,-4.9231719971,,,
47.5312500000,5,-5.2961120605,,,
47.5468750000,5,-5.5510711670,,,
47.5625000000,5,-5.6125788689,,,
47.5781250000,5,-5.4349818230,,,
47.5937500000,5,-5.0139307976,,,
47.6093750000,5,-4.3960719109,,,
47.6250000000,5,-3.6615600586,,,
47.6406250000,5,-2.9281919003,,,
47.6562500000,5,-2.3286290169,,,
47.6718750000,5,-1.9729000330,,,
47.6875000000,5,-1.9046169519,,,
47.7031250000,5,-2.0701899529,,,
47.7187500000,5,-2.3432309628,,,
47.7343750000,5,-2.5566709042,,,
47.7500000000,5,-2.5831449032,,,
47.7656250000,5,-2.3701629639,,,
47.7812500000,5,-1.9643859863,,,
47.7968750000,5,-1.4594880342,,,
47.8125000000,5,-0.9764862061,,,
47.8281250000,5,-0.5926970840,,,
47.8437500000,5,-0.3484649956,,,
47.8593750000,5,-0.2645415962,,,
47.8750000000,5,-0.3343657851,,,
47.8906250000,5,-0.5261840820,,,
47.9062500000,5,-0.7787017822,,,
47.9218750000,5,-0.9832152724,,,
47.9375000000,5,-1.0339200497,,,
47.9531250000,5,-0.8703002930,,,
47.9687500000,5,-0.5126801133,,,
47.9843750000,5,-0.0577392615,,,
48.0000000000,6,0.3738861084,,,
48.0156250000,6,0.6864777207,,,
48.0312500000,6,0.8254395127,,,
48.0468750000,6,0.7841339111,,,
48.0625000000,6,0.5744323730,,,
48.0781250000,6,0.2302550972,,,
48.0937500000,6,-0.1815032959,,,
48.1093750000,6,-0.5838623047,,,
48.1250000000,6,-0.8801270127,,,
48.1406250000,6,-1.0128020048,,,
48.1562500000,6,-0.9762573242,,,
48.1718750000,6,-0.8338013291,,,
48.1875000000,6,-0.6729125977,,,
48.2031250000,6,-0.5365601182,,,
48.2187500000,6,-0.4399414063,,,
48.2343750000,6,-0.3666228950,,,
48.2500000000,6,-0.3113251030,,,
48.2656250000,6,-0.3000487983,,,
48.2812500000,6,-0.3788299859,,,
48.2968750000,6,-0.5578765869,,,
48.3125000000,6,-0.8075714111,,,
48.3281250000,6,-1.0607299805,,,
48.3437500000,6,-1.2397609949,,,
48.3593750000,6,-1.3130489588,,,
48.3750000000,6,-1.2871860266,,,
48.3906250000,6,-1.1922609806,,,
48.4062500000,6,-1.0771180391,,,
48.4218750000,6,-0.9626160264,,,
48.4375000000,6,-0.8695526123,,,
48.4531250000,6,-0.8178101182,,,
48.4687500000,6,-0.8397827148,,,
48.4843750000,6,-0.9553527832,,,
48.5000000000,6,-1.1712950468,,,
48.5156250000,6,-1.4766390324,,,
48.5312500000,6,-1.8332519531,,,
48.5468750000,6,-2.1930389404,,,
48.5625000000,6,-2.5200350285,,,
48.5781250000,6,-2.7763369083,,,
48.5937500000,6,-2.9425809383,,,
48.6093750000,6,-3.0222630501,,,
48.6250000000,6,-3.0389249325,,,
48.6406250000,6,-3.0274510384,,,
48.6562500000,6,-2.9763789177,,,
48.6718750000,6,-2.8392179012,,,
48.6875000000,6,-2.5497128963,,,
48.7031250000,6,-2.0495300293,,,
48.7187500000,6,-1.3538509607,,,
48.7343750000,6,-0.5552825928,,,
48.7500000000,6,0.2018889934,,,
48.7656250000,6,0.7883605957,,,
48.7812500000,6,1.1266330481,,,
48.7968750000,6,1.2252349854,,,
48.8125000000,6,1.1448819637,,,
48.8281250000,6,0.9704285264,,,
48.8437500000,6,0.7962188721,,,
48.8593750000,6,0.6947174072,,,
48.8750000000,6,0.7301483154,,,
48.8906250000,6,0.9479979873,,,
48.9062500000,6,1.3582459688,,,
48.9218750000,6,1.9289089441,,,
48.9375000000,6,2.5830690861,,,
48.9531250000,6,3.2231600285,,,
48.9687500000,6,3.7571721077,,,
48.9843750000,6,4.1299438477,,,
49.0000000000,6,4.3224949837,,,
49.0156250000,6,4.3361659050,,,
49.0312500000,6,4.1952672005,,,
49.0468750000,6,3.9293670654,,,
49.0625000000,6,3.5636439323,,,
49.0781250000,6,3.1194920540,,,
49.0937500000,6,2.6220550537,,,
49.1093750000,6,2.1133120060,,,
49.1250000000,6,1.6527099609,,,
49.1406250000,6,1.2874150276,,,
49.1562500000,6,1.0653840303,,,
49.1718750000,6,1.0077819824,,,
49.1875000000,6,1.0998380184,,,
49.2031250000,6,1.2994689941,,,
49.2187500000,6,1.5502929688,,,
49.2343750000,6,1.7868959904,,,
49.2500000000,6,1.9565279484,,,
49.2656250000,6,2.0195620060,,,
49.2812500000,6,1.9509119987,,,
49.2968750000,6,1.7562259436,,,
49.3125000000,6,1.4624329805,,,
49.3281250000,6,1.1216429472,,,
49.3437500000,6,0.7988892198,,,
49.3593750000,6,0.5348969102,,,
49.3750000000,6,0.3213348091,,,
49.3906250000,6,0.1023406982,,,
49.4062500000,6,-0.1861876994,,,
49.4218750000,6,-0.5652161241,,,
49.4375000000,6,-0.9904326797,,,
49.4531250000,6,-1.3763730526,,,
49.4687500000,6,-1.6354060173,,,
49.4843750000,6,-1.7249449492,,,
49.5000000000,6,-1.6566619873,,,
49.5156250000,6,-1.4792939425,,,
49.5312500000,6,-1.2244869471,,,
49.5468750000,6,-0.9106903076,,,
49.5625000000,6,-0.5330504775,,,
49.5781250000,6,-0.1114043966,,,
49.5937500000,6,0.3077087104,,,
49.6093750000,6,0.6494141221,,,
49.6250000000,6,0.8605347276,,,
49.6406250000,6,0.9227141738,,,
49.6562500000,6,0.8681030273,,,
49.6718750000,6,0.7740479112,,,
49.6875000000,6,0.7165985107,,,
49.7031250000,6,0.7390136719,,,
49.7187500000,6,0.8374329209,,,
49.7343750000,6,0.9708861709,,,
49.7500000000,6,1.0818940401,,,
49.7656250000,6,1.1282039881,,,
49.7812500000,6,1.0802919865,,,
49.7968750000,6,0.9370574951,,,
49.8125000000,6,0.7178040147,,,
49.8281250000,6,0.4459229112,,,
49.8437500000,6,0.1654815972,,,
49.8593750000,6,-0.0629730225,,,
49.8750000000,6,-0.1650847942,,,
49.8906250000,6,-0.0804748535,,,
49.9062500000,6,0.2131499946,,,
49.9218750000,6,0.6535034180,,,
49.9375000000,6,1.0971219540,,,
49.9531250000,6,1.3420560360,,,
49.9687500000,6,1.2276610136,,,
49.9843750000,6,0.7210845947,,,
50.0000000000,6,-0.0515136681,,,
50.0156250000,6,-0.8509674072,,,
50.0312500000,6,-1.4218289852,,,
50.0468750000,6,-1.6320339441,,,
50.0625000000,6,-1.5020450354,,,
50.0781250000,6,-1.1792449951,,,
50.0937500000,6,-0.8272705078,,,
50.1093750000,6,-0.5314484239,,,
50.1250000000,6,-0.2490997016,,,
50.1406250000,6,0.1149445027,,,
50.1562500000,6,0.5995789170,,,
50.1718750000,6,1.1282199621,,,
50.1875000000,6,1.5166779757,,,
50.2031250000,6,1.5791469812,,,
50.2187500000,6,1.2370300293,,,
50.2343750000,6,0.5978087783,,,
50.2500000000,6,-0.1020812988,,,
50.2656250000,6,-0.6090239882,,,
50.2812500000,6,-0.7858428955,,,
50.2968750000,6,-0.6676483154,,,
50.3125000000,6,-0.4348754883,,,
50.3281250000,6,-0.2947998047,,,
50.3437500000,6,-0.3799591064,,,
50.3593750000,6,-0.6908112168,,,
50.3750000000,6,-1.1148070097,,,
50.3906250000,6,-1.5128630400,,,
50.4062500000,6,-1.7728730440,,,
50.4218750000,6,-1.8586430550,,,
50.4375000000,6,-1.7873690128,,,
50.4531250000,6,-1.6197049618,,,
50.4687500000,6,-1.4113010168,,,
50.4843750000,6,-1.1944429874,,,
50.5000000000,6,-0.9968872070,,,
50.5156250000,6,-0.8406525254,,,
50.5312500000,6,-0.7548828125,,,
50.5468750000,6,-0.7744904160,,,
50.5625000000,6,-0.9005432129,,,
50.5781250000,6,-1.0770720243,,,
50.5937500000,6,-1.1935420036,,,
50.6093750000,6,-1.1380159855,,,
50.6250000000,6,-0.8546599746,,,
50.6406250000,6,-0.3856812119,,,
50.6562500000,6,0.1507416070,,,
50.6718750000,6,0.6119080186,,,
50.6875000000,6,0.9134063721,,,
50.7031250000,6,1.0756839514,,,
50.7187500000,6,1.1797640324,,,
50.7343750000,6,1.3078000546,,,
50.7500000000,6,1.4675899744,,,
50.7656250000,6,1.5756380558,,,
50.7812500000,6,1.5212550163,,,
50.7968750000,6,1.2664639950,,,
50.8125000000,6,0.8871613145,,,
50.8281250000,6,0.5563201904,,,
50.8437500000,6,0.4316253960,,,
50.8593750000,6,0.5499724746,,,
50.8750000000,6,0.7884827256,,,
50.8906250000,6,0.9414672852,,,
50.9062500000,6,0.8520966172,,,
50.9218750000,6,0.5288544297,,,
50.9375000000,6,0.1340789944,,,
50.9531250000,6,-0.0985107422,,,
50.9687500000,6,-0.0364379883,,,
50.9843750000,6,0.2797698975,,,
51.0000000000,6,0.6417847276,,,
51.0156250000,6,0.8194274902,,,
51.0312500000,6,0.6788330078,,,
51.0468750000,6,0.2520293891,,,
51.0625000000,6,-0.2995604873,,,
51.0781250000,6,-0.7991179824,,,
51.0937500000,6,-1.1233520508,,,
51.1093750000,6,-1.2566989660,,,
51.1250000000,6,-1.2481080294,,,
51.1406250000,6,-1.1884609461,,,
51.1562500000,6,-1.1388089657,,,
51.1718750000,6,-1.1363530159,,,
51.1875000000,6,-1.1875150204,,,
51.2031250000,6,-1.2703549862,,,
51.2187500000,6,-1.3291319609,,,
51.2343750000,6,-1.2821810246,,,
51.2500000000,6,-1.0623170137,,,
51.2656250000,6,-0.6487578750,,,
51.2812500000,6,-0.1025696024,,,
51.2968750000,6,0.4529724121,,,
51.3125000000,6,0.8866271973,,,
51.3281250000,6,1.1209260225,,,
51.3437500000,6,1.1564179659,,,
51.3593750000,6,1.0570069551,,,
51.3750000000,6,0.8922423720,,,
51.3906250000,6,0.7028046250,,,
51.4062500000,6,0.4846191108,,,
51.4218750000,6,0.2326965034,,,
51.4375000000,6,-0.0435333289,,,
51.4531250000,6,-0.2882843018,,,
51.4687500000,6,-0.4260711968,,,
51.4843750000,6,-0.3979187012,,,
51.5000000000,6,-0.2003173977,,,
51.5156250000,6,0.1157073975,,,
51.5312500000,6,0.4744262993,,,
51.5468750000,6,0.8182373047,,,
51.5625000000,6,1.1192170382,,,
51.5781250000,6,1.3491970301,,,
51.5937500000,6,1.4573819637,,,
51.6093750000,6,1.3567500114,,,
51.6250000000,6,0.9949492812,,,
51.6406250000,6,0.4087524116,,,
51.6562500000,6,-0.2532042861,,,
51.6718750000,6,-0.7997130752,,,
51.6875000000,6,-1.0807499886,,,
51.7031250000,6,-1.0792080164,,,
51.7187500000,6,-0.9178314209,,,
51.7343750000,6,-0.7738190293,,,
51.7500000000,6,-0.7780150771,,,
51.7656250000,6,-0.9461516738,,,
51.7812500000,6,-1.1898189783,,,
51.7968750000,6,-1.3947910070,,,
51.8125000000,6,-1.4917299747,,,
51.8281250000,6,-1.4933470488,,,
51.8437500000,6,-1.4699549675,,,
51.8593750000,6,-1.4859470129,,,
51.8750000000,6,-1.5666199923,,,
51.8906250000,6,-1.6680450439,,,
51.9062500000,6,-1.7310329676,,,
51.9218750000,6,-1.7094730139,,,
51.9375000000,6,-1.6080319881,,,
51.9531250000,6,-1.4884639978,,,
51.9687500000,6,-1.4554140568,,,
51.9843750000,6,-1.6085820198,,,
52.0000000000,6,-2.0015110970,,,
52.0156250000,6,-2.6023409367,,,
52.0312500000,6,-3.2777099609,,,
52.0468750000,6,-3.8340449333,,,
52.0625000000,6,-4.0779571533,,,
52.0781250000,6,-3.8921658993,,,
52.0937500000,6,-3.2560269833,,,
52.1093750000,6,-2.2538149357,,,
52.1250000000,6,-1.0393370390,,,
52.1406250000,6,0.2133484036,,,
52.1562500000,6,1.3299560547,,,
52.1718750000,6,2.1733090878,,,
52.1875000000,6,2.6623690128,,,
52.2031250000,6,2.8072199821,,,
52.2187500000,6,2.6991579533,,,
52.2343750000,6,2.4876708984,,,
52.2500000000,6,2.3296968937,,,
52.2656250000,6,2.3211209774,,,
52.2812500000,6,2.4683840275,,,
52.2968750000,6,2.6837310791,,,
52.3125000000,6,2.8385620117,,,
52.3281250000,6,2.8061521053,,,
52.3437500000,6,2.5419011116,,,
52.3593750000,6,2.0830080509,,,
52.3750000000,6,1.5313420296,,,
52.3906250000,6,1.0148010254,,,
52.4062500000,6,0.6002197266,,,
52.4218750000,6,0.2856903076,,,
52.4375000000,6,0.0228118896,,,
52.4531250000,6,-0.2346649021,,,
52.4687500000,6,-0.4789581001,,,
52.4843750000,6,-0.6241301894,,,
52.5000000000,6,-0.5610808730,,,
52.5156250000,6,-0.2315979004,,,
52.5312500000,6,0.3156890869,,,
52.5468750000,6,0.9270172119,,,
52.5625000000,6,1.4371800423,,,
52.5781250000,6,1.7468409538,,,
52.5937500000,6,1.8804019690,,,
52.6093750000,6,1.9412540197,,,
52.6250000000,6,2.0218510628,,,
52.6406250000,6,2.1174468994,,,
52.6562500000,6,2.0989840031,,,
52.6718750000,6,1.8236850500,,,
52.6875000000,6,1.2295229435,,,
52.7031250000,6,0.4129638970,,,
52.7187500000,6,-0.3886260986,,,
52.7343750000,6,-0.9291381836,,,
52.7500000000,6,-1.0544890165,,,
52.7656250000,6,-0.7926787734,,,
52.7812500000,6,-0.3248291016,,,
52.7968750000,6,0.1032257006,,,
52.8125000000,6,0.3092803955,,,
52.8281250000,6,0.2432097942,,,
52.8437500000,6,-0.0012664790,,,
52.8593750000,6,-0.2636719048,,,
52.8750000000,6,-0.4005737007,,,
52.8906250000,6,-0.3589324951,,,
52.9062500000,6,-0.1859741062,,,
52.9218750000,6,0.0039520259,,,
52.9375000000,6,0.1172332987,,,
52.9531250000,6,0.1147003025,,,
52.9687500000,6,0.0305175800,,,
52.9843750000,6,-0.0711669922,,,
53.0000000000,6,-0.1383820027,,,
53.0156250000,6,-0.1716002971,,,
53.0312500000,6,-0.1992035061,,,
53.0468750000,6,-0.2591400146,,,
53.0625000000,6,-0.3775024116,,,
53.0781250000,6,-0.5318297744,,,
53.0937500000,6,-0.6665344238,,,
53.1093750000,6,-0.7396851182,,,
53.1250000000,6,-0.7407990098,,,
53.1406250000,6,-0.6879425049,,,
53.1562500000,6,-0.6465148926,,,
53.1718750000,6,-0.6658020020,,,
53.1875000000,6,-0.7783812881,,,
53.2031250000,6,-0.9677277207,,,
53.2187500000,6,-1.1693880558,,,
53.2343750000,6,-1.3080290556,,,
53.2500000000,6,-1.3122409582,,,
53.2656250000,6,-1.1486209631,,,
53.2812500000,6,-0.8366547227,,,
53.2968750000,6,-0.4460448921,,,
53.3125000000,6,-0.0728607178,,,
53.3281250000,6,0.2081757039,,,
53.3437500000,6,0.3833008111,,,
53.3593750000,6,0.5034943223,,,
53.3750000000,6,0.6510620117,,,
53.3906250000,6,0.8786469102,,,
53.4062500000,6,1.1610720158,,,
53.4218750000,6,1.3980710506,,,
53.4375000000,6,1.4669339657,,,
53.4531250000,6,1.3050539494,,,
53.4687500000,6,0.9579619765,,,
53.4843750000,6,0.5589752197,,,
53.5000000000,6,0.2686614990,,,
53.5156250000,6,0.1656035930,,,
53.5312500000,6,0.2180480957,,,
53.5468750000,6,0.3234558105,,,
53.5625000000,6,0.3605651855,,,
53.5781250000,6,0.2774811089,,,
53.5937500000,6,0.1181335002,,,
53.6093750000,6,-0.0044403081,,,
53.6250000000,6,0.0071868901,,,
53.6406250000,6,0.1936950982,,,
53.6562500000,6,0.5023803711,,,
53.6718750000,6,0.8314971924,,,
53.6875000000,6,1.0655210018,,,
53.7031250000,6,1.1347810030,,,
53.7187500000,6,1.0379489660,,,
53.7343750000,6,0.8203430176,,,
53.7500000000,6,0.5600432754,,,
53.7656250000,6,0.3283996880,,,
53.7812500000,6,0.1557006985,,,
53.7968750000,6,0.0251922607,,,
53.8125000000,6,-0.1030578986,,,
53.8281250000,6,-0.2440643013,,,
53.8437500000,6,-0.3916778862,,,
53.8593750000,6,-0.5096892715,,,
53.8750000000,6,-0.5765991211,,,
53.8906250000,6,-0.6057128906,,,
53.9062500000,6,-0.6462708116,,,
53.9218750000,6,-0.7375031114,,,
53.9375000000,6,-0.8855895996,,,
53.9531250000,6,-1.0321660042,,,
53.9687500000,6,-1.0757290125,,,
53.9843750000,6,-0.9443817139,,,
54.0000000000,6,-0.6241912842,,,
54.0156250000,6,-0.2041320950,,,
54.0312500000,6,0.1578827053,,,
54.0468750000,6,0.3128510118,,,
54.0625000000,6,0.1784362942,,,
54.0781250000,6,-0.2068634033,,,
54.0937500000,6,-0.7025756836,,,
54.1093750000,6,-1.1212459803,,,
54.1250000000,6,-1.3233339787,,,
54.1406250000,6,-1.2535250187,,,
54.1562500000,6,-0.9569396973,,,
54.1718750000,6,-0.5275269151,,,
54.1875000000,6,-0.0598602295,,,
54.2031250000,6,0.3948059082,,,
54.2187500000,6,0.8190612793,,,
54.2343750000,6,1.1864780188,,,
54.2500000000,6,1.4411159754,,,
54.2656250000,6,1.5140379667,,,
54.2812500000,6,1.3599239588,,,
54.2968750000,6,0.9929810166,,,
54.3125000000,6,0.4871368110,,,
54.3281250000,6,-0.0321807899,,,
54.3437500000,6,-0.4679413140,,,
54.3593750000,6,-0.7727509141,,,
54.3750000000,6,-0.9365692139,,,
54.3906250000,6,-0.9853516221,,,
54.4062500000,6,-0.9304199219,,,
54.4218750000,6,-0.7547150254,,,
54.4375000000,6,-0.4444732964,,,
54.4531250000,6,-0.0150909396,,,
54.4687500000,6,0.4760437012,,,
54.4843750000,6,0.9316558838,,,
54.5000000000,6,1.2610930204,,,
54.5156250000,6,1.4302669764,,,
54.5312500000,6,1.4549870491,,,
54.5468750000,6,1.4036250114,,,
54.5625000000,6,1.3304749727,,,
54.5781250000,6,1.2417299747,,,
54.5937500000,6,0.8471068740,,,
54.6093750000,6,0.4898223877,,,
54.6250000000,6,0.0996093825,,,
54.6406250000,6,-0.1985778958,,,
54.6562500000,6,-0.3039551079,,,
54.6718750000,6,-0.2063446045,,,
54.6875000000,6,0.0030364990,,,
54.7031250000,6,0.1648406982,,,
54.7187500000,6,0.1661681980,,,
54.7343750000,6,-0.0010833740,,,
54.7500000000,6,-0.2102203071,,,
54.7656250000,6,-0.2940062881,,,
54.7812500000,6,-0.1369476020,,,
54.7968750000,6,0.2195740044,,,
54.8125000000,6,0.6096038818,,,
54.8281250000,6,0.8226013184,,,
54.8437500000,6,0.7403411865,,,
54.8593750000,6,0.4093169868,,,
54.8750000000,6,0.0209197998,,,
54.8906250000,6,-0.2191009969,,,
54.9062500000,6,-0.2171783000,,,
54.9218750000,6,-0.0460968018,,,
54.9375000000,6,0.0997161865,,,
54.9531250000,6,0.0433959998,,,
54.9687500000,6,-0.2416228950,,,
54.9843750000,6,-0.6216735840,,,
55.0000000000,6,-0.8635100722,,,
55.0156250000,6,-0.8035277724,,,
55.0312500000,6,-0.4260253906,,,
55.0468750000,6,0.1213530973,,,
55.0625000000,6,0.6333466172,,,
55.0781250000,6,0.9461516738,,,
55.0937500000,6,1.0340420008,,,
55.1093750000,6,0.9765471816,,,
55.1250000000,6,0.8772583008,,,
55.1406250000,6,0.7870941162,,,
55.1562500000,6,0.6692352295,,,
55.1718750000,6,0.4271087945,,,
55.1875000000,6,0.0158386193,,,
55.2031250000,6,-0.5288239121,,,
55.2187500000,6,-1.0689239502,,,
55.2343750000,6,-1.4320830107,,,
55.2500000000,6,-1.4962459803,,,
55.2656250000,6,-1.2743070126,,,
55.2812500000,6,-0.8836975098,,,
55.2968750000,6,-0.5033721924,,,
55.3125000000,6,-0.2624664009,,,
55.3281250000,6,-0.1815337986,,,
55.3437500000,6,-0.1567229927,,,
55.3593750000,6,-0.0456848107,,,
55.3750000000,6,0.2537231147,,,
55.3906250000,6,0.7346190810,,,
55.4062500000,6,1.2655179501,,,
55.4218750000,6,1.6741329432,,,
55.4375000000,6,1.8274079561,,,
55.4531250000,6,1.6929630041,,,
55.4687500000,6,1.3569179773,,,
55.4843750000,6,0.9588165283,,,
55.5000000000,6,0.6166687012,,,
55.5156250000,6,0.3791503906,,,
55.5312500000,6,0.2261352986,,,
55.5468750000,6,0.1082763970,,,
55.5625000000,6,0.0183715802,,,
55.5781250000,6,-0.0192871094,,,
55.5937500000,6,0.0470581092,,,
55.6093750000,6,0.2574768066,,,
55.6250000000,6,0.5967407227,,,
55.6406250000,6,1.0042109489,,,
55.6562500000,6,1.4124150276,,,
55.6718750000,6,1.7664949894,,,
55.6875000000,6,2.0344390869,,,
55.7031250000,6,2.2018280029,,,
55.7187500000,6,2.2372739315,,,
55.7343750000,6,2.1015009880,,,
55.7500000000,6,1.7559200525,,,
55.7656250000,6,1.1808010340,,,
55.7812500000,6,0.4082336128,,,
55.7968750000,6,-0.4829865098,,,
55.8125000000,6,-1.3726650476,,,
55.8281250000,6,-2.1365969181,,,
55.8437500000,6,-2.6602330208,,,
55.8593750000,6,-2.8544158936,,,
55.8750000000,6,-2.6982729435,,,
55.8906250000,6,-2.2226870060,,,
55.9062500000,6,-1.5408630371,,,
55.9218750000,6,-0.8158568740,,,
55.9375000000,6,-0.1969299018,,,
55.9531250000,6,0.2047729045,,,
55.9687500000,6,0.3487091064,,,
55.9843750000,6,0.2816771865,,,
56.0000000000,7,0.0924377367,,,
56.0156250000,7,-0.1022948995,,,
56.0312500000,7,-0.2037505955,,,
