Time:64Hz,Epoch,Channel 1,Event Id,Event Date,Event Duration
0.0000000000,0,-0.1335601956,,,
0.0156250000,0,-0.1144256964,,,
0.0312500000,0,-0.1942902058,,,
0.0468750000,0,-0.3241424859,,,
0.0625000000,0,-0.4665527046,,,
0.0781250000,0,-0.6139221191,,,
0.0937500000,0,-0.7792510986,,,
0.1093750000,0,-0.9726256728,,,
0.1250000000,0,-1.2029570341,,,
0.1406250000,0,-1.4367220402,,,
0.1562500000,0,-1.6112979650,,,
0.1718750000,0,-1.6600190401,,,
0.1875000000,0,-1.5411529541,,,
0.2031250000,0,-1.2581330538,,,
0.2187500000,0,-0.8724213243,,,
0.2343750000,0,-0.4651794136,,,
0.2500000000,0,-0.1036681980,,,
0.2656250000,0,0.1914978027,,,
0.2812500000,0,0.4329529107,,,
0.2968750000,0,0.6326293945,,,
0.3125000000,0,0.7840728760,,,
0.3281250000,0,0.8659362793,,,
0.3437500000,0,0.8538054824,,,
0.3593750000,0,0.7511444092,,,
0.3750000000,0,0.6055297852,,,
0.3906250000,0,0.4757232964,,,
0.4062500000,0,0.3964081109,,,
0.4218750000,0,0.3674468994,,,
0.4375000000,0,0.3748474121,,,
0.4531250000,0,0.3853302002,,,
0.4687500000,0,0.3868713081,,,
0.4843750000,0,0.3850403130,,,
0.5000000000,0,0.3907471001,,,
0.5156250000,0,0.4208526909,,,
0.5312500000,0,0.4828490913,,,
0.5468750000,0,0.5831298828,,,
0.5625000000,0,0.7202758789,,,
0.5781250000,0,0.8784332275,,,
0.5937500000,0,1.0167390108,,,
0.6093750000,0,1.0732569695,,,
0.6250000000,0,0.9830474854,,,
0.6406250000,0,0.7264099121,,,
0.6562500000,0,0.3387756050,,,
0.6718750000,0,-0.0792846680,,,
0.6875000000,0,-0.4140166938,,,
0.7031250000,0,-0.5669860840,,,
0.7187500000,0,-0.5366973877,,,
0.7343750000,0,-0.3893127143,,,
0.7500000000,0,-0.2386475056,,,
0.7656250000,0,-0.1752929986,,,
0.7812500000,0,-0.2372588962,,,
0.7968750000,0,-0.4036406875,,,
0.8125000000,0,-0.6079406738,,,
0.8281250000,0,-0.7584838867,,,
0.8437500000,0,-0.7924041748,,,
0.8593750000,0,-0.6773682237,,,
0.8750000000,0,-0.4330902100,,,
0.8906250000,0,-0.1228485033,,,
0.9062500000,0,0.1575316936,,,
0.9218750000,0,0.3049468994,,,
0.9375000000,0,0.2515717149,,,
0.9531250000,0,-0.0028381350,,,
0.9687500000,0,-0.3714599907,,,
0.9843750000,0,-0.7161406875,,,
1.0000000000,0,-0.9058989882,,,
1.0156250000,0,-0.8703156114,,,
1.0312500000,0,-0.6196135879,,,
1.0468750000,0,-0.2361450046,,,
1.0625000000,0,0.1698455960,,,
1.0781250000,0,0.5043792725,,,
1.0937500000,0,0.7189788818,,,
1.1093750000,0,0.8003540039,,,
1.1250000000,0,0.7780150771,,,
1.1406250000,0,0.7052916884,,,
1.1562500000,0,0.6364746094,,,
1.1718750000,0,0.6100615859,,,
1.1875000000,0,0.6218872070,,,
1.2031250000,0,0.6516876221,,,
1.2187500000,0,0.6655272841,,,
1.2343750000,0,0.6236724854,,,
1.2500000000,0,0.5030364990,,,
1.2656250000,0,0.2940979004,,,
1.2812500000,0,0.0094757080,,,
1.2968750000,0,-0.3129577935,,,
1.3125000000,0,-0.5948485732,,,
1.3281250000,0,-0.7273864746,,,
1.3437500000,0,-0.6322783828,,,
1.3593750000,0,-0.2839354873,,,
1.3750000000,0,0.2138824016,,,
1.3906250000,0,0.6813048720,,,
1.4062500000,0,0.9224395752,,,
1.4218750000,0,0.8312224746,,,
1.4375000000,0,0.4351958930,,,
1.4531250000,0,-0.1088256985,,,
1.4687500000,0,-0.5870056152,,,
1.4843750000,0,-0.8383483887,,,
1.5000000000,0,-0.7978209853,,,
1.5156250000,0,-0.5207213759,,,
1.5312500000,0,-0.1281585991,,,
1.5468750000,0,0.2401275933,,,
1.5625000000,0,0.4755553901,,,
1.5781250000,0,0.5256958008,,,
1.5937500000,0,0.4158782959,,,
1.6093750000,0,0.2277985066,,,
1.6250000000,0,0.0696716309,,,
1.6406250000,0,0.0197753906,,,
1.6562500000,0,0.0981292725,,,
1.6718750000,0,0.2549133003,,,
1.6875000000,0,0.3984679878,,,
1.7031250000,0,0.4553222954,,,
1.7187500000,0,0.4083557129,,,
1.7343750000,0,0.3016662896,,,
1.7500000000,0,0.2093352973,,,
1.7656250000,0,0.1728058010,,,
1.7812500000,0,0.2063598931,,,
1.7968750000,0,0.2613373101,,,
1.8125000000,0,0.2890166938,,,
1.8281250000,0,0.2719726861,,,
1.8437500000,0,0.2111206055,,,
1.8593750000,0,0.1462097019,,,
1.8750000000,0,0.0933227465,,,
1.8906250000,0,0.0529937707,,,
1.9062500000,0,0.0008544922,,,
1.9218750000,0,-0.0697021484,,,
1.9375000000,0,-0.1727904975,,,
1.9531250000,0,-0.2900084853,,,
1.9687500000,0,-0.3844603896,,,
1.9843750000,0,-0.4294585884,,,
2.0000000000,0,-0.4062958062,,,
2.0156250000,0,-0.3336181939,,,
2.0312500000,0,-0.2479553074,,,
2.0468750000,0,-0.1999969035,,,
2.0625000000,0,-0.2184906006,,,
2.0781250000,0,-0.3066711128,,,
2.0937500000,0,-0.4517821968,,,
2.1093750000,0,-0.6185607910,,,
2.1250000000,0,-0.7835540771,,,
2.1406250000,0,-0.9297028184,,,
2.1562500000,0,-1.0456999540,,,
2.1718750000,0,-1.1199339628,,,
2.1875000000,0,-1.1368869543,,,
2.2031250000,0,-1.0740809441,,,
2.2187500000,0,-0.9302672744,,,
2.2343750000,0,-0.7299957275,,,
2.2500000000,0,-0.5200194716,,,
2.2656250000,0,-0.3761748970,,,
2.2812500000,0,-0.3202208877,,,
2.2968750000,0,-0.3502349854,,,
2.3125000000,0,-0.4015502930,,,
2.3281250000,0,-0.3961944878,,,
2.3437500000,0,-0.2973021865,,,
2.3593750000,0,-0.1300200969,,,
2.3750000000,0,0.0275573693,,,
2.3906250000,0,0.1107178032,,,
2.4062500000,0,0.1009368971,,,
2.4218750000,0,0.0804901123,,,
2.4375000000,0,0.1677245945,,,
2.4531250000,0,0.4757538140,,,
2.4687500000,0,1.0087280273,,,
2.4843750000,0,1.6592409611,,,
2.5000000000,0,2.2253110409,,,
2.5156250000,0,2.4995880127,,,
2.5312500000,0,2.3785099983,,,
2.5468750000,0,1.8900300264,,,
2.5625000000,0,1.1745150089,,,
2.5781250000,0,0.4101563096,,,
2.5937500000,0,-0.2572326958,,,
2.6093750000,0,-0.7675629258,,,
2.6250000000,0,-1.1202390194,,,
2.6406250000,0,-1.3536380529,,,
2.6562500000,0,-1.5016779900,,,
2.6718750000,0,-1.5662540197,,,
2.6875000000,0,-1.5368649960,,,
2.7031250000,0,-1.3792109489,,,
2.7187500000,0,-1.0916290283,,,
2.7343750000,0,-0.6948242188,,,
2.7500000000,0,-0.2493591011,,,
2.7656250000,0,0.1745758057,,,
2.7812500000,0,0.5188903809,,,
2.7968750000,0,0.7479705811,,,
2.8125000000,0,0.8667603135,,,
2.8281250000,0,0.9011536241,,,
2.8437500000,0,0.8988190293,,,
2.8593750000,0,0.8913269043,,,
2.8750000000,0,0.9024506211,,,
2.8906250000,0,0.9087830186,,,
2.9062500000,0,0.8785399795,,,
2.9218750000,0,0.7895659804,,,
2.9375000000,0,0.6391754150,,,
2.9531250000,0,0.4681701958,,,
2.9687500000,0,0.3108063042,,,
2.9843750000,0,0.2004700005,,,
3.0000000000,0,0.1117096022,,,
3.0156250000,0,0.0045166020,,,
3.0312500000,0,-0.1680603027,,,
3.0468750000,0,-0.4062958062,,,
3.0625000000,0,-0.6769409180,,,
3.0781250000,0,-0.9196166992,,,
3.0937500000,0,-1.0680389404,,,
3.1093750000,0,-1.1136779785,,,
3.1250000000,0,-1.0815579891,,,
3.1406250000,0,-1.0258790255,,,
3.1562500000,0,-0.9729766846,,,
3.1718750000,0,-0.9181823730,,,
3.1875000000,0,-0.8244171143,,,
3.2031250000,0,-0.6423950195,,,
3.2187500000,0,-0.3722076118,,,
3.2343750000,0,-0.0502471887,,,
3.2500000000,0,0.2450561970,,,
3.2656250000,0,0.4487152100,,,
3.2812500000,0,0.5245208740,,,
3.2968750000,0,0.4893035889,,,
3.3125000000,0,0.3905333877,,,
3.3281250000,0,0.3003692925,,,
3.3437500000,0,0.2872161865,,,
3.3593750000,0,0.4009856880,,,
3.3750000000,0,0.6714171767,,,
3.3906250000,0,1.0780639648,,,
3.4062500000,0,1.5604399443,,,
3.4218750000,0,1.9989620447,,,
3.4375000000,0,2.2464900017,,,
3.4531250000,0,2.1813199520,,,
3.4687500000,0,1.7575989962,,,
3.4843750000,0,1.0443270206,,,
3.5000000000,0,0.1979523003,,,
3.5156250000,0,-0.5889434814,,,
3.5312500000,0,-1.1610260010,,,
3.5468750000,0,-1.4369659424,,,
3.5625000000,0,-1.4273070097,,,
3.5781250000,0,-1.2031559944,,,
3.5937500000,0,-0.8447875977,,,
3.6093750000,0,-0.4496918023,,,
3.6250000000,0,-0.1000977010,,,
3.6406250000,0,0.1228789985,,,
3.6562500000,0,0.1646880955,,,
3.6718750000,0,0.0106658898,,,
3.6875000000,0,-0.2837372124,,,
3.7031250000,0,-0.6253967285,,,
3.7187500000,0,-0.9100646973,,,
3.7343750000,0,-1.0691829920,,,
3.7500000000,0,-1.0988310575,,,
3.7656250000,0,-1.0475009680,,,
3.7812500000,0,-0.9806671143,,,
3.7968750000,0,-0.9362487793,,,
3.8125000000,0,-0.9300690293,,,
3.8281250000,0,-0.9438477159,,,
3.8437500000,0,-0.9443511963,,,
3.8593750000,0,-0.8931427002,,,
3.8750000000,0,-0.7755584717,,,
3.8906250000,0,-0.6079254150,,,
3.9062500000,0,-0.4285430908,,,
3.9218750000,0,-0.2924346924,,,
3.9375000000,0,-0.2589417100,,,
3.9531250000,0,-0.3521575928,,,
3.9687500000,0,-0.5491179824,,,
3.9843750000,0,-0.7921599746,,,
4.0000000000,0,-0.9854431152,,,
4.0156250000,0,-1.0616760254,,,
4.0312500000,0,-0.9741516113,,,
4.0468750000,0,-0.7183380127,,,
4.0625000000,0,-0.3087311089,,,
4.0781250000,0,0.2058715969,,,
4.0937500000,0,0.7598267198,,,
4.1093750000,0,1.2460939884,,,
4.1250000000,0,1.5628509521,,,
4.1406250000,0,1.6511839628,,,
4.1562500000,0,1.5162199736,,,
4.1718750000,0,1.2514189482,,,
4.1875000000,0,1.0084079504,,,
4.2031250000,0,0.9268341064,,,
4.2187500000,0,1.0665129423,,,
4.2343750000,0,1.3800959587,,,
4.2500000000,0,1.7212829590,,,
4.2656250000,0,1.9123229980,,,
4.2812500000,0,1.8249360323,,,
4.2968750000,0,1.4455410242,,,
4.3125000000,0,0.8815308213,,,
4.3281250000,0,0.2971648872,,,
4.3437500000,0,-0.1770935059,,,
4.3593750000,0,-0.4823150933,,,
4.3750000000,0,-0.6539154053,,,
4.3906250000,0,-0.7741240859,,,
4.4062500000,0,-0.9053192139,,,
4.4218750000,0,-1.0342860222,,,
4.4375000000,0,-1.0931849480,,,
4.4531250000,0,-0.9892578125,,,
4.4687500000,0,-0.6762390137,,,
4.4843750000,0,-0.2130890042,,,
4.5000000000,0,0.2746886909,,,
4.5156250000,0,0.6288756728,,,
4.5312500000,0,0.7586364746,,,
4.5468750000,0,0.6619873047,,,
4.5625000000,0,0.4272614121,,,
4.5781250000,0,0.1695861965,,,
4.5937500000,0,-0.0094146729,,,
4.6093750000,0,-0.0637817383,,,
4.6250000000,0,-0.0047454829,,,
4.6406250000,0,0.1336974949,,,
4.6562500000,0,0.3105469048,,,
4.6718750000,0,0.4954986870,,,
4.6875000000,0,0.6609038711,,,
4.7031250000,0,0.7758483887,,,
4.7187500000,0,0.8028107285,,,
4.7343750000,0,0.7232512832,,,
4.7500000000,0,0.5446166992,,,
4.7656250000,0,0.3123931885,,,
4.7812500000,0,0.0793914795,,,
4.7968750000,0,-0.1174163967,,,
4.8125000000,0,-0.2616730034,,,
4.8281250000,0,-0.3439025879,,,
4.8437500000,0,-0.3636780083,,,
4.8593750000,0,-0.3058319092,,,
4.8750000000,0,-0.1694945991,,,
4.8906250000,0,0.0059051509,,,
4.9062500000,0,0.1609039009,,,
4.9218750000,0,0.2641448975,,,
4.9375000000,0,0.3393706977,,,
4.9531250000,0,0.4696807861,,,
4.9687500000,0,0.7491608262,,,
4.9843750000,0,1.2124789953,,,
5.0000000000,0,1.7765500546,,,
5.0156250000,0,2.2431180477,,,
5.0312500000,0,2.3955540657,,,
5.0468750000,0,2.0887451172,,,
5.0625000000,0,1.3579410315,,,
5.0781250000,0,0.3817749023,,,
5.0937500000,0,-0.5738524795,,,
5.1093750000,0,-1.2785639763,,,
5.1250000000,0,-1.6123659611,,,
5.1406250000,0,-1.6009219885,,,
5.1562500000,0,-1.3544310331,,,
5.1718750000,0,-1.0164339542,,,
5.1875000000,0,-0.7024230957,,,
5.2031250000,0,-0.4671936035,,,
5.2187500000,0,-0.3383635879,,,
5.2343750000,0,-0.3148651123,,,
5.2500000000,0,-0.3990935981,,,
5.2656250000,0,-0.5816497803,,,
5.2812500000,0,-0.8377227783,,,
5.2968750000,0,-1.1270140409,,,
5.3125000000,0,-1.3907469511,,,
5.3281250000,0,-1.5733180046,,,
5.3437500000,0,-1.6472630501,,,
5.3593750000,0,-1.6057130098,,,
5.3750000000,0,-1.4574739933,,,
5.3906250000,0,-1.2280730009,,,
5.4062500000,0,-0.9495697021,,,
5.4218750000,0,-0.6574097276,,,
5.4375000000,0,-0.3958587945,,,
5.4531250000,0,-0.2004241943,,,
5.4687500000,0,-0.0810546875,,,
5.4843750000,0,-0.0158386193,,,
5.5000000000,0,0.0370788611,,,
5.5156250000,0,0.1060943976,,,
5.5312500000,0,0.1940764934,,,
5.5468750000,0,0.2584381104,,,
5.5625000000,0,0.2587127984,,,
5.5781250000,0,0.1719208062,,,
5.5937500000,0,0.0264740009,,,
5.6093750000,0,-0.1236267015,,,
5.6250000000,0,-0.2264252007,,,
5.6406250000,0,-0.2650603950,,,
5.6562500000,0,-0.2505492866,,,
5.6718750000,0,-0.2341918945,,,
5.6875000000,0,-0.2624512017,,,
5.7031250000,0,-0.3311310112,,,
5.7187500000,0,-0.3845215142,,,
5.7343750000,0,-0.3141784966,,,
5.7500000000,0,-0.0184936505,,,
5.7656250000,0,0.5232697129,,,
5.7812500000,0,1.2275849581,,,
5.7968750000,0,1.9189759493,,,
5.8125000000,0,2.4005739689,,,
5.8281250000,0,2.5559229851,,,
5.8437500000,0,2.3794250488,,,
5.8593750000,0,1.9742740393,,,
5.8750000000,0,1.4830930233,,,
5.8906250000,0,1.0030210018,,,
5.9062500000,0,0.5675048828,,,
5.9218750000,0,0.1631622016,,,
5.9375000000,0,-0.2091674954,,,
5.9531250000,0,-0.5213317871,,,
5.9687500000,0,-0.7121735215,,,
5.9843750000,0,-0.7480773926,,,
6.0000000000,0,-0.6574860215,,,
6.0156250000,0,-0.5088806152,,,
6.0312500000,0,-0.3902893066,,,
6.0468750000,0,-0.3468169868,,,
6.0625000000,0,-0.3810425103,,,
6.0781250000,0,-0.4682922065,,,
6.0937500000,0,-0.5800170898,,,
6.1093750000,0,-0.7112885118,,,
6.1250000000,0,-0.8642578125,,,
6.1406250000,0,-1.0395970345,,,
6.1562500000,0,-1.1925660372,,,
6.1718750000,0,-1.2597500086,,,
6.1875000000,0,-1.1707760096,,,
6.2031250000,0,-0.8759155273,,,
6.2187500000,0,-0.3905945122,,,
6.2343750000,0,0.2042846978,,,
6.2500000000,0,0.7871093750,,,
6.2656250000,0,1.2301180363,,,
6.2812500000,0,1.4400939941,,,
6.2968750000,0,1.3970639706,,,
6.3125000000,0,1.1338039637,,,
6.3281250000,0,0.7398223877,,,
6.3437500000,0,0.3217467964,,,
6.3593750000,0,-0.0115051297,,,
6.3750000000,0,-0.1887816936,,,
6.3906250000,0,-0.2086181939,,,
6.4062500000,0,-0.1172484979,,,
6.4218750000,0,-0.0178375207,,,
6.4375000000,0,0.0086212158,,,
6.4531250000,0,-0.0752410889,,,
6.4687500000,0,-0.2427368015,,,
6.4843750000,0,-0.4171142876,,,
6.5000000000,0,-0.5335236192,,,
6.5156250000,0,-0.5654448867,,,
6.5312500000,0,-0.5321350098,,,
6.5468750000,0,-0.4614258111,,,
6.5625000000,0,-0.3718109131,,,
6.5781250000,0,-0.2538909912,,,
6.5937500000,0,-0.1060181037,,,
6.6093750000,0,0.0211181603,,,
6.6250000000,0,0.0491790809,,,
6.6406250000,0,-0.0976562500,,,
6.6562500000,0,-0.4255523980,,,
6.6718750000,0,-0.8390349746,,,
6.6875000000,0,-1.1966860294,,,
6.7031250000,0,-1.3753809929,,,
6.7187500000,0,-1.3267209530,,,
6.7343750000,0,-1.0827790499,,,
6.7500000000,0,-0.7130889893,,,
6.7656250000,0,-0.2689667046,,,
6.7812500000,0,0.2018280029,,,
6.7968750000,0,0.6534423828,,,
6.8125000000,0,0.9998474121,,,
6.8281250000,0,1.1495970488,,,
6.8437500000,0,1.0286099911,,,
6.8593750000,0,0.6545562744,,,
6.8750000000,0,0.1522521973,,,
6.8906250000,0,-0.3038482964,,,
6.9062500000,0,-0.5478363037,,,
6.9218750000,0,-0.4991301894,,,
6.9375000000,0,-0.1991882026,,,
6.9531250000,0,0.2470856011,,,
6.9687500000,0,0.6913146973,,,
6.9843750000,0,1.0031739473,,,
7.0000000000,0,1.0895390511,,,
7.0156250000,0,0.9033507705,,,
7.0312500000,0,0.4762878120,,,
7.0468750000,0,-0.0846710205,,,
7.0625000000,0,-0.6150054932,,,
7.0781250000,0,-0.9593505859,,,
7.0937500000,0,-1.0208439827,,,
7.1093750000,0,-0.8177642822,,,
7.1250000000,0,-0.4564056098,,,
7.1406250000,0,-0.0878448486,,,
7.1562500000,0,0.1695251018,,,
7.1718750000,0,0.2659912109,,,
7.1875000000,0,0.2198181003,,,
7.2031250000,0,0.0922546387,,,
7.2187500000,0,-0.0383911096,,,
7.2343750000,0,-0.1036223993,,,
7.2500000000,0,-0.0781097412,,,
7.2656250000,0,0.0314331092,,,
7.2812500000,0,0.1687164009,,,
7.2968750000,0,0.2485962063,,,
7.3125000000,0,0.1810149997,,,
7.3281250000,0,-0.0687103271,,,
7.3437500000,0,-0.4454346001,,,
7.3593750000,0,-0.8109893799,,,
7.3750000000,0,-0.9918975830,,,
7.3906250000,0,-0.8728485107,,,
7.4062500000,0,-0.4715881050,,,
7.4218750000,0,0.0826721191,,,
7.4375000000,0,0.5961455703,,,
7.4531250000,0,0.9018402100,,,
7.4687500000,0,0.9347534180,,,
7.4843750000,0,0.7391052246,,,
7.5000000000,0,0.4230346978,,,
7.5156250000,0,0.1044159010,,,
7.5312500000,0,-0.1255798042,,,
7.5468750000,0,-0.2047881931,,,
7.5625000000,0,-0.0990600586,,,
7.5781250000,0,0.1842803955,,,
7.5937500000,0,0.5786437988,,,
7.6093750000,0,0.9477385879,,,
7.6250000000,0,1.1563869715,,,
7.6406250000,0,1.1093139648,,,
7.6562500000,0,0.8305205703,,,
7.6718750000,0,0.4466094971,,,
7.6875000000,0,0.1055144966,,,
7.7031250000,0,-0.1049041972,,,
7.7187500000,0,-0.1892852932,,,
7.7343750000,0,-0.2140198052,,,
7.7500000000,0,-0.2255095989,,,
7.7656250000,0,-0.2052765042,,,
7.7812500000,0,-0.0865936279,,,
7.7968750000,0,0.1570740044,,,
7.8125000000,0,0.4548340142,,,
7.8281250000,0,0.6656035781,,,
7.8437500000,0,0.6554564834,,,
7.8593750000,0,0.4212189019,,,
7.8750000000,0,0.0824737474,,,
7.8906250000,0,-0.1810912937,,,
7.9062500000,0,-0.2530212104,,,
7.9218750000,0,-0.1689147949,,,
7.9375000000,0,-0.0632171631,,,
7.9531250000,0,-0.0854492188,,,
7.9687500000,0,-0.2784118950,,,
7.9843750000,0,-0.5561829209,,,
8.0000000000,1,-0.7758483887,,,
8.0156250000,1,-0.8398131728,,,
8.0312500000,1,-0.7673035264,,,
8.0468750000,1,-0.6656646729,,,
8.0625000000,1,-0.6420134902,,,
8.0781250000,1,-0.7257080078,,,
8.0937500000,1,-0.8303679824,,,
8.1093750000,1,-0.8122100830,,,
8.1250000000,1,-0.5669860840,,,
8.1406250000,1,-0.0955200195,,,
8.1562500000,1,0.4716033936,,,
8.1718750000,1,0.9547423720,,,
8.1875000000,1,1.1888890266,,,
8.2031250000,1,1.0980379581,,,
8.2187500000,1,0.7319946289,,,
8.2343750000,1,0.2290648967,,,
8.2500000000,1,-0.2228240967,,,
8.2656250000,1,-0.4941559136,,,
8.2812500000,1,-0.5306854248,,,
8.2968750000,1,-0.3929137886,,,
8.3125000000,1,-0.2044373006,,,
8.3281250000,1,-0.0781555176,,,
8.3437500000,1,-0.0690460205,,,
8.3593750000,1,-0.1306609958,,,
8.3750000000,1,-0.1837006062,,,
8.3906250000,1,-0.1675415039,,,
8.4062500000,1,-0.0821380615,,,
8.4218750000,1,0.0326690711,,,
8.4375000000,1,0.1515807956,,,
8.4531250000,1,0.2839812934,,,
8.4687500000,1,0.4765625000,,,
8.4843750000,1,0.7475585938,,,
8.5000000000,1,1.0159909725,,,
8.5156250000,1,1.1382290125,,,
8.5312500000,1,0.9638367295,,,
8.5468750000,1,0.4370574951,,,
8.5625000000,1,-0.3268890083,,,
8.5781250000,1,-1.0892030001,,,
8.5937500000,1,-1.5875849724,,,
8.6093750000,1,-1.6723020077,,,
8.6250000000,1,-1.3585050106,,,
8.6406250000,1,-0.8074799180,,,
8.6562500000,1,-0.2303162068,,,
8.6718750000,1,0.2140655965,,,
8.6875000000,1,0.4647674859,,,
8.7031250000,1,0.5452271104,,,
8.7187500000,1,0.5089417100,,,
8.7343750000,1,0.3984070122,,,
8.7500000000,1,0.2490997016,,,
8.7656250000,1,0.0932464600,,,
8.7812500000,1,-0.0324249305,,,
8.7968750000,1,-0.0918426514,,,
8.8125000000,1,-0.0460052490,,,
8.8281250000,1,0.1045684963,,,
8.8437500000,1,0.3432007134,,,
8.8593750000,1,0.6369171143,,,
8.8750000000,1,0.9491118789,,,
8.8906250000,1,1.2201999426,,,
8.9062500000,1,1.3744349480,,,
8.9218750000,1,1.3370970488,,,
8.9375000000,1,1.0679169893,,,
8.9531250000,1,0.5880736709,,,
8.9687500000,1,-0.0023651121,,,
8.9843750000,1,-0.5477141738,,,
9.0000000000,1,-0.9154816270,,,
9.0156250000,1,-1.0281219482,,,
9.0312500000,1,-0.9118804932,,,
9.0468750000,1,-0.6528167725,,,
9.0625000000,1,-0.3679656982,,,
9.0781250000,1,-0.1387481987,,,
9.0937500000,1,0.0294799805,,,
9.1093750000,1,0.1460265964,,,
9.1250000000,1,0.2406006008,,,
9.1406250000,1,0.3093262017,,,
9.1562500000,1,0.3335723877,,,
9.1718750000,1,0.2815398872,,,
9.1875000000,1,0.1765747070,,,
9.2031250000,1,0.0763091967,,,
9.2187500000,1,0.0522003211,,,
9.2343750000,1,0.1471862942,,,
9.2500000000,1,0.3308716118,,,
9.2656250000,1,0.5128325820,,,
9.2812500000,1,0.5739594102,,,
9.2968750000,1,0.4333190918,,,
9.3125000000,1,0.0999908373,,,
9.3281250000,1,-0.3293304145,,,
9.3437500000,1,-0.7089843750,,,
9.3593750000,1,-0.9311370850,,,
9.3750000000,1,-0.9502562881,,,
9.3906250000,1,-0.8171997070,,,
9.4062500000,1,-0.6327056885,,,
9.4218750000,1,-0.4906157851,,,
9.4375000000,1,-0.4302825928,,,
9.4531250000,1,-0.4302367866,,,
9.4687500000,1,-0.4197844863,,,
9.4843750000,1,-0.3364562988,,,
9.5000000000,1,-0.1786193997,,,
9.5156250000,1,0.0089111328,,,
9.5312500000,1,0.1344756931,,,
9.5468750000,1,0.1309356987,,,
9.5625000000,1,-0.0131072998,,,
9.5781250000,1,-0.2473601997,,,
9.5937500000,1,-0.4858703911,,,
9.6093750000,1,-0.6494750977,,,
9.6250000000,1,-0.6885529160,,,
9.6406250000,1,-0.5852050781,,,
9.6562500000,1,-0.3193053901,,,
9.6718750000,1,0.0880584717,,,
9.6875000000,1,0.6045684814,,,
9.7031250000,1,1.1363370419,,,
9.7187500000,1,1.5590519905,,,
9.7343750000,1,1.7518160343,,,
9.7500000000,1,1.6633449793,,,
9.7656250000,1,1.3369899988,,,
9.7812500000,1,0.8838806152,,,
9.7968750000,1,0.4268645942,,,
9.8125000000,1,0.0455322303,,,
9.8281250000,1,-0.2552185059,,,
9.8437500000,1,-0.4818420112,,,
9.8593750000,1,-0.6416779160,,,
9.8750000000,1,-0.6894989014,,,
9.8906250000,1,-0.5593872070,,,
9.9062500000,1,-0.2388457954,,,
9.9218750000,1,0.2049407959,,,
9.9375000000,1,0.6184235215,,,
9.9531250000,1,0.8357849121,,,
9.9687500000,1,0.7578430176,,,
9.9843750000,1,0.4299927056,,,
10.0000000000,1,0.0137481699,,,
10.0156250000,1,-0.3015593886,,,
10.0312500000,1,-0.4073638916,,,
10.0468750000,1,-0.3328247070,,,
10.0625000000,1,-0.2177581936,,,
10.0781250000,1,-0.2158508003,,,
10.0937500000,1,-0.3998259902,,,
10.1093750000,1,-0.7227324843,,,
10.1250000000,1,-1.0512239933,,,
10.1406250000,1,-1.2614439726,,,
10.1562500000,1,-1.2977290154,,,
10.1718750000,1,-1.1855620146,,,
10.1875000000,1,-0.9751129150,,,
10.2031250000,1,-0.7133330703,,,
10.2187500000,1,-0.4041137993,,,
10.2343750000,1,-0.0350036584,,,
10.2500000000,1,0.3898772895,,,
10.2656250000,1,0.8160858154,,,
10.2812500000,1,1.1542659998,,,
10.2968750000,1,1.3139189482,,,
10.3125000000,1,1.2644649744,,,
10.3281250000,1,1.0324709415,,,
10.3437500000,1,0.7394866943,,,
10.3593750000,1,0.5160065293,,,
10.3750000000,1,0.4632568061,,,
10.3906250000,1,0.5923920274,,,
10.4062500000,1,0.8048552871,,,
10.4218750000,1,0.9429016113,,,
10.4375000000,1,0.8692780137,,,
10.4531250000,1,0.5595855713,,,
10.4687500000,1,0.1006316990,,,
10.4843750000,1,-0.3394623101,,,
10.5000000000,1,-0.6202239990,,,
10.5156250000,1,-0.6881104112,,,
10.5312500000,1,-0.6044158936,,,
10.5468750000,1,-0.4957886040,,,
10.5625000000,1,-0.4784851074,,,
10.5781250000,1,-0.6096497178,,,
10.5937500000,1,-0.8704224229,,,
10.6093750000,1,-1.2082370520,,,
10.6250000000,1,-1.5383759737,,,
10.6406250000,1,-1.7876130342,,,
10.6562500000,1,-1.8864749670,,,
10.6718750000,1,-1.7874300480,,,
10.6875000000,1,-1.4928590059,,,
10.7031250000,1,-1.0613559484,,,
10.7187500000,1,-0.5887755752,,,
10.7343750000,1,-0.1737671047,,,
10.7500000000,1,0.1139374003,,,
10.7656250000,1,0.2728882134,,,
10.7812500000,1,0.3343963921,,,
10.7968750000,1,0.3508453071,,,
10.8125000000,1,0.3548736870,,,
10.8281250000,1,0.3440704048,,,
10.8437500000,1,0.3109282851,,,
10.8593750000,1,0.2446898967,,,
10.8750000000,1,0.1501006931,,,
10.8906250000,1,0.0422210693,,,
10.9062500000,1,-0.0483245812,,,
10.9218750000,1,-0.1185455024,,,
10.9375000000,1,-0.1663054973,,,
10.9531250000,1,-0.2169951946,,,
10.9687500000,1,-0.2769927979,,,
10.9843750000,1,-0.3203277886,,,
11.0000000000,1,-0.2888335884,,,
11.0156250000,1,-0.1166839972,,,
11.0312500000,1,0.2133789063,,,
11.0468750000,1,0.6709442139,,,
11.0625000000,1,1.1571810246,,,
11.0781250000,1,1.5426330566,,,
11.0937500000,1,1.7262879610,,,
11.1093750000,1,1.6697080135,,,
11.1250000000,1,1.3980560303,,,
11.1406250000,1,0.9834594727,,,
11.1562500000,1,0.5138701797,,,
11.1718750000,1,0.0765380934,,,
11.1875000000,1,-0.2422790974,,,
11.2031250000,1,-0.3890532851,,,
11.2187500000,1,-0.3448028862,,,
11.2343750000,1,-0.1481781006,,,
11.2500000000,1,0.1100616008,,,
11.2656250000,1,0.3087615967,,,
11.2812500000,1,0.3505249023,,,
11.2968750000,1,0.2043152004,,,
11.3125000000,1,-0.0755615234,,,
11.3281250000,1,-0.3844147027,,,
11.3437500000,1,-0.6263884902,,,
11.3593750000,1,-0.7448272705,,,
11.3750000000,1,-0.7467194200,,,
11.3906250000,1,-0.6821594238,,,
11.4062500000,1,-0.6142426133,,,
11.4218750000,1,-0.5842589736,,,
11.4375000000,1,-0.5867919922,,,
11.4531250000,1,-0.5903319716,,,
11.4687500000,1,-0.5441132188,,,
11.4843750000,1,-0.4243774116,,,
11.5000000000,1,-0.2371520996,,,
11.5156250000,1,0.0030212400,,,
11.5312500000,1,0.2547607124,,,
11.5468750000,1,0.4834136963,,,
11.5625000000,1,0.6703643799,,,
11.5781250000,1,0.7862548828,,,
11.5937500000,1,0.8155974746,,,
11.6093750000,1,0.7368164063,,,
11.6250000000,1,0.5215759277,,,
11.6406250000,1,0.1603545994,,,
11.6562500000,1,-0.3056792915,,,
11.6718750000,1,-0.7729492188,,,
11.6875000000,1,-1.0917819738,,,
11.7031250000,1,-1.1117099524,,,
11.7187500000,1,-0.7863922119,,,
11.7343750000,1,-0.2175751030,,,
11.7500000000,1,0.3927460015,,,
11.7656250000,1,0.8372650146,,,
11.7812500000,1,1.0055849552,,,
11.7968750000,1,0.9396209717,,,
11.8125000000,1,0.7767333984,,,
11.8281250000,1,0.6548004150,,,
11.8437500000,1,0.6346129775,,,
11.8593750000,1,0.6600493789,,,
11.8750000000,1,0.6494750977,,,
11.8906250000,1,0.5464019775,,,
11.9062500000,1,0.3763580024,,,
11.9218750000,1,0.2166443020,,,
11.9375000000,1,0.1318358928,,,
11.9531250000,1,0.1156311035,,,
11.9687500000,1,0.1072997972,,,
11.9843750000,1,0.0622406006,,,
12.0000000000,1,-0.0268707294,,,
12.0156250000,1,-0.1019897014,,,
12.0312500000,1,-0.1143035963,,,
12.0468750000,1,-0.0521850586,,,
12.0625000000,1,0.0403442383,,,
12.0781250000,1,0.1177672967,,,
12.0937500000,1,0.1618195027,,,
12.1093750000,1,0.2050933987,,,
12.1250000000,1,0.2895660102,,,
12.1406250000,1,0.4271545112,,,
12.1562500000,1,0.5853118896,,,
12.1718750000,1,0.7197722793,,,
12.1875000000,1,0.7821503282,,,
12.2031250000,1,0.7569885254,,,
12.2187500000,1,0.6560059190,,,
12.2343750000,1,0.4935150146,,,
12.2500000000,1,0.2899627984,,,
12.2656250000,1,0.0808563232,,,
12.2812500000,1,-0.1109618992,,,
12.2968750000,1,-0.2486114949,,,
12.3125000000,1,-0.3193207085,,,
12.3281250000,1,-0.3335114121,,,
12.3437500000,1,-0.3065947890,,,
12.3593750000,1,-0.2681122124,,,
12.3750000000,1,-0.2193298042,,,
12.3906250000,1,-0.1653441936,,,
12.4062500000,1,-0.1113585979,,,
12.4218750000,1,-0.0928955078,,,
12.4375000000,1,-0.1622924954,,,
12.4531250000,1,-0.3614807129,,,
12.4687500000,1,-0.6825408936,,,
12.4843750000,1,-1.0520319939,,,
12.5000000000,1,-1.3696899414,,,
12.5156250000,1,-1.5468139648,,,
12.5312500000,1,-1.5659940243,,,
12.5468750000,1,-1.4574580193,,,
12.5625000000,1,-1.2858279943,,,
12.5781250000,1,-1.0921629667,,,
12.5937500000,1,-0.9013367295,,,
12.6093750000,1,-0.7117156982,,,
12.6250000000,1,-0.5444794297,,,
12.6406250000,1,-0.4216460884,,,
12.6562500000,1,-0.3737792969,,,
12.6718750000,1,-0.3776398003,,,
12.6875000000,1,-0.3702239990,,,
12.7031250000,1,-0.2721405029,,,
12.7187500000,1,-0.0410919189,,,
12.7343750000,1,0.2770690918,,,
12.7500000000,1,0.5616608262,,,
12.7656250000,1,0.6803436279,,,
12.7812500000,1,0.5740203857,,,
12.7968750000,1,0.3170318902,,,
12.8125000000,1,0.0788574219,,,
12.8281250000,1,0.0339050293,,,
12.8437500000,1,0.2730103135,,,
12.8593750000,1,0.7320250869,,,
12.8750000000,1,1.2381130457,,,
12.8906250000,1,1.5964360237,,,
12.9062500000,1,1.6647640467,,,
12.9218750000,1,1.4340970516,,,
12.9375000000,1,0.9966278076,,,
12.9531250000,1,0.4790191948,,,
12.9687500000,1,0.0142364502,,,
12.9843750000,1,-0.3121795952,,,
13.0000000000,1,-0.4542084038,,,
13.0156250000,1,-0.4273070991,,,
13.0312500000,1,-0.2717590034,,,
13.0468750000,1,-0.0576477088,,,
13.0625000000,1,0.1435241997,,,
13.0781250000,1,0.3040770888,,,
13.0937500000,1,0.4236755073,,,
13.1093750000,1,0.5414276123,,,
13.1250000000,1,0.6872711182,,,
13.1406250000,1,0.8806610107,,,
13.1562500000,1,1.0884699821,,,
13.1718750000,1,1.2646030188,,,
13.1875000000,1,1.3550419807,,,
13.2031250000,1,1.3310240507,,,
13.2187500000,1,1.1943509579,,,
13.2343750000,1,0.9798278809,,,
13.2500000000,1,0.7413787842,,,
13.2656250000,1,0.5179442763,,,
13.2812500000,1,0.3210448921,,,
13.2968750000,1,0.1226501018,,,
13.3125000000,1,-0.1156158000,,,
13.3281250000,1,-0.4198608100,,,
13.3437500000,1,-0.7624663711,,,
13.3593750000,1,-1.0528110266,,,
13.3750000000,1,-1.1649630070,,,
13.3906250000,1,-1.0259549618,,,
13.4062500000,1,-0.6890258789,,,
13.4218750000,1,-0.3150329888,,,
13.4375000000,1,-0.1019439995,,,
13.4531250000,1,-0.1711578071,,,
13.4687500000,1,-0.4972839057,,,
13.4843750000,1,-0.9288330078,,,
13.5000000000,1,-1.2764589787,,,
13.5156250000,1,-1.4377590418,,,
13.5312500000,1,-1.4200739861,,,
13.5468750000,1,-1.3038940430,,,
13.5625000000,1,-1.1562809944,,,
13.5781250000,1,-0.9802703857,,,
13.5937500000,1,-0.7354735732,,,
13.6093750000,1,-0.4010773003,,,
13.6250000000,1,-0.0275573693,,,
13.6406250000,1,0.2861937881,,,
13.6562500000,1,0.4433594048,,,
13.6718750000,1,0.4223479927,,,
13.6875000000,1,0.2761077881,,,
13.7031250000,1,0.1204224005,,,
13.7187500000,1,0.0479736291,,,
13.7343750000,1,0.1091613993,,,
13.7500000000,1,0.2817383111,,,
13.7656250000,1,0.5108947754,,,
13.7812500000,1,0.7278137207,,,
13.7968750000,1,0.8715819716,,,
13.8125000000,1,0.9112548828,,,
13.8281250000,1,0.8462371826,,,
13.8437500000,1,0.7001647949,,,
13.8593750000,1,0.5110167861,,,
13.8750000000,1,0.3241271973,,,
13.8906250000,1,0.1840056926,,,
13.9062500000,1,0.1128235012,,,
13.9218750000,1,0.1368408054,,,
13.9375000000,1,0.2467498928,,,
13.9531250000,1,0.4079132080,,,
13.9687500000,1,0.5509948730,,,
13.9843750000,1,0.5929260254,,,
14.0000000000,1,0.4827575982,,,
14.0156250000,1,0.2422180027,,,
14.0312500000,1,-0.0346069299,,,
14.0468750000,1,-0.2442474067,,,
14.0625000000,1,-0.3230743110,,,
14.0781250000,1,-0.3074187934,,,
14.0937500000,1,-0.2971496880,,,
14.1093750000,1,-0.3971405029,,,
14.1250000000,1,-0.6512299180,,,
14.1406250000,1,-1.0165859461,,,
14.1562500000,1,-1.4028780460,,,
14.1718750000,1,-1.7212979794,,,
14.1875000000,1,-1.9162449837,,,
14.2031250000,1,-1.9647370577,,,
14.2187500000,1,-1.8940889835,,,
14.2343750000,1,-1.7348330021,,,
14.2500000000,1,-1.5523530245,,,
14.2656250000,1,-1.4041290283,,,
14.2812500000,1,-1.3304899931,,,
14.2968750000,1,-1.3274990320,,,
14.3125000000,1,-1.3423919678,,,
14.3281250000,1,-1.2965389490,,,
14.3437500000,1,-1.1285099983,,,
14.3593750000,1,-0.8479918838,,,
14.3750000000,1,-0.5327147841,,,
14.3906250000,1,-0.2879028022,,,
14.4062500000,1,-0.1848755032,,,
14.4218750000,1,-0.2055511028,,,
14.4375000000,1,-0.2699584961,,,
14.4531250000,1,-0.2752074897,,,
14.4687500000,1,-0.1735839993,,,
14.4843750000,1,0.0234985407,,,
14.5000000000,1,0.2151183933,,,
14.5156250000,1,0.2937316895,,,
14.5312500000,1,0.1994629055,,,
14.5468750000,1,-0.0590362512,,,
14.5625000000,1,-0.3723754883,,,
14.5781250000,1,-0.5936737061,,,
14.5937500000,1,-0.5746306777,,,
14.6093750000,1,-0.2570190132,,,
14.6250000000,1,0.3075866997,,,
14.6406250000,1,0.9734191895,,,
14.6562500000,1,1.5406650305,,,
14.6718750000,1,1.8362879753,,,
14.6875000000,1,1.7676700354,,,
14.7031250000,1,1.3718719482,,,
14.7187500000,1,0.7706298828,,,
14.7343750000,1,0.1504669040,,,
14.7500000000,1,-0.3317261040,,,
14.7656250000,1,-0.5782927871,,,
14.7812500000,1,-0.5829772949,,,
14.7968750000,1,-0.3878783882,,,
14.8125000000,1,-0.0736541674,,,
14.8281250000,1,0.2677155137,,,
14.8437500000,1,0.5533142090,,,
14.8593750000,1,0.7062683105,,,
14.8750000000,1,0.6796569824,,,
14.8906250000,1,0.4567261040,,,
14.9062500000,1,0.1071320027,,,
14.9218750000,1,-0.2410126030,,,
14.9375000000,1,-0.4133911133,,,
14.9531250000,1,-0.2793579102,,,
14.9687500000,1,0.1661376953,,,
14.9843750000,1,0.8055266738,,,
15.0000000000,1,1.4071040154,,,
15.0156250000,1,1.7522280216,,,
15.0312500000,1,1.7431340218,,,
15.0468750000,1,1.4322509766,,,
15.0625000000,1,0.9920958877,,,
15.0781250000,1,0.6157379150,,,
15.0937500000,1,0.4086304009,,,
15.1093750000,1,0.3526917100,,,
15.1250000000,1,0.3569793999,,,
15.1406250000,1,0.3293151855,,,
15.1562500000,1,0.2518616021,,,
15.1718750000,1,0.1744232029,,,
15.1875000000,1,0.1819916070,,,
15.2031250000,1,0.3055725098,,,
15.2187500000,1,0.5090789795,,,
15.2343750000,1,0.7002257705,,,
15.2500000000,1,0.7841796875,,,
15.2656250000,1,0.7540435791,,,
15.2812500000,1,0.6647338867,,,
15.2968750000,1,0.6175231934,,,
15.3125000000,1,0.6754302979,,,
15.3281250000,1,0.8088684082,,,
15.3437500000,1,0.8977202773,,,
15.3593750000,1,0.8101196289,,,
15.3750000000,1,0.4824523926,,,
15.3906250000,1,-0.0403442383,,,
15.4062500000,1,-0.5964965820,,,
15.4218750000,1,-1.0102080107,,,
15.4375000000,1,-1.1429439783,,,
15.4531250000,1,-0.9782410264,,,
15.4687500000,1,-0.5975341797,,,
15.4843750000,1,-0.1455077976,,,
15.5000000000,1,0.2478484958,,,
15.5156250000,1,0.4943237007,,,
15.5312500000,1,0.5611876845,,,
15.5468750000,1,0.4679870903,,,
15.5625000000,1,0.2462006062,,,
15.5781250000,1,-0.0284423791,,,
15.5937500000,1,-0.2742767036,,,
15.6093750000,1,-0.4138031006,,,
15.6250000000,1,-0.4181061089,,,
15.6406250000,1,-0.3237609863,,,
15.6562500000,1,-0.2185821980,,,
15.6718750000,1,-0.2069855034,,,
15.6875000000,1,-0.3299713135,,,
15.7031250000,1,-0.5608214736,,,
15.7187500000,1,-0.7968750000,,,
15.7343750000,1,-0.9167633057,,,
15.7500000000,1,-0.8518065810,,,
15.7656250000,1,-0.5916748047,,,
15.7812500000,1,-0.1900330037,,,
15.7968750000,1,0.2499846965,,,
15.8125000000,1,0.6159973145,,,
15.8281250000,1,0.8331450820,,,
15.8437500000,1,0.8549957275,,,
15.8593750000,1,0.7059020996,,,
15.8750000000,1,0.4479370117,,,
15.8906250000,1,0.1729279011,,,
15.9062500000,1,-0.0433959998,,,
15.9218750000,1,-0.1694640964,,,
15.9375000000,1,-0.2129974067,,,
15.9531250000,1,-0.2254790962,,,
15.9687500000,1,-0.2402801961,,,
15.9843750000,1,-0.2852019966,,,
16.0000000000,2,-0.3437195122,,,
16.0156250000,2,-0.3892365098,,,
16.0312500000,2,-0.3956756890,,,
16.0468750000,2,-0.3446807861,,,
16.0625000000,2,-0.2490233928,,,
16.0781250000,2,-0.1212920994,,,
16.0937500000,2,0.0173645001,,,
16.1093750000,2,0.1322478950,,,
16.1250000000,2,0.1641692966,,,
16.1406250000,2,0.0684356689,,,
16.1562500000,2,-0.1726837009,,,
16.1718750000,2,-0.5005341172,,,
16.1875000000,2,-0.8049622178,,,
16.2031250000,2,-0.9651337266,,,
16.2187500000,2,-0.9143524170,,,
16.2343750000,2,-0.6639404297,,,
16.2500000000,2,-0.3032532036,,,
16.2656250000,2,0.0538635291,,,
16.2812500000,2,0.3266448975,,,
16.2968750000,2,0.4972687066,,,
16.3125000000,2,0.5955048203,,,
16.3281250000,2,0.6730194092,,,
16.3437500000,2,0.7451171875,,,
16.3593750000,2,0.8096923828,,,
16.3750000000,2,0.8418273926,,,
16.3906250000,2,0.8395537734,,,
16.4062500000,2,0.8274840713,,,
16.4218750000,2,0.8247222900,,,
16.4375000000,2,0.8347930908,,,
16.4531250000,2,0.8248900771,,,
16.4687500000,2,0.7593079209,,,
16.4843750000,2,0.6296538711,,,
16.5000000000,2,0.4723052979,,,
16.5156250000,2,0.3365021050,,,
16.5312500000,2,0.2466277927,,,
16.5468750000,2,0.1884308010,,,
16.5625000000,2,0.0975341797,,,
16.5781250000,2,-0.0968933105,,,
16.5937500000,2,-0.4084320068,,,
16.6093750000,2,-0.7898406982,,,
16.6250000000,2,-1.1480259895,,,
16.6406250000,2,-1.3662259579,,,
16.6562500000,2,-1.3788449764,,,
16.6718750000,2,-1.1916049719,,,
16.6875000000,2,-0.8875579834,,,
16.7031250000,2,-0.5994873047,,,
16.7187500000,2,-0.4430541992,,,
16.7343750000,2,-0.4749602973,,,
16.7500000000,2,-0.6772766113,,,
16.7656250000,2,-0.9643250108,,,
16.7812500000,2,-1.2310179472,,,
16.7968750000,2,-1.4047390223,,,
16.8125000000,2,-1.4541629553,,,
16.8281250000,2,-1.3731839657,,,
16.8437500000,2,-1.1838229895,,,
16.8593750000,2,-0.8941956162,,,
16.8750000000,2,-0.5281372070,,,
16.8906250000,2,-0.1467285007,,,
16.9062500000,2,0.1686401069,,,
16.9218750000,2,0.3391875923,,,
16.9375000000,2,0.3464660943,,,
16.9531250000,2,0.2473144978,,,
16.9687500000,2,0.1453704983,,,
16.9843750000,2,0.1271820068,,,
17.0000000000,2,0.1954956055,,,
17.0156250000,2,0.2627258003,,,
17.0312500000,2,0.2142333984,,,
17.0468750000,2,-0.0048217769,,,
17.0625000000,2,-0.3235167861,,,
17.0781250000,2,-0.5856627822,,,
17.0937500000,2,-0.6244812012,,,
17.1093750000,2,-0.3637084961,,,
17.1250000000,2,0.1242370978,,,
17.1406250000,2,0.6599578857,,,
17.1562500000,2,1.0569460392,,,
17.1718750000,2,1.2239689827,,,
17.1875000000,2,1.2052459717,,,
17.2031250000,2,1.1398160458,,,
17.2187500000,2,1.1630100012,,,
17.2343750000,2,1.3133239746,,,
17.2500000000,2,1.4880069494,,,
17.2656250000,2,1.5150450468,,,
17.2812500000,2,1.2553559542,,,
17.2968750000,2,0.7018433213,,,
17.3125000000,2,0.0229492206,,,
17.3281250000,2,-0.5023040771,,,
17.3437500000,2,-0.6325531006,,,
17.3593750000,2,-0.2799377143,,,
17.3750000000,2,0.4417419136,,,
17.3906250000,2,1.2760009766,,,
17.4062500000,2,1.9574129581,,,
17.4218750000,2,2.3294980526,,,
17.4375000000,2,2.3986210823,,,
17.4531250000,2,2.2707979679,,,
17.4687500000,2,2.0603790283,,,
17.4843750000,2,1.8151550293,,,
17.5000000000,2,1.5058900118,,,
17.5156250000,2,1.0786590576,,,
17.5312500000,2,0.5209655762,,,
17.5468750000,2,-0.1086426005,,,
17.5625000000,2,-0.6873015761,,,
17.5781250000,2,-1.1070100069,,,
17.5937500000,2,-1.3078160286,,,
17.6093750000,2,-1.3143769503,,,
17.6250000000,2,-1.1961979866,,,
17.6406250000,2,-1.0418089628,,,
17.6562500000,2,-0.9042053223,,,
17.6718750000,2,-0.7959290147,,,
17.6875000000,2,-0.6986083984,,,
17.7031250000,2,-0.6091461182,,,
17.7187500000,2,-0.5431975722,,,
17.7343750000,2,-0.5377197266,,,
17.7500000000,2,-0.6371306777,,,
17.7656250000,2,-0.8446655273,,,
17.7812500000,2,-1.1118930578,,,
17.7968750000,2,-1.3525999784,,,
17.8125000000,2,-1.4763640165,,,
17.8281250000,2,-1.4424899817,,,
17.8437500000,2,-1.2742769718,,,
17.8593750000,2,-1.0520479679,,,
17.8750000000,2,-0.8585662842,,,
17.8906250000,2,-0.7424926758,,,
17.9062500000,2,-0.6878203750,,,
17.9218750000,2,-0.6417694092,,,
17.9375000000,2,-0.5446472168,,,
17.9531250000,2,-0.3662109077,,,
17.9687500000,2,-0.1161041036,,,
17.9843750000,2,0.1719208062,,,
18.0000000000,2,0.4647063911,,,
18.0156250000,2,0.7431334853,,,
18.0312500000,2,0.9908447266,,,
18.0468750000,2,1.1827850342,,,
18.0625000000,2,1.2844090462,,,
18.0781250000,2,1.2611850500,,,
18.0937500000,2,1.1132199764,,,
18.1093750000,2,0.8750609756,,,
18.1250000000,2,0.6000214219,,,
18.1406250000,2,0.3413848877,,,
18.1562500000,2,0.1300200969,,,
18.1718750000,2,-0.0342559814,,,
18.1875000000,2,-0.1712494045,,,
18.2031250000,2,-0.2931213081,,,
18.2187500000,2,-0.3956756890,,,
18.2343750000,2,-0.4532012939,,,
18.2500000000,2,-0.4450072944,,,
18.2656250000,2,-0.3863982856,,,
18.2812500000,2,-0.3081359863,,,
18.2968750000,2,-0.2531433105,,,
18.3125000000,2,-0.2356873006,,,
18.3281250000,2,-0.2505646050,,,
18.3437500000,2,-0.2688292861,,,
18.3593750000,2,-0.2692565918,,,
18.3750000000,2,-0.2366486043,,,
18.3906250000,2,-0.1703339070,,,
18.4062500000,2,-0.0740051270,,,
18.4218750000,2,0.0353241004,,,
18.4375000000,2,0.1220550984,,,
18.4531250000,2,0.1482543945,,,
18.4687500000,2,0.0914916992,,,
18.4843750000,2,-0.0327758789,,,
18.5000000000,2,-0.1808166951,,,
18.5156250000,2,-0.3025512993,,,
18.5312500000,2,-0.3722076118,,,
18.5468750000,2,-0.3758544922,,,
18.5625000000,2,-0.3184356987,,,
18.5781250000,2,-0.2019806057,,,
18.5937500000,2,-0.0433959998,,,
18.6093750000,2,0.1330413967,,,
18.6250000000,2,0.2815856934,,,
18.6406250000,2,0.3406066895,,,
18.6562500000,2,0.2582702935,,,
18.6718750000,2,0.0354156494,,,
18.6875000000,2,-0.2778168023,,,
18.7031250000,2,-0.5748748779,,,
18.7187500000,2,-0.7364501953,,,
18.7343750000,2,-0.6762390137,,,
18.7500000000,2,-0.3729094863,,,
18.7656250000,2,0.1121368036,,,
18.7812500000,2,0.6528778076,,,
18.7968750000,2,1.0998079777,,,
18.8125000000,2,1.3359830379,,,
18.8281250000,2,1.3253630400,,,
18.8437500000,2,1.1170350313,,,
18.8593750000,2,0.8188933730,,,
18.8750000000,2,0.5288391113,,,
18.8906250000,2,0.2971039116,,,
18.9062500000,2,0.1103515998,,,
18.9218750000,2,-0.0645904467,,,
18.9375000000,2,-0.2349091023,,,
18.9531250000,2,-0.3669891059,,,
18.9687500000,2,-0.4126586914,,,
18.9843750000,2,-0.3734894097,,,
19.0000000000,2,-0.3095551133,,,
19.0156250000,2,-0.3110961914,,,
19.0312500000,2,-0.4348145127,,,
19.0468750000,2,-0.6536102295,,,
19.0625000000,2,-0.8789063096,,,
19.0781250000,2,-0.9945220947,,,
19.0937500000,2,-0.9388427734,,,
19.1093750000,2,-0.7106934190,,,
19.1250000000,2,-0.3594208062,,,
19.1406250000,2,0.0523529090,,,
19.1562500000,2,0.4569396973,,,
19.1718750000,2,0.7915039063,,,
19.1875000000,2,0.9824523926,,,
19.2031250000,2,0.9727783203,,,
19.2187500000,2,0.7463530898,,,
19.2343750000,2,0.3480376899,,,
19.2500000000,2,-0.1290435940,,,
19.2656250000,2,-0.5795134902,,,
19.2812500000,2,-0.9098052979,,,
19.2968750000,2,-1.0611720085,,,
19.3125000000,2,-1.0190429688,,,
19.3281250000,2,-0.8018950820,,,
19.3437500000,2,-0.4575499892,,,
19.3593750000,2,-0.0539550819,,,
19.3750000000,2,0.3190002143,,,
19.3906250000,2,0.5746154785,,,
19.4062500000,2,0.6621398926,,,
19.4218750000,2,0.5904998779,,,
19.4375000000,2,0.4418182075,,,
19.4531250000,2,0.3036194146,,,
19.4687500000,2,0.2477111965,,,
19.4843750000,2,0.2704468071,,,
19.5000000000,2,0.3187865913,,,
19.5156250000,2,0.3094635010,,,
19.5312500000,2,0.1900787055,,,
19.5468750000,2,-0.0372009315,,,
19.5625000000,2,-0.3060455024,,,
19.5781250000,2,-0.5148162842,,,
19.5937500000,2,-0.5823364258,,,
19.6093750000,2,-0.4621734917,,,
19.6250000000,2,-0.1688385010,,,
19.6406250000,2,0.2300720066,,,
19.6562500000,2,0.6547852159,,,
19.6718750000,2,1.0399320126,,,
19.6875000000,2,1.3153840303,,,
19.7031250000,2,1.4337919950,,,
19.7187500000,2,1.3439329863,,,
19.7343750000,2,1.0245209932,,,
19.7500000000,2,0.5032958984,,,
19.7656250000,2,-0.1359100044,,,
19.7812500000,2,-0.7557830811,,,
19.7968750000,2,-1.2028050423,,,
19.8125000000,2,-1.3745419979,,,
19.8281250000,2,-1.2599790096,,,
19.8437500000,2,-0.9528350830,,,
19.8593750000,2,-0.6134490967,,,
19.8750000000,2,-0.3951416016,,,
19.8906250000,2,-0.3762359917,,,
19.9062500000,2,-0.5324707031,,,
19.9218750000,2,-0.7707672119,,,
19.9375000000,2,-0.9524536133,,,
19.9531250000,2,-0.9910277724,,,
19.9687500000,2,-0.8745880127,,,
19.9843750000,2,-0.6740570068,,,
20.0000000000,2,-0.5046538711,,,
20.0156250000,2,-0.4639587104,,,
20.0312500000,2,-0.5671691895,,,
20.0468750000,2,-0.7478333116,,,
20.0625000000,2,-0.8907775879,,,
20.0781250000,2,-0.9181519151,,,
20.0937500000,2,-0.8296508789,,,
20.1093750000,2,-0.6953430176,,,
20.1250000000,2,-0.6004791260,,,
20.1406250000,2,-0.5773162842,,,
20.1562500000,2,-0.5680236816,,,
20.1718750000,2,-0.4566498101,,,
20.1875000000,2,-0.1637115031,,,
20.2031250000,2,0.3110809028,,,
20.2187500000,2,0.8623198867,,,
20.2343750000,2,1.3424680233,,,
20.2500000000,2,1.6424410343,,,
20.2656250000,2,1.7541500330,,,
20.2812500000,2,1.7454680204,,,
20.2968750000,2,1.7172390223,,,
20.3125000000,2,1.7109990120,,,
20.3281250000,2,1.6873630285,,,
20.3437500000,2,1.5511169434,,,
20.3593750000,2,1.2170259953,,,
20.3750000000,2,0.6865692139,,,
20.3906250000,2,0.0478515588,,,
20.4062500000,2,-0.5408020020,,,
20.4218750000,2,-0.9359436035,,,
20.4375000000,2,-1.0470429659,,,
20.4531250000,2,-0.8686981201,,,
20.4687500000,2,-0.4693908989,,,
20.4843750000,2,0.0566864014,,,
20.5000000000,2,0.6048889160,,,
20.5156250000,2,1.0824739933,,,
20.5312500000,2,1.4079129696,,,
20.5468750000,2,1.5152130127,,,
20.5625000000,2,1.3676149845,,,
20.5781250000,2,0.9965056777,,,
20.5937500000,2,0.5035706162,,,
20.6093750000,2,0.0412902795,,,
20.6250000000,2,-0.2546539009,,,
20.6406250000,2,-0.3320159912,,,
20.6562500000,2,-0.2401123047,,,
20.6718750000,2,-0.0873413086,,,
20.6875000000,2,0.0229797401,,,
20.7031250000,2,0.0446929894,,,
20.7187500000,2,0.0090179443,,,
20.7343750000,2,-0.0268249493,,,
20.7500000000,2,-0.0289764404,,,
20.7656250000,2,0.0049896240,,,
20.7812500000,2,0.0472259484,,,
20.7968750000,2,0.0795440674,,,
20.8125000000,2,0.0939941406,,,
20.8281250000,2,0.0787963867,,,
20.8437500000,2,0.0140228299,,,
20.8593750000,2,-0.1244812012,,,
20.8750000000,2,-0.3249207139,,,
20.8906250000,2,-0.5429993272,,,
20.9062500000,2,-0.6972197890,,,
20.9218750000,2,-0.7340239882,,,
20.9375000000,2,-0.6641998291,,,
20.9531250000,2,-0.5570220947,,,
20.9687500000,2,-0.5128632188,,,
20.9843750000,2,-0.5782470703,,,
21.0000000000,2,-0.7197875977,,,
21.0156250000,2,-0.8572692871,,,
21.0312500000,2,-0.8956450820,,,
21.0468750000,2,-0.7976074219,,,
21.0625000000,2,-0.5892028809,,,
21.0781250000,2,-0.3295898139,,,
21.0937500000,2,-0.0844726637,,,
21.1093750000,2,0.0863952637,,,
21.1250000000,2,0.1381378025,,,
21.1406250000,2,0.0515899695,,,
21.1562500000,2,-0.1868133992,,,
21.1718750000,2,-0.5168303847,,,
21.1875000000,2,-0.8370360732,,,
21.2031250000,2,-1.0257719755,,,
21.2187500000,2,-0.9893035889,,,
21.2343750000,2,-0.6945800781,,,
21.2500000000,2,-0.2038726956,,,
21.2656250000,2,0.3588714898,,,
21.2812500000,2,0.8375396729,,,
21.2968750000,2,1.0922850370,,,
21.3125000000,2,1.0554050207,,,
21.3281250000,2,0.7529907227,,,
21.3437500000,2,0.3158417046,,,
21.3593750000,2,-0.0602416992,,,
21.3750000000,2,-0.1916199028,,,
21.3906250000,2,-0.0057373052,,,
21.4062500000,2,0.4181671143,,,
21.4218750000,2,0.8831635118,,,
21.4375000000,2,1.1757969856,,,
21.4531250000,2,1.1829220057,,,
21.4687500000,2,0.9403076172,,,
21.4843750000,2,0.5755004883,,,
21.5000000000,2,0.2418670952,,,
21.5156250000,2,0.0068969731,,,
21.5312500000,2,-0.1206512004,,,
21.5468750000,2,-0.1529235989,,,
21.5625000000,2,-0.0786590576,,,
21.5781250000,2,0.1460265964,,,
21.5937500000,2,0.5442963243,,,
21.6093750000,2,1.0739749670,,,
21.6250000000,2,1.6024019718,,,
21.6406250000,2,1.9821619987,,,
21.6562500000,2,2.1083829403,,,
21.6718750000,2,1.9920500517,,,
21.6875000000,2,1.7168120146,,,
21.7031250000,2,1.3818210363,,,
21.7187500000,2,1.0439610481,,,
21.7343750000,2,0.6981201172,,,
21.7500000000,2,0.3069610894,,,
21.7656250000,2,-0.1518554986,,,
21.7812500000,2,-0.6611328125,,,
21.7968750000,2,-1.1677089930,,,
21.8125000000,2,-1.6130980253,,,
21.8281250000,2,-1.9402309656,,,
21.8437500000,2,-2.1195220947,,,
21.8593750000,2,-2.1562349796,,,
21.8750000000,2,-2.0745849609,,,
21.8906250000,2,-1.9171299934,,,
21.9062500000,2,-1.7203060389,,,
21.9218750000,2,-1.5037230253,,,
21.9375000000,2,-1.2622380257,,,
21.9531250000,2,-0.9840239882,,,
21.9687500000,2,-0.6843872070,,,
21.9843750000,2,-0.4086760879,,,
22.0000000000,2,-0.2118224949,,,
22.0156250000,2,-0.1493072957,,,
22.0312500000,2,-0.2172089070,,,
22.0468750000,2,-0.3624573052,,,
22.0625000000,2,-0.4975127876,,,
22.0781250000,2,-0.5385437012,,,
22.0937500000,2,-0.4486542046,,,
22.1093750000,2,-0.2329407036,,,
22.1250000000,2,0.0678863525,,,
22.1406250000,2,0.3768311143,,,
22.1562500000,2,0.6134337783,,,
22.1718750000,2,0.7026367188,,,
22.1875000000,2,0.5949707031,,,
22.2031250000,2,0.2973937988,,,
22.2187500000,2,-0.1103058010,,,
22.2343750000,2,-0.4965972900,,,
22.2500000000,2,-0.7164763808,,,
22.2656250000,2,-0.6780853271,,,
22.2812500000,2,-0.3736267090,,,
22.2968750000,2,0.1135405973,,,
22.3125000000,2,0.6259918213,,,
22.3281250000,2,1.0018769503,,,
22.3437500000,2,1.1268310547,,,
22.3593750000,2,0.9582061768,,,
22.3750000000,2,0.5532990098,,,
22.3906250000,2,0.0270996094,,,
22.4062500000,2,-0.4618529975,,,
22.4218750000,2,-0.7734221816,,,
22.4375000000,2,-0.8318787217,,,
22.4531250000,2,-0.6575164795,,,
22.4687500000,2,-0.3652190864,,,
22.4843750000,2,-0.0998992920,,,
22.5000000000,2,0.0316619910,,,
22.5156250000,2,0.0238037091,,,
22.5312500000,2,-0.0346832313,,,
22.5468750000,2,-0.0276947003,,,
22.5625000000,2,0.1288451999,,,
22.5781250000,2,0.4095917046,,,
22.5937500000,2,0.6964569092,,,
22.6093750000,2,0.8506011963,,,
22.6250000000,2,0.7894592285,,,
22.6406250000,2,0.5412750244,,,
22.6562500000,2,0.2316284031,,,
22.6718750000,2,-0.0101470901,,,
22.6875000000,2,-0.1146544963,,,
22.7031250000,2,-0.1178283989,,,
22.7187500000,2,-0.1254577935,,,
22.7343750000,2,-0.2294463962,,,
22.7500000000,2,-0.4482573867,,,
22.7656250000,2,-0.7359467149,,,
22.7812500000,2,-0.9917144775,,,
22.7968750000,2,-1.1242519617,,,
22.8125000000,2,-1.1023559570,,,
22.8281250000,2,-0.9584655762,,,
22.8437500000,2,-0.7560729980,,,
22.8593750000,2,-0.5757446289,,,
22.8750000000,2,-0.4451903999,,,
22.8906250000,2,-0.3471984863,,,
22.9062500000,2,-0.2402953953,,,
22.9218750000,2,-0.0840454102,,,
22.9375000000,2,0.1387328953,,,
22.9531250000,2,0.4176940918,,,
22.9687500000,2,0.7186737061,,,
22.9843750000,2,1.0038909912,,,
23.0000000000,2,1.2252810001,,,
23.0156250000,2,1.3687590361,,,
23.0312500000,2,1.4063420296,,,
23.0468750000,2,1.3149869442,,,
23.0625000000,2,1.0849759579,,,
23.0781250000,2,0.7191010118,,,
23.0937500000,2,0.2729491889,,,
23.1093750000,2,-0.1353302002,,,
23.1250000000,2,-0.3629761040,,,
23.1406250000,2,-0.2899779975,,,
23.1562500000,2,0.1179198995,,,
23.1718750000,2,0.7557678223,,,
23.1875000000,2,1.4099580050,,,
23.2031250000,2,1.8342590332,,,
23.2187500000,2,1.8573299646,,,
23.2343750000,2,1.4642790556,,,
23.2500000000,2,0.8250885010,,,
23.2656250000,2,0.1972808987,,,
23.2812500000,2,-0.1910552979,,,
23.2968750000,2,-0.2405395955,,,
23.3125000000,2,-0.0237579308,,,
23.3281250000,2,0.2556000054,,,
23.3437500000,2,0.3978118896,,,
23.3593750000,2,0.2792206109,,,
23.3750000000,2,-0.0980987474,,,
23.3906250000,2,-0.6193541884,,,
23.4062500000,2,-1.1199949980,,,
23.4218750000,2,-1.4743800163,,,
23.4375000000,2,-1.6341090202,,,
23.4531250000,2,-1.6254119873,,,
23.4687500000,2,-1.5324250460,,,
23.4843750000,2,-1.4111180305,,,
23.5000000000,2,-1.3001099825,,,
23.5156250000,2,-1.1652679443,,,
23.5312500000,2,-0.9632263184,,,
23.5468750000,2,-0.6701508164,,,
23.5625000000,2,-0.3183594048,,,
23.5781250000,2,-0.0012817380,,,
23.5937500000,2,0.1885222942,,,
23.6093750000,2,0.2048950046,,,
23.6250000000,2,0.0871887207,,,
23.6406250000,2,-0.0673980713,,,
23.6562500000,2,-0.1306304932,,,
23.6718750000,2,-0.0319366492,,,
23.6875000000,2,0.2065735012,,,
23.7031250000,2,0.4915466011,,,
23.7187500000,2,0.7041472793,,,
23.7343750000,2,0.7580872178,,,
23.7500000000,2,0.6363524795,,,
23.7656250000,2,0.3908233941,,,
23.7812500000,2,0.1051483005,,,
23.7968750000,2,-0.1188049018,,,
23.8125000000,2,-0.2007751018,,,
23.8281250000,2,-0.1119536981,,,
23.8437500000,2,0.1246796027,,,
23.8593750000,2,0.4495544136,,,
23.8750000000,2,0.7760620117,,,
23.8906250000,2,1.0186920166,,,
23.9062500000,2,1.1236109734,,,
23.9218750000,2,1.0704189539,,,
23.9375000000,2,0.8739470840,,,
23.9531250000,2,0.5842589736,,,
23.9687500000,2,0.2652130127,,,
23.9843750000,2,0.0056610112,,,
24.0000000000,3,-0.1264954060,,,
24.0156250000,3,-0.1120148003,,,
24.0312500000,3,-0.0075683589,,,
24.0468750000,3,0.0664825365,,,
24.0625000000,3,-0.0191497803,,,
24.0781250000,3,-0.3321380913,,,
24.0937500000,3,-0.7992401123,,,
24.1093750000,3,-1.2320400476,,,
24.1250000000,3,-1.4007569551,,,
24.1406250000,3,-1.1828919649,,,
24.1562500000,3,-0.6327819824,,,
24.1718750000,3,0.0152282696,,,
24.1875000000,3,0.4732207954,,,
24.2031250000,3,0.5538635254,,,
24.2187500000,3,0.2726745903,,,
24.2343750000,3,-0.1775818020,,,
24.2500000000,3,-0.5494689941,,,
24.2656250000,3,-0.6807097793,,,
24.2812500000,3,-0.5794066787,,,
24.2968750000,3,-0.3712768853,,,
24.3125000000,3,-0.2048798054,,,
24.3281250000,3,-0.1558379978,,,
24.3437500000,3,-0.2049866021,,,
24.3593750000,3,-0.2812195122,,,
24.3750000000,3,-0.3364715874,,,
24.3906250000,3,-0.3777923882,,,
24.4062500000,3,-0.4506989121,,,
24.4218750000,3,-0.5711364746,,,
24.4375000000,3,-0.6887360215,,,
24.4531250000,3,-0.6962280273,,,
24.4687500000,3,-0.4982604980,,,
24.4843750000,3,-0.0813751221,,,
24.5000000000,3,0.4540100098,,,
24.5156250000,3,0.9260405898,,,
24.5312500000,3,1.1606899500,,,
24.5468750000,3,1.0707550049,,,
24.5625000000,3,0.6965026855,,,
24.5781250000,3,0.1802062988,,,
24.5937500000,3,-0.2995910943,,,
24.6093750000,3,-0.5961455703,,,
24.6250000000,3,-0.6617125869,,,
24.6406250000,3,-0.5171356201,,,
24.6562500000,3,-0.2468719035,,,
24.6718750000,3,0.0507049598,,,
24.6875000000,3,0.2790375054,,,
24.7031250000,3,0.3572539985,,,
24.7187500000,3,0.2487487942,,,
24.7343750000,3,-0.0238647498,,,
24.7500000000,3,-0.3522185981,,,
24.7656250000,3,-0.5874633789,,,
24.7812500000,3,-0.5630645752,,,
24.7968750000,3,-0.1972808987,,,
24.8125000000,3,0.4771729112,,,
24.8281250000,3,1.3053280115,,,
24.8437500000,3,2.0623629093,,,
24.8593750000,3,2.5461430550,,,
24.8750000000,3,2.6350400448,,,
24.8906250000,3,2.3412020206,,,
24.9062500000,3,1.7888790369,,,
24.9218750000,3,1.1768189669,,,
24.9375000000,3,0.6937407851,,,
24.9531250000,3,0.4640656114,,,
24.9687500000,3,0.5097960830,,,
24.9843750000,3,0.7398223877,,,
25.0000000000,3,1.0057829618,,,
25.0156250000,3,1.1643220186,,,
25.0312500000,3,1.1344449520,,,
25.0468750000,3,0.9162445068,,,
25.0625000000,3,0.5755156875,,,
25.0781250000,3,0.2139434963,,,
25.0937500000,3,-0.0901641771,,,
25.1093750000,3,-0.2783660889,,,
25.1250000000,3,-0.3568572998,,,
25.1406250000,3,-0.3486785889,,,
25.1562500000,3,-0.3075408936,,,
25.1718750000,3,-0.2707672119,,,
25.1875000000,3,-0.2714690864,,,
25.2031250000,3,-0.3227233887,,,
25.2187500000,3,-0.4241180122,,,
25.2343750000,3,-0.5732880235,,,
25.2500000000,3,-0.7580413818,,,
25.2656250000,3,-0.9617310166,,,
25.2812500000,3,-1.1383969784,,,
25.2968750000,3,-1.2180180550,,,
25.3125000000,3,-1.1246800423,,,
25.3281250000,3,-0.8231812119,,,
25.3437500000,3,-0.3635559082,,,
25.3593750000,3,0.1134032980,,,
25.3750000000,3,0.4292603135,,,
25.3906250000,3,0.4437865913,,,
25.4062500000,3,0.1340637058,,,
25.4218750000,3,-0.3780364990,,,
25.4375000000,3,-0.8994445801,,,
25.4531250000,3,-1.2466579676,,,
25.4687500000,3,-1.3346710205,,,
25.4843750000,3,-1.2004389763,,,
25.5000000000,3,-0.9712067246,,,
25.5156250000,3,-0.7867279053,,,
25.5312500000,3,-0.7233123779,,,
25.5468750000,3,-0.7757415771,,,
25.5625000000,3,-0.8675994873,,,
25.5781250000,3,-0.9059296250,,,
25.5937500000,3,-0.8255919814,,,
25.6093750000,3,-0.6159973145,,,
25.6250000000,3,-0.3423309028,,,
25.6406250000,3,-0.1085968018,,,
25.6562500000,3,-0.0388336182,,,
25.6718750000,3,-0.2033233941,,,
25.6875000000,3,-0.5925902724,,,
25.7031250000,3,-1.1086579561,,,
25.7187500000,3,-1.5926209688,,,
25.7343750000,3,-1.8883060217,,,
25.7500000000,3,-1.8977659941,,,
25.7656250000,3,-1.6140749454,,,
25.7812500000,3,-1.1074219942,,,
25.7968750000,3,-0.4716643989,,,
25.8125000000,3,0.2109069973,,,
25.8281250000,3,0.8909760118,,,
25.8437500000,3,1.5453950167,,,
25.8593750000,3,2.1379089355,,,
25.8750000000,3,2.6086270809,,,
25.8906250000,3,2.8679349422,,,
25.9062500000,3,2.8312680721,,,
25.9218750000,3,2.4744260311,,,
25.9375000000,3,1.8570400476,,,
25.9531250000,3,1.1278229952,,,
25.9687500000,3,0.4551849067,,,
25.9843750000,3,-0.0222473107,,,
26.0000000000,3,-0.2490539998,,,
26.0156250000,3,-0.2785033882,,,
26.0312500000,3,-0.2198639065,,,
26.0468750000,3,-0.1835021973,,,
26.0625000000,3,-0.2252501994,,,
26.0781250000,3,-0.3421782851,,,
26.0937500000,3,-0.4906157851,,,
26.1093750000,3,-0.6286774278,,,
26.1250000000,3,-0.7382659912,,,
26.1406250000,3,-0.8197479248,,,
26.1562500000,3,-0.8725128174,,,
26.1718750000,3,-0.8645477295,,,
26.1875000000,3,-0.7556763291,,,
26.2031250000,3,-0.5139464736,,,
26.2187500000,3,-0.1634064019,,,
26.2343750000,3,0.2167510986,,,
26.2500000000,3,0.5066223145,,,
26.2656250000,3,0.6009979248,,,
26.2812500000,3,0.4626922905,,,
26.2968750000,3,0.1588439941,,,
26.3125000000,3,-0.1606750041,,,
26.3281250000,3,-0.3359070122,,,
26.3437500000,3,-0.2501831055,,,
26.3593750000,3,0.0754699707,,,
26.3750000000,3,0.5129852295,,,
26.3906250000,3,0.8754578233,,,
26.4062500000,3,1.0102540255,,,
26.4218750000,3,0.8809357285,,,
26.4375000000,3,0.5649871826,,,
26.4531250000,3,0.2252960056,,,
26.4687500000,3,-0.0009155273,,,
26.4843750000,3,-0.0740661621,,,
26.5000000000,3,-0.0438842811,,,
26.5156250000,3,-0.0175476093,,,
26.5312500000,3,-0.0674133301,,,
26.5468750000,3,-0.1795807034,,,
26.5625000000,3,-0.2675780952,,,
26.5781250000,3,-0.2225341946,,,
26.5937500000,3,0.0023040769,,,
26.6093750000,3,0.3577727973,,,
26.6250000000,3,0.7103424072,,,
26.6406250000,3,0.9035949707,,,
26.6562500000,3,0.8389282227,,,
26.6718750000,3,0.5120543838,,,
26.6875000000,3,0.0014648440,,,
26.7031250000,3,-0.5669097900,,,
26.7187500000,3,-1.0969539881,,,
26.7343750000,3,-1.5255130529,,,
26.7500000000,3,-1.8172149658,,,
26.7656250000,3,-1.9497679472,,,
26.7812500000,3,-1.8877110481,,,
26.7968750000,3,-1.6009980440,,,
26.8125000000,3,-1.1090240479,,,
26.8281250000,3,-0.5134429932,,,
26.8437500000,3,0.0421600305,,,
26.8593750000,3,0.4086151123,,,
26.8750000000,3,0.5127410889,,,
26.8906250000,3,0.3992919922,,,
26.9062500000,3,0.1923218071,,,
26.9218750000,3,0.0544433594,,,
26.9375000000,3,0.0851593018,,,
26.9531250000,3,0.3045043945,,,
26.9687500000,3,0.6421051025,,,
26.9843750000,3,0.9833983779,,,
27.0000000000,3,1.2291109562,,,
27.0156250000,3,1.3010560274,,,
27.0312500000,3,1.1682590246,,,
27.0468750000,3,0.8231201172,,,
27.0625000000,3,0.2976227105,,,
27.0781250000,3,-0.3238067925,,,
27.0937500000,3,-0.9100189209,,,
27.1093750000,3,-1.3095550537,,,
27.1250000000,3,-1.4176330566,,,
27.1406250000,3,-1.2356870174,,,
27.1562500000,3,-0.8794249892,,,
27.1718750000,3,-0.5214843750,,,
27.1875000000,3,-0.3077850044,,,
27.2031250000,3,-0.2699738145,,,
27.2187500000,3,-0.3241882026,,,
27.2343750000,3,-0.3224030137,,,
27.2500000000,3,-0.1670989990,,,
27.2656250000,3,0.1284637004,,,
27.2812500000,3,0.4324950874,,,
27.2968750000,3,0.5796813965,,,
27.3125000000,3,0.4769591987,,,
27.3281250000,3,0.1508331001,,,
27.3437500000,3,-0.2792052925,,,
27.3593750000,3,-0.6657866836,,,
27.3750000000,3,-0.9287108779,,,
27.3906250000,3,-1.0332490206,,,
27.4062500000,3,-0.9816436768,,,
27.4218750000,3,-0.7693787217,,,
27.4375000000,3,-0.3795624077,,,
27.4531250000,3,0.1731873006,,,
27.4687500000,3,0.8005676270,,,
27.4843750000,3,1.3396910429,,,
27.5000000000,3,1.6190030575,,,
27.5156250000,3,1.5372920036,,,
27.5312500000,3,1.1447299719,,,
27.5468750000,3,0.6058959961,,,
27.5625000000,3,0.1571654975,,,
27.5781250000,3,-0.0283355694,,,
27.5937500000,3,0.1127777025,,,
27.6093750000,3,0.4998322129,,,
27.6250000000,3,0.9509583116,,,
27.6406250000,3,1.2655329704,,,
27.6562500000,3,1.2807919979,,,
27.6718750000,3,0.9643402100,,,
27.6875000000,3,0.4131926894,,,
27.7031250000,3,-0.1827545017,,,
27.7187500000,3,-0.6277008057,,,
27.7343750000,3,-0.7710875869,,,
27.7500000000,3,-0.5972136855,,,
27.7656250000,3,-0.1775207967,,,
27.7812500000,3,0.3720856011,,,
27.7968750000,3,0.9083861709,,,
27.8125000000,3,1.3182530403,,,
27.8281250000,3,1.5063480139,,,
27.8437500000,3,1.4197080135,,,
27.8593750000,3,1.0764310360,,,
27.8750000000,3,0.5792542100,,,
27.8906250000,3,0.0991058275,,,
27.9062500000,3,-0.1922301948,,,
27.9218750000,3,-0.2084197998,,,
27.9375000000,3,0.0079345703,,,
27.9531250000,3,0.3068847954,,,
27.9687500000,3,0.5259398818,,,
27.9843750000,3,0.5696105957,,,
28.0000000000,3,0.4539490044,,,
28.0156250000,3,0.2763823867,,,
28.0312500000,3,0.1156463996,,,
28.0468750000,3,-0.0139160203,,,
28.0625000000,3,-0.1398162991,,,
28.0781250000,3,-0.2971039116,,,
28.0937500000,3,-0.4566802979,,,
28.1093750000,3,-0.5513916016,,,
28.1250000000,3,-0.5135651231,,,
28.1406250000,3,-0.3345946968,,,
28.1562500000,3,-0.0946350098,,,
28.1718750000,3,0.0928649902,,,
28.1875000000,3,0.1229401007,,,
28.2031250000,3,-0.0117797898,,,
28.2187500000,3,-0.2565613091,,,
28.2343750000,3,-0.4917145073,,,
28.2500000000,3,-0.6292877197,,,
28.2656250000,3,-0.6416320801,,,
28.2812500000,3,-0.5628662109,,,
28.2968750000,3,-0.4623717964,,,
28.3125000000,3,-0.3971099854,,,
28.3281250000,3,-0.4017181098,,,
28.3437500000,3,-0.4905700982,,,
28.3593750000,3,-0.6556549072,,,
28.3750000000,3,-0.8671875000,,,
28.3906250000,3,-1.0769200325,,,
28.4062500000,3,-1.2358549833,,,
28.4218750000,3,-1.3069460392,,,
28.4375000000,3,-1.2916409969,,,
28.4531250000,3,-1.2237399817,,,
28.4687500000,3,-1.1214449406,,,
28.4843750000,3,-0.9975585938,,,
28.5000000000,3,-0.8397216797,,,
28.5156250000,3,-0.6147460938,,,
28.5312500000,3,-0.3283385932,,,
28.5468750000,3,-0.0256652795,,,
28.5625000000,3,0.2170563042,,,
28.5781250000,3,0.3249053955,,,
28.5937500000,3,0.2880249023,,,
28.6093750000,3,0.1599884033,,,
28.6250000000,3,0.0245819092,,,
28.6406250000,3,-0.0446014404,,,
28.6562500000,3,-0.0314331092,,,
28.6718750000,3,0.0551452599,,,
28.6875000000,3,0.1841735989,,,
28.7031250000,3,0.3415069878,,,
28.7187500000,3,0.5145264268,,,
28.7343750000,3,0.6840819716,,,
28.7500000000,3,0.8346251845,,,
28.7656250000,3,0.9540557861,,,
28.7812500000,3,1.0351870060,,,
28.7968750000,3,1.0844570398,,,
28.8125000000,3,1.0865169764,,,
28.8281250000,3,1.0189670324,,,
28.8437500000,3,0.8461151123,,,
28.8593750000,3,0.5629425049,,,
28.8750000000,3,0.2291260064,,,
28.8906250000,3,-0.0433807410,,,
28.9062500000,3,-0.1517180949,,,
28.9218750000,3,-0.0796203613,,,
28.9375000000,3,0.0889892578,,,
28.9531250000,3,0.2027588040,,,
28.9687500000,3,0.1621246040,,,
28.9843750000,3,-0.0221099891,,,
29.0000000000,3,-0.2187805027,,,
29.0156250000,3,-0.2715302110,,,
29.0312500000,3,-0.1085205004,,,
29.0468750000,3,0.2220305949,,,
29.0625000000,3,0.5795897841,,,
29.0781250000,3,0.8254547119,,,
29.0937500000,3,0.8903656006,,,
29.1093750000,3,0.7991179824,,,
29.1250000000,3,0.6167449951,,,
29.1406250000,3,0.4007262886,,,
29.1562500000,3,0.1728668064,,,
29.1718750000,3,-0.0846557617,,,
29.1875000000,3,-0.3647156060,,,
29.2031250000,3,-0.6318665147,,,
29.2187500000,3,-0.8221892715,,,
29.2343750000,3,-0.8934174180,,,
29.2500000000,3,-0.8215789795,,,
29.2656250000,3,-0.6206665039,,,
29.2812500000,3,-0.3427582085,,,
29.2968750000,3,-0.0514373817,,,
29.3125000000,3,0.1684570014,,,
29.3281250000,3,0.2367859036,,,
29.3437500000,3,0.0996856689,,,
29.3593750000,3,-0.2376862019,,,
29.3750000000,3,-0.6959229112,,,
29.3906250000,3,-1.1321409941,,,
29.4062500000,3,-1.3984830379,,,
29.4218750000,3,-1.4062190056,,,
29.4375000000,3,-1.1660310030,,,
29.4531250000,3,-0.7940216064,,,
29.4687500000,3,-0.4560393989,,,
29.4843750000,3,-0.2955474854,,,
29.5000000000,3,-0.3363952935,,,
29.5156250000,3,-0.5009307861,,,
29.5312500000,3,-0.6430205703,,,
29.5468750000,3,-0.6342009902,,,
29.5625000000,3,-0.4365997016,,,
29.5781250000,3,-0.1168671027,,,
29.5937500000,3,0.1951446980,,,
29.6093750000,3,0.3712157905,,,
29.6250000000,3,0.3355712891,,,
29.6406250000,3,0.0708160400,,,
29.6562500000,3,-0.3760834038,,,
29.6718750000,3,-0.9342194200,,,
29.6875000000,3,-1.5130000114,,,
29.7031250000,3,-2.0027470589,,,
29.7187500000,3,-2.2779541016,,,
29.7343750000,3,-2.2323911190,,,
29.7500000000,3,-1.8144530058,,,
29.7656250000,3,-1.0583800077,,,
29.7812500000,3,-0.1039275974,,,
29.7968750000,3,0.8461455703,,,
29.8125000000,3,1.5913389921,,,
29.8281250000,3,2.0084838867,,,
29.8437500000,3,2.1023559570,,,
29.8593750000,3,1.9754639864,,,
29.8750000000,3,1.7679289579,,,
29.8906250000,3,1.5915369987,,,
29.9062500000,3,1.4834439754,,,
29.9218750000,3,1.4049839973,,,
29.9375000000,3,1.2964630127,,,
29.9531250000,3,1.1295319796,,,
29.9687500000,3,0.9274138808,,,
29.9843750000,3,0.7433167100,,,
30.0000000000,3,0.6234741211,,,
30.0156250000,3,0.5653380752,,,
30.0312500000,3,0.5247191787,,,
30.0468750000,3,0.4380035102,,,
30.0625000000,3,0.2706604004,,,
30.0781250000,3,0.0543060303,,,
30.0937500000,3,-0.1349335015,,,
30.1093750000,3,-0.2147521973,,,
30.1250000000,3,-0.1320953071,,,
30.1406250000,3,0.0932006836,,,
30.1562500000,3,0.3899230957,,,
30.1718750000,3,0.6595001221,,,
30.1875000000,3,0.8002014160,,,
30.2031250000,3,0.7522429824,,,
30.2187500000,3,0.5015106201,,,
30.2343750000,3,0.0803833008,,,
30.2500000000,3,-0.4425812066,,,
30.2656250000,3,-0.9560394287,,,
30.2812500000,3,-1.3409420252,,,
30.2968750000,3,-1.4906009436,,,
30.3125000000,3,-1.3560179472,,,
30.3281250000,3,-0.9823607802,,,
30.3437500000,3,-0.4881438911,,,
30.3593750000,3,-0.0115356399,,,
30.3750000000,3,0.3444365859,,,
30.3906250000,3,0.5458068848,,,
30.4062500000,3,0.6131591797,,,
30.4218750000,3,0.5793762207,,,
30.4375000000,3,0.4497832954,,,
30.4531250000,3,0.2168578953,,,
30.4687500000,3,-0.1015015021,,,
30.4843750000,3,-0.4209595025,,,
30.5000000000,3,-0.6007843018,,,
30.5156250000,3,-0.5357971191,,,
30.5312500000,3,-0.2172698975,,,
30.5468750000,3,0.2324219048,,,
30.5625000000,3,0.6125640869,,,
30.5781250000,3,0.7716217041,,,
30.5937500000,3,0.6895598769,,,
30.6093750000,3,0.4921875000,,,
30.6250000000,3,0.3477782905,,,
30.6406250000,3,0.3478699028,,,
30.6562500000,3,0.4670867920,,,
30.6718750000,3,0.5900725722,,,
30.6875000000,3,0.5956115723,,,
30.7031250000,3,0.4552155137,,,
30.7187500000,3,0.2545013130,,,
30.7343750000,3,0.1145476997,,,
30.7500000000,3,0.1075896993,,,
30.7656250000,3,0.1947326958,,,
30.7812500000,3,0.2568053901,,,
30.7968750000,3,0.1731262058,,,
30.8125000000,3,-0.0760192871,,,
30.8281250000,3,-0.3891296089,,,
30.8437500000,3,-0.6118317246,,,
30.8593750000,3,-0.6234130859,,,
30.8750000000,3,-0.4230194092,,,
30.8906250000,3,-0.1188049018,,,
30.9062500000,3,0.1215668023,,,
30.9218750000,3,0.1793975979,,,
30.9375000000,3,0.0253448505,,,
30.9531250000,3,-0.2640227973,,,
30.9687500000,3,-0.5780487061,,,
30.9843750000,3,-0.8224945068,,,
31.0000000000,3,-0.9327849746,,,
31.0156250000,3,-0.9054718018,,,
31.0312500000,3,-0.7753142715,,,
31.0468750000,3,-0.5933228135,,,
31.0625000000,3,-0.4091491997,,,
31.0781250000,3,-0.2557983100,,,
31.0937500000,3,-0.1363983005,,,
31.1093750000,3,-0.0219573993,,,
31.1250000000,3,0.1169433966,,,
31.1406250000,3,0.2961578071,,,
31.1562500000,3,0.4890593886,,,
31.1718750000,3,0.6443328857,,,
31.1875000000,3,0.7262114882,,,
31.2031250000,3,0.7313079834,,,
31.2187500000,3,0.6993408203,,,
31.2343750000,3,0.6540222168,,,
31.2500000000,3,0.6060333252,,,
31.2656250000,3,0.5260772705,,,
31.2812500000,3,0.3940277100,,,
31.2968750000,3,0.2283782959,,,
31.3125000000,3,0.0834655836,,,
31.3281250000,3,0.0151062002,,,
31.3437500000,3,0.0340728797,,,
31.3593750000,3,0.0803070068,,,
31.3750000000,3,0.0677185133,,,
31.3906250000,3,-0.0448150598,,,
31.4062500000,3,-0.2277985066,,,
31.4218750000,3,-0.3738861084,,,
31.4375000000,3,-0.3919678032,,,
31.4531250000,3,-0.2439423054,,,
31.4687500000,3,0.0136413602,,,
31.4843750000,3,0.2636413872,,,
31.5000000000,3,0.4016875923,,,
31.5156250000,3,0.3787231147,,,
31.5312500000,3,0.2233123928,,,
31.5468750000,3,0.0183258094,,,
31.5625000000,3,-0.1427306980,,,
31.5781250000,3,-0.1990050972,,,
31.5937500000,3,-0.1234894022,,,
31.6093750000,3,0.0473022498,,,
31.6250000000,3,0.2426452935,,,
31.6406250000,3,0.3956908882,,,
31.6562500000,3,0.4595490098,,,
31.6718750000,3,0.4143677056,,,
31.6875000000,3,0.2781676948,,,
31.7031250000,3,0.0722198486,,,
31.7187500000,3,-0.1612548977,,,
31.7343750000,3,-0.3900145888,,,
31.7500000000,3,-0.5803375244,,,
31.7656250000,3,-0.6997833252,,,
31.7812500000,3,-0.7234343886,,,
31.7968750000,3,-0.6539763808,,,
31.8125000000,3,-0.5208129883,,,
31.8281250000,3,-0.3704986870,,,
31.8437500000,3,-0.2506865859,,,
31.8593750000,3,-0.1699219048,,,
31.8750000000,3,-0.1036072001,,,
31.8906250000,3,-0.0136871301,,,
31.9062500000,3,0.1228180006,,,
31.9218750000,3,0.3028258979,,,
31.9375000000,3,0.4886169136,,,
31.9531250000,3,0.6333466172,,,
31.9687500000,3,0.7024840713,,,
31.9843750000,3,0.6763610840,,,
32.0000000000,4,0.5444641113,,,
32.0156250000,4,0.2842712104,,,
32.0312500000,4,-0.1133423001,,,
32.0468750000,4,-0.6362000108,,,
32.0625000000,4,-1.2305599451,,,
32.0781250000,4,-1.8052059412,,,
32.0937500000,4,-2.2419130802,,,
32.1093750000,4,-2.4266200066,,,
32.1250000000,4,-2.3056490421,,,
32.1406250000,4,-1.8961490393,,,
32.1562500000,4,-1.2823029757,,,
32.1718750000,4,-0.6074370742,,,
32.1875000000,4,-0.0209350605,,,
32.2031250000,4,0.3766936958,,,
32.2187500000,4,0.5496063232,,,
32.2343750000,4,0.5385283828,,,
32.2500000000,4,0.4209290147,,,
32.2656250000,4,0.2688598931,,,
32.2812500000,4,0.1235198975,,,
32.2968750000,4,0.0015563960,,,
32.3125000000,4,-0.0792236328,,,
32.3281250000,4,-0.0974731371,,,
32.3437500000,4,-0.0321197510,,,
32.3593750000,4,0.1032257006,,,
32.3750000000,4,0.2430420071,,,
32.3906250000,4,0.2860564888,,,
32.4062500000,4,0.1746674031,,,
32.4218750000,4,-0.0558166504,,,
32.4375000000,4,-0.2778320014,,,
32.4531250000,4,-0.3262633979,,,
32.4687500000,4,-0.1271210015,,,
32.4843750000,4,0.2631377876,,,
32.5000000000,4,0.6739655137,,,
32.5156250000,4,0.9272919297,,,
32.5312500000,4,0.9300690293,,,
32.5468750000,4,0.7172089219,,,
32.5625000000,4,0.4180755913,,,
32.5781250000,4,0.1752624959,,,
32.5937500000,4,0.0703125000,,,
32.6093750000,4,0.1009673998,,,
32.6250000000,4,0.2136535943,,,
32.6406250000,4,0.3283843994,,,
32.6562500000,4,0.3893890083,,,
32.6718750000,4,0.3773804009,,,
32.6875000000,4,0.2980804145,,,
32.7031250000,4,0.1772765964,,,
32.7187500000,4,0.0536804199,,,
32.7343750000,4,-0.0237426795,,,
32.7500000000,4,-0.0093536377,,,
32.7656250000,4,0.1218108982,,,
32.7812500000,4,0.3399811089,,,
32.7968750000,4,0.5768280029,,,
32.8125000000,4,0.7448272705,,,
32.8281250000,4,0.7518615723,,,
32.8437500000,4,0.5663452148,,,
32.8593750000,4,0.2115630955,,,
32.8750000000,4,-0.2214965969,,,
32.8906250000,4,-0.6089478135,,,
32.9062500000,4,-0.8268585205,,,
32.9218750000,4,-0.8130341172,,,
32.9375000000,4,-0.5992736816,,,
32.9531250000,4,-0.2726593018,,,
32.9687500000,4,0.0694122314,,,
32.9843750000,4,0.3728485107,,,
33.0000000000,4,0.6324614882,,,
33.0156250000,4,0.8853455186,,,
33.0312500000,4,1.1394959688,,,
33.0468750000,4,1.3463129997,,,
33.0625000000,4,1.4107669592,,,
33.0781250000,4,1.2445219755,,,
33.0937500000,4,0.8294373155,,,
33.1093750000,4,0.2443847954,,,
33.1250000000,4,-0.3399963081,,,
33.1406250000,4,-0.7490081787,,,
33.1562500000,4,-0.8848876953,,,
33.1718750000,4,-0.7731171250,,,
33.1875000000,4,-0.5245513916,,,
33.2031250000,4,-0.2877502143,,,
33.2187500000,4,-0.1608428955,,,
33.2343750000,4,-0.1700133979,,,
33.2500000000,4,-0.2697143853,,,
33.2656250000,4,-0.3902283013,,,
33.2812500000,4,-0.4878386855,,,
33.2968750000,4,-0.5414428711,,,
33.3125000000,4,-0.5628203750,,,
33.3281250000,4,-0.5630645752,,,
33.3437500000,4,-0.5561981201,,,
33.3593750000,4,-0.5624237061,,,
33.3750000000,4,-0.5968474746,,,
33.3906250000,4,-0.6559448242,,,
33.4062500000,4,-0.6934509277,,,
33.4218750000,4,-0.6309813857,,,
33.4375000000,4,-0.3992156982,,,
33.4531250000,4,0.0068817139,,,
33.4687500000,4,0.4890137017,,,
33.4843750000,4,0.8932495117,,,
33.5000000000,4,1.0594329834,,,
33.5156250000,4,0.9433441162,,,
33.5312500000,4,0.6319426894,,,
33.5468750000,4,0.3149414063,,,
33.5625000000,4,0.1654205024,,,
33.5781250000,4,0.2298430949,,,
33.5937500000,4,0.4103546143,,,
33.6093750000,4,0.5164794922,,,
33.6250000000,4,0.3972930908,,,
33.6406250000,4,0.0403747596,,,
33.6562500000,4,-0.4241028130,,,
33.6718750000,4,-0.8024138808,,,
33.6875000000,4,-0.9421843886,,,
33.7031250000,4,-0.8249207139,,,
33.7187500000,4,-0.5391693115,,,
33.7343750000,4,-0.2483672947,,,
33.7500000000,4,-0.0920562670,,,
33.7656250000,4,-0.1243743971,,,
33.7812500000,4,-0.3009796143,,,
33.7968750000,4,-0.5038146973,,,
33.8125000000,4,-0.6243286133,,,
33.8281250000,4,-0.6009368896,,,
33.8437500000,4,-0.4626922905,,,
33.8593750000,4,-0.3132781982,,,
33.8750000000,4,-0.2639923096,,,
33.8906250000,4,-0.3773193061,,,
33.9062500000,4,-0.6147155762,,,
33.9218750000,4,-0.8459473252,,,
33.9375000000,4,-0.9329528809,,,
33.9531250000,4,-0.8041229248,,,
33.9687500000,4,-0.5142365098,,,
33.9843750000,4,-0.2046967000,,,
34.0000000000,4,-0.0240325909,,,
34.0156250000,4,-0.0313720703,,,
34.0312500000,4,-0.1595612019,,,
34.0468750000,4,-0.2525177002,,,
34.0625000000,4,-0.1500854045,,,
34.0781250000,4,0.2005157024,,,
34.0937500000,4,0.7369080186,,,
34.1093750000,4,1.2985080481,,,
34.1250000000,4,1.7119139433,,,
34.1406250000,4,1.8608700037,,,
34.1562500000,4,1.7306820154,,,
34.1718750000,4,1.3986359835,,,
34.1875000000,4,0.9968566895,,,
34.2031250000,4,0.6625061035,,,
34.2187500000,4,0.4968414009,,,
34.2343750000,4,0.5364379883,,,
34.2500000000,4,0.7501068115,,,
34.2656250000,4,1.0403900146,,,
34.2812500000,4,1.2864069939,,,
34.2968750000,4,1.3857120275,,,
34.3125000000,4,1.2841190100,,,
34.3281250000,4,1.0162659883,,,
34.3437500000,4,0.6596221924,,,
34.3593750000,4,0.3017426133,,,
34.3750000000,4,0.0034332280,,,
34.3906250000,4,-0.2300872952,,,
34.4062500000,4,-0.4318389893,,,
34.4218750000,4,-0.6307982802,,,
34.4375000000,4,-0.8105927110,,,
34.4531250000,4,-0.9157103896,,,
34.4687500000,4,-0.8862305284,,,
34.4843750000,4,-0.7069243789,,,
34.5000000000,4,-0.4375610054,,,
34.5156250000,4,-0.1929320991,,,
34.5312500000,4,-0.0853881836,,,
34.5468750000,4,-0.1548004001,,,
34.5625000000,4,-0.3331145942,,,
34.5781250000,4,-0.4812622070,,,
34.5937500000,4,-0.4831390083,,,
34.6093750000,4,-0.3063201904,,,
34.6250000000,4,-0.0317382813,,,
34.6406250000,4,0.1978912055,,,
34.6562500000,4,0.2693786919,,,
34.6718750000,4,0.1616515964,,,
34.6875000000,4,-0.0386810303,,,
34.7031250000,4,-0.2077637017,,,
34.7187500000,4,-0.2511901855,,,
34.7343750000,4,-0.1640319973,,,
34.7500000000,4,-0.0182647705,,,
34.7656250000,4,0.0872192383,,,
34.7812500000,4,0.1087189019,,,
34.7968750000,4,0.0707702637,,,
34.8125000000,4,0.0336914100,,,
34.8281250000,4,0.0634918213,,,
34.8437500000,4,0.1814423054,,,
34.8593750000,4,0.3632659912,,,
34.8750000000,4,0.5524138808,,,
34.8906250000,4,0.7034301758,,,
34.9062500000,4,0.7734375000,,,
34.9218750000,4,0.7259063721,,,
34.9375000000,4,0.5427855849,,,
34.9531250000,4,0.2350158989,,,
34.9687500000,4,-0.1359405965,,,
34.9843750000,4,-0.4650421143,,,
35.0000000000,4,-0.6450958252,,,
35.0156250000,4,-0.6153107285,,,
35.0312500000,4,-0.4044036865,,,
35.0468750000,4,-0.1252440959,,,
35.0625000000,4,0.0737457275,,,
35.0781250000,4,0.0982360765,,,
35.0937500000,4,-0.0520324707,,,
35.1093750000,4,-0.2884368896,,,
35.1250000000,4,-0.4935607910,,,
35.1406250000,4,-0.6074370742,,,
35.1562500000,4,-0.6505889893,,,
35.1718750000,4,-0.6992949843,,,
35.1875000000,4,-0.8050842285,,,
35.2031250000,4,-0.9538878798,,,
35.2187500000,4,-1.0683289766,,,
35.2343750000,4,-1.0629880428,,,
35.2500000000,4,-0.8997344971,,,
35.2656250000,4,-0.6224213243,,,
35.2812500000,4,-0.3228606880,,,
35.2968750000,4,-0.0792541504,,,
35.3125000000,4,0.0610809289,,,
35.3281250000,4,0.1078033000,,,
35.3437500000,4,0.1199645996,,,
35.3593750000,4,0.1614226997,,,
35.3750000000,4,0.2892914116,,,
35.3906250000,4,0.5293884277,,,
35.4062500000,4,0.8607634902,,,
35.4218750000,4,1.2071839571,,,
35.4375000000,4,1.4722900391,,,
35.4531250000,4,1.5697480440,,,
35.4687500000,4,1.4552149773,,,
35.4843750000,4,1.1635440588,,,
35.5000000000,4,0.7756195068,,,
35.5156250000,4,0.3940429986,,,
35.5312500000,4,0.1027373970,,,
35.5468750000,4,-0.0567932092,,,
35.5625000000,4,-0.0893402100,,,
35.5781250000,4,-0.0191650409,,,
35.5937500000,4,0.1152039021,,,
35.6093750000,4,0.2499084026,,,
35.6250000000,4,0.3214417100,,,
35.6406250000,4,0.2590790093,,,
35.6562500000,4,0.0321350098,,,
35.6718750000,4,-0.3321228027,,,
35.6875000000,4,-0.7490844727,,,
35.7031250000,4,-1.1134489775,,,
35.7187500000,4,-1.3268589973,,,
35.7343750000,4,-1.3460999727,,,
35.7500000000,4,-1.1892240047,,,
35.7656250000,4,-0.9416046143,,,
35.7812500000,4,-0.7180327773,,,
35.7968750000,4,-0.5974121094,,,
35.8125000000,4,-0.5956726074,,,
35.8281250000,4,-0.6428833008,,,
35.8437500000,4,-0.6249237061,,,
35.8593750000,4,-0.4749146104,,,
35.8750000000,4,-0.2248383015,,,
35.8906250000,4,0.0054016109,,,
35.9062500000,4,0.0772857666,,,
35.9218750000,4,-0.0679931566,,,
35.9375000000,4,-0.3542174995,,,
35.9531250000,4,-0.6318665147,,,
35.9687500000,4,-0.7612609863,,,
35.9843750000,4,-0.6934052110,,,
36.0000000000,4,-0.4941253960,,,
36.0156250000,4,-0.2971343994,,,
36.0312500000,4,-0.1892395020,,,
36.0468750000,4,-0.1729125977,,,
36.0625000000,4,-0.1660155952,,,
36.0781250000,4,-0.0922698975,,,
36.0937500000,4,0.0692749023,,,
36.1093750000,4,0.2550812066,,,
36.1250000000,4,0.3703612983,,,
36.1406250000,4,0.3547362983,,,
36.1562500000,4,0.2170258015,,,
36.1718750000,4,0.0317687988,,,
36.1875000000,4,-0.1307220012,,,
36.2031250000,4,-0.2333679050,,,
36.2187500000,4,-0.2857361138,,,
36.2343750000,4,-0.3237304986,,,
36.2500000000,4,-0.3557128906,,,
36.2656250000,4,-0.3568725884,,,
36.2812500000,4,-0.2913208008,,,
36.2968750000,4,-0.1431121975,,,
36.3125000000,4,0.0592651404,,,
36.3281250000,4,0.2355652004,,,
36.3437500000,4,0.3179931939,,,
36.3593750000,4,0.2813110054,,,
36.3750000000,4,0.1776123047,,,
36.3906250000,4,0.1059112996,,,
36.4062500000,4,0.1389465034,,,
36.4218750000,4,0.2716217041,,,
36.4375000000,4,0.4386748970,,,
36.4531250000,4,0.5371093750,,,
36.4687500000,4,0.4869843125,,,
36.4843750000,4,0.2800903022,,,
36.5000000000,4,-0.0272216797,,,
36.5156250000,4,-0.3301086128,,,
36.5312500000,4,-0.5258483887,,,
36.5468750000,4,-0.5523529053,,,
36.5625000000,4,-0.4150084853,,,
36.5781250000,4,-0.1720428020,,,
36.5937500000,4,0.1007537991,,,
36.6093750000,4,0.3636474907,,,
36.6250000000,4,0.6077728271,,,
36.6406250000,4,0.8439940810,,,
36.6562500000,4,1.0616910458,,,
36.6718750000,4,1.2283940315,,,
36.6875000000,4,1.2860109806,,,
36.7031250000,4,1.2175899744,,,
36.7187500000,4,1.0633389950,,,
36.7343750000,4,0.9040070176,,,
36.7500000000,4,0.8021851182,,,
36.7656250000,4,0.7603455186,,,
36.7812500000,4,0.6884155273,,,
36.7968750000,4,0.4475403130,,,
36.8125000000,4,-0.0334625207,,,
36.8281250000,4,-0.7002716064,,,
36.8437500000,4,-1.3597559929,,,
36.8593750000,4,-1.7846219540,,,
36.8750000000,4,-1.8327029943,,,
36.8906250000,4,-1.5239559412,,,
36.9062500000,4,-0.9976196289,,,
36.9218750000,4,-0.4533081055,,,
36.9375000000,4,-0.0335540809,,,
36.9531250000,4,0.1963806003,,,
36.9687500000,4,0.2346190959,,,
36.9843750000,4,0.1119384989,,,
37.0000000000,4,-0.1354523003,,,
37.0156250000,4,-0.4467163086,,,
37.0312500000,4,-0.7434235215,,,
37.0468750000,4,-0.9218750000,,,
37.0625000000,4,-0.9033812881,,,
37.0781250000,4,-0.6742401123,,,
37.0937500000,4,-0.3158569038,,,
37.1093750000,4,0.0294494592,,,
37.1250000000,4,0.2238769978,,,
37.1406250000,4,0.2026520073,,,
37.1562500000,4,0.0032501221,,,
37.1718750000,4,-0.2575835884,,,
37.1875000000,4,-0.4353485107,,,
37.2031250000,4,-0.4260101020,,,
37.2187500000,4,-0.1843872070,,,
37.2343750000,4,0.2636108100,,,
37.2500000000,4,0.8087769151,,,
37.2656250000,4,1.3064880371,,,
37.2812500000,4,1.6190340519,,,
37.2968750000,4,1.6416319609,,,
37.3125000000,4,1.3496400118,,,
37.3281250000,4,0.8122711182,,,
37.3437500000,4,0.1640930027,,,
37.3593750000,4,-0.4155121148,,,
37.3750000000,4,-0.7539978027,,,
37.3906250000,4,-0.7481232285,,,
37.4062500000,4,-0.3861083984,,,
37.4218750000,4,0.2079315037,,,
37.4375000000,4,0.8431702256,,,
37.4531250000,4,1.3253630400,,,
37.4687500000,4,1.5439610481,,,
37.4843750000,4,1.4983979464,,,
37.5000000000,4,1.2816309929,,,
37.5156250000,4,1.0152889490,,,
37.5312500000,4,0.7958679199,,,
37.5468750000,4,0.6461029053,,,
37.5625000000,4,0.5179749131,,,
37.5781250000,4,0.3390044868,,,
37.5937500000,4,0.0670166016,,,
37.6093750000,4,-0.2792815864,,,
37.6250000000,4,-0.6340789795,,,
37.6406250000,4,-0.9123076797,,,
37.6562500000,4,-1.0498659611,,,
37.6718750000,4,-1.0178070068,,,
37.6875000000,4,-0.8165587783,,,
37.7031250000,4,-0.4907378852,,,
37.7187500000,4,-0.1028748006,,,
37.7343750000,4,0.2688140869,,,
37.7500000000,4,0.5448303223,,,
37.7656250000,4,0.6826934814,,,
37.7812500000,4,0.6835021973,,,
37.7968750000,4,0.5978546143,,,
37.8125000000,4,0.4937134087,,,
37.8281250000,4,0.4295043945,,,
37.8437500000,4,0.4226073921,,,
37.8593750000,4,0.4517517090,,,
37.8750000000,4,0.4613952935,,,
37.8906250000,4,0.3928680122,,,
37.9062500000,4,0.2309112996,,,
37.9218750000,4,0.0009613037,,,
37.9375000000,4,-0.2392425984,,,
37.9531250000,4,-0.4355927110,,,
37.9687500000,4,-0.5524138808,,,
37.9843750000,4,-0.5822600722,,,
38.0000000000,4,-0.5276030898,,,
38.0156250000,4,-0.4073638916,,,
38.0312500000,4,-0.2333068997,,,
38.0468750000,4,-0.0292816199,,,
38.0625000000,4,0.1829071045,,,
38.0781250000,4,0.3815917969,,,
38.0937500000,4,0.5425568223,,,
38.1093750000,4,0.6310120225,,,
38.1250000000,4,0.6116486192,,,
38.1406250000,4,0.4542084038,,,
38.1562500000,4,0.1499785930,,,
38.1718750000,4,-0.2620086968,,,
38.1875000000,4,-0.6863402724,,,
38.2031250000,4,-1.0269320011,,,
38.2187500000,4,-1.1942750216,,,
38.2343750000,4,-1.1626739502,,,
38.2500000000,4,-0.9884644151,,,
38.2656250000,4,-0.7790833116,,,
38.2812500000,4,-0.6307982802,,,
38.2968750000,4,-0.5792542100,,,
38.3125000000,4,-0.5764008164,,,
38.3281250000,4,-0.5180664063,,,
38.3437500000,4,-0.3233489990,,,
38.3593750000,4,0.0336456299,,,
38.3750000000,4,0.4668731987,,,
38.3906250000,4,0.8291016221,,,
38.4062500000,4,0.9812468886,,,
38.4218750000,4,0.8449249268,,,
38.4375000000,4,0.4633789063,,,
38.4531250000,4,-0.0360107385,,,
38.4687500000,4,-0.4796906114,,,
38.4843750000,4,-0.7365264893,,,
38.5000000000,4,-0.7566375732,,,
38.5156250000,4,-0.6100769043,,,
38.5312500000,4,-0.3992767036,,,
38.5468750000,4,-0.2317962945,,,
38.5625000000,4,-0.1661987007,,,
38.5781250000,4,-0.2003784031,,,
38.5937500000,4,-0.2865295112,,,
38.6093750000,4,-0.3849639893,,,
38.6250000000,4,-0.4671782851,,,
38.6406250000,4,-0.5216370225,,,
38.6562500000,4,-0.5487061143,,,
38.6718750000,4,-0.5388488770,,,
38.6875000000,4,-0.4575499892,,,
38.7031250000,4,-0.2884826958,,,
38.7187500000,4,-0.0505981408,,,
38.7343750000,4,0.2010039985,,,
38.7500000000,4,0.3757019043,,,
38.7656250000,4,0.3888244927,,,
38.7812500000,4,0.2204131931,,,
38.7968750000,4,-0.0723571777,,,
38.8125000000,4,-0.3699950874,,,
38.8281250000,4,-0.5310059190,,,
38.8437500000,4,-0.4739837945,,,
38.8593750000,4,-0.2009429932,,,
38.8750000000,4,0.1818999946,,,
38.8906250000,4,0.5135344863,,,
38.9062500000,4,0.6756287217,,,
38.9218750000,4,0.6227570176,,,
38.9375000000,4,0.4140777886,,,
38.9531250000,4,0.1558990031,,,
38.9687500000,4,-0.0590515099,,,
38.9843750000,4,-0.2007140964,,,
39.0000000000,4,-0.2845611870,,,
39.0156250000,4,-0.3568268120,,,
39.0312500000,4,-0.4216766059,,,
39.0468750000,4,-0.4707489014,,,
39.0625000000,4,-0.4837799072,,,
39.0781250000,4,-0.4656218886,,,
39.0937500000,4,-0.4255219102,,,
39.1093750000,4,-0.3794861138,,,
39.1250000000,4,-0.3008880913,,,
39.1406250000,4,-0.1314850003,,,
39.1562500000,4,0.1557465047,,,
39.1718750000,4,0.5125275254,,,
39.1875000000,4,0.8167877197,,,
39.2031250000,4,0.9289246202,,,
39.2187500000,4,0.7704926133,,,
39.2343750000,4,0.3872070014,,,
39.2500000000,4,-0.0790710375,,,
39.2656250000,4,-0.4599609077,,,
39.2812500000,4,-0.6540833116,,,
39.2968750000,4,-0.6578978896,,,
39.3125000000,4,-0.5405883789,,,
39.3281250000,4,-0.3686065972,,,
39.3437500000,4,-0.1603699028,,,
39.3593750000,4,0.1101531982,,,
39.3750000000,4,0.4705963135,,,
39.3906250000,4,0.8952025771,,,
39.4062500000,4,1.3067779541,,,
39.4218750000,4,1.6005250216,,,
39.4375000000,4,1.6920009851,,,
39.4531250000,4,1.5718230009,,,
39.4687500000,4,1.2924350500,,,
39.4843750000,4,0.9592133164,,,
39.5000000000,4,0.6680908203,,,
39.5156250000,4,0.4730988145,,,
39.5312500000,4,0.3859100044,,,
39.5468750000,4,0.3534088135,,,
39.5625000000,4,0.3116455078,,,
39.5781250000,4,0.2013092041,,,
39.5937500000,4,0.0214691199,,,
39.6093750000,4,-0.1873016059,,,
39.6250000000,4,-0.3521729112,,,
39.6406250000,4,-0.4036864936,,,
39.6562500000,4,-0.3113707900,,,
39.6718750000,4,-0.1072235033,,,
39.6875000000,4,0.1403502971,,,
39.7031250000,4,0.3637543023,,,
39.7187500000,4,0.5048217773,,,
39.7343750000,4,0.5502777100,,,
39.7500000000,4,0.5168151855,,,
39.7656250000,4,0.4343718886,,,
39.7812500000,4,0.3151398003,,,
39.7968750000,4,0.1697693020,,,
39.8125000000,4,0.0072326660,,,
39.8281250000,4,-0.1463623047,,,
39.8437500000,4,-0.2492980957,,,
39.8593750000,4,-0.2585296929,,,
39.8750000000,4,-0.1624450982,,,
39.8906250000,4,0.0027923579,,,
39.9062500000,4,0.1403045952,,,
39.9218750000,4,0.1419524997,,,
39.9375000000,4,-0.0556488000,,,
39.9531250000,4,-0.4271850884,,,
39.9687500000,4,-0.8571929932,,,
39.9843750000,4,-1.1826319695,,,
40.0000000000,5,-1.2971500158,,,
40.0156250000,5,-1.2137299776,,,
40.0312500000,5,-1.0435940027,,,
40.0468750000,5,-0.9291381836,,,
40.0625000000,5,-0.9399414063,,,
40.0781250000,5,-1.0446319580,,,
40.0937500000,5,-1.1318049431,,,
40.1093750000,5,-1.0914460421,,,
40.1250000000,5,-0.8899993896,,,
40.1406250000,5,-0.5912476182,,,
40.1562500000,5,-0.2943420112,,,
40.1718750000,5,-0.0871887207,,,
40.1875000000,5,-0.0027313230,,,
40.2031250000,5,-0.0103607196,,,
40.2187500000,5,-0.0594177209,,,
40.2343750000,5,-0.1080017015,,,
40.2500000000,5,-0.1377563030,,,
40.2656250000,5,-0.1528014988,,,
40.2812500000,5,-0.1635590047,,,
40.2968750000,5,-0.1849517971,,,
40.3125000000,5,-0.2351531982,,,
40.3281250000,5,-0.3025817871,,,
40.3437500000,5,-0.3493652046,,,
40.3593750000,5,-0.3035278022,,,
40.3750000000,5,-0.1009064019,,,
40.3906250000,5,0.2871246040,,,
40.4062500000,5,0.7851104736,,,
40.4218750000,5,1.2700200081,,,
40.4375000000,5,1.5941619873,,,
40.4531250000,5,1.6539460421,,,
40.4687500000,5,1.4375920296,,,
40.4843750000,5,1.0247960091,,,
40.5000000000,5,0.5446624756,,,
40.5156250000,5,0.1394806057,,,
40.5312500000,5,-0.0991210863,,,
40.5468750000,5,-0.1498565972,,,
40.5625000000,5,-0.0584258996,,,
40.5781250000,5,0.0756072998,,,
40.5937500000,5,0.1570281982,,,
40.6093750000,5,0.1422729045,,,
40.6250000000,5,0.0558166504,,,
40.6406250000,5,-0.0340728797,,,
40.6562500000,5,-0.0579223596,,,
40.6718750000,5,0.0157470703,,,
40.6875000000,5,0.1448058933,,,
40.7031250000,5,0.2577972114,,,
40.7187500000,5,0.3068541884,,,
40.7343750000,5,0.2805939019,,,
40.7500000000,5,0.2248535007,,,
40.7656250000,5,0.1683197021,,,
40.7812500000,5,0.1052246019,,,
40.7968750000,5,-0.0098876953,,,
40.8125000000,5,-0.2202454060,,,
40.8281250000,5,-0.5048217773,,,
40.8437500000,5,-0.7991942763,,,
40.8593750000,5,-1.0228730440,,,
40.8750000000,5,-1.1455539465,,,
40.8906250000,5,-1.1862030029,,,
40.9062500000,5,-1.2019350529,,,
40.9218750000,5,-1.2089999914,,,
40.9375000000,5,-1.1607509851,,,
40.9531250000,5,-0.9788665771,,,
40.9687500000,5,-0.6235504150,,,
40.9843750000,5,-0.1401520073,,,
41.0000000000,5,0.3222351074,,,
41.0156250000,5,0.5824127197,,,
41.0312500000,5,0.5167694092,,,
41.0468750000,5,0.1536712945,,,
41.0625000000,5,-0.3293761909,,,
41.0781250000,5,-0.6918181777,,,
41.0937500000,5,-0.7572327256,,,
41.1093750000,5,-0.4982452095,,,
41.1250000000,5,-0.0442504883,,,
41.1406250000,5,0.4000701904,,,
41.1562500000,5,0.6692352295,,,
41.1718750000,5,0.7141113281,,,
41.1875000000,5,0.5891724229,,,
41.2031250000,5,0.3881531060,,,
41.2187500000,5,0.1998748928,,,
41.2343750000,5,0.0450286902,,,
41.2500000000,5,-0.0650634766,,,
41.2656250000,5,-0.1210938022,,,
41.2812500000,5,-0.0678253174,,,
41.2968750000,5,0.1532288045,,,
41.3125000000,5,0.5532379150,,,
41.3281250000,5,1.0490109921,,,
41.3437500000,5,1.4845429659,,,
41.3593750000,5,1.7035980225,,,
41.3750000000,5,1.6321409941,,,
41.3906250000,5,1.3371579647,,,
41.4062500000,5,0.9517517090,,,
41.4218750000,5,0.6280974746,,,
41.4375000000,5,0.4468078911,,,
41.4531250000,5,0.4205474854,,,
41.4687500000,5,0.5027313232,,,
41.4843750000,5,0.6400908828,,,
41.5000000000,5,0.7877960205,,,
41.5156250000,5,0.9005432129,,,
41.5312500000,5,0.9201049805,,,
41.5468750000,5,0.7811583877,,,
41.5625000000,5,0.4413909912,,,
41.5781250000,5,-0.0619201697,,,
41.5937500000,5,-0.6147003174,,,
41.6093750000,5,-1.0521700382,,,
41.6250000000,5,-1.2204439640,,,
41.6406250000,5,-1.0637819767,,,
41.6562500000,5,-0.6468811035,,,
41.6718750000,5,-0.1266479045,,,
41.6875000000,5,0.3160094917,,,
41.7031250000,5,0.5346984863,,,
41.7187500000,5,0.4701232910,,,
41.7343750000,5,0.1372985989,,,
41.7500000000,5,-0.3709106147,,,
41.7656250000,5,-0.9263153076,,,
41.7812500000,5,-1.3955379725,,,
41.7968750000,5,-1.6824799776,,,
41.8125000000,5,-1.7498929501,,,
41.8281250000,5,-1.6388850212,,,
41.8437500000,5,-1.4120479822,,,
41.8593750000,5,-1.1516269445,,,
41.8750000000,5,-0.9010620117,,,
41.8906250000,5,-0.6607360840,,,
41.9062500000,5,-0.4218902886,,,
41.9218750000,5,-0.1835326999,,,
41.9375000000,5,0.0135803204,,,
41.9531250000,5,0.1244048998,,,
41.9687500000,5,0.1130829006,,,
41.9843750000,5,-0.0157165509,,,
42.0000000000,5,-0.2051085979,,,
42.0156250000,5,-0.3571625054,,,
42.0312500000,5,-0.3939513862,,,
42.0468750000,5,-0.2724457085,,,
42.0625000000,5,-0.0196380597,,,
42.0781250000,5,0.2935791016,,,
42.0937500000,5,0.5749968886,,,
42.1093750000,5,0.7581787109,,,
42.1250000000,5,0.8382720947,,,
42.1406250000,5,0.8474426270,,,
42.1562500000,5,0.8430938721,,,
42.1718750000,5,0.8618010879,,,
42.1875000000,5,0.8966522217,,,
42.2031250000,5,0.8966063857,,,
42.2187500000,5,0.8218535781,,,
42.2343750000,5,0.6667938232,,,
42.2500000000,5,0.4861603081,,,
42.2656250000,5,0.3571014106,,,
42.2812500000,5,0.3275299072,,,
42.2968750000,5,0.3742676079,,,
42.3125000000,5,0.4031372070,,,
42.3281250000,5,0.3023223877,,,
42.3437500000,5,0.0269775409,,,
42.3593750000,5,-0.3908539116,,,
42.3750000000,5,-0.8257598877,,,
42.3906250000,5,-1.1359560490,,,
42.4062500000,5,-1.2249150276,,,
42.4218750000,5,-1.0765990019,,,
42.4375000000,5,-0.7719116211,,,
42.4531250000,5,-0.4473418891,,,
42.4687500000,5,-0.2331847996,,,
42.4843750000,5,-0.2133179009,,,
42.5000000000,5,-0.3973694146,,,
42.5156250000,5,-0.7167816162,,,
42.5312500000,5,-1.0864410400,,,
42.5468750000,5,-1.4327549934,,,
42.5625000000,5,-1.7187349796,,,
42.5781250000,5,-1.9234919548,,,
42.5937500000,5,-2.0214459896,,,
42.6093750000,5,-1.9559019804,,,
42.6250000000,5,-1.6686860323,,,
42.6406250000,5,-1.1350400448,,,
42.6562500000,5,-0.4084472954,,,
42.6718750000,5,0.3541260064,,,
42.6875000000,5,0.9568634033,,,
42.7031250000,5,1.2283480167,,,
42.7187500000,5,1.1326899529,,,
42.7343750000,5,0.7849274278,,,
42.7500000000,5,0.3893584907,,,
42.7656250000,5,0.1341094971,,,
42.7812500000,5,0.1138153002,,,
42.7968750000,5,0.2952117920,,,
42.8125000000,5,0.5699309707,,,
42.8281250000,5,0.8332977295,,,
42.8437500000,5,1.0536500216,,,
42.8593750000,5,1.2478029728,,,
42.8750000000,5,1.4469759464,,,
42.8906250000,5,1.6592409611,,,
42.9062500000,5,1.8269350529,,,
42.9218750000,5,1.8694000244,,,
42.9375000000,5,1.7389069796,,,
42.9531250000,5,1.4365390539,,,
42.9687500000,5,1.0434420109,,,
42.9843750000,5,0.6621245742,,,
43.0000000000,5,0.3748778999,,,
43.0156250000,5,0.2098693997,,,
43.0312500000,5,0.1453247070,,,
43.0468750000,5,0.1403045952,,,
43.0625000000,5,0.1440429986,,,
43.0781250000,5,0.1115112007,,,
43.0937500000,5,0.0115661602,,,
43.1093750000,5,-0.1575928032,,,
43.1250000000,5,-0.3755798042,,,
43.1406250000,5,-0.6025238037,,,
43.1562500000,5,-0.7887877822,,,
43.1718750000,5,-0.8956909180,,,
43.1875000000,5,-0.9361724854,,,
43.2031250000,5,-0.9431304932,,,
43.2187500000,5,-0.9566345215,,,
43.2343750000,5,-0.9967650771,,,
43.2500000000,5,-1.0310820341,,,
43.2656250000,5,-0.9956818223,,,
43.2812500000,5,-0.8253632188,,,
43.2968750000,5,-0.5122222900,,,
43.3125000000,5,-0.1119842976,,,
43.3281250000,5,0.2632293999,,,
43.3437500000,5,0.5087891221,,,
43.3593750000,5,0.5599517822,,,
43.3750000000,5,0.4180297852,,,
43.3906250000,5,0.1537322998,,,
43.4062500000,5,-0.1384429932,,,
43.4218750000,5,-0.3617095947,,,
43.4375000000,5,-0.4440155029,,,
43.4531250000,5,-0.3528747857,,,
43.4687500000,5,-0.0870056227,,,
43.4843750000,5,0.3025208116,,,
43.5000000000,5,0.7353057861,,,
43.5156250000,5,1.0916440487,,,
43.5312500000,5,1.2574009895,,,
43.5468750000,5,1.1712650061,,,
43.5625000000,5,0.8511962891,,,
43.5781250000,5,0.3986206055,,,
43.5937500000,5,-0.0372161902,,,
43.6093750000,5,-0.3279724121,,,
43.6250000000,5,-0.4227294922,,,
43.6406250000,5,-0.3597412109,,,
43.6562500000,5,-0.2369080037,,,
43.6718750000,5,-0.1198730022,,,
43.6875000000,5,-0.0411834717,,,
43.7031250000,5,0.0267791692,,,
43.7187500000,5,0.1329803020,,,
43.7343750000,5,0.2834014893,,,
43.7500000000,5,0.4287567139,,,
43.7656250000,5,0.4888763130,,,
43.7812500000,5,0.4111937881,,,
43.7968750000,5,0.2075500041,,,
43.8125000000,5,-0.0472259484,,,
43.8281250000,5,-0.2456206977,,,
43.8437500000,5,-0.3117980957,,,
43.8593750000,5,-0.2440491021,,,
43.8750000000,5,-0.0889129564,,,
43.8906250000,5,0.0890045166,,,
43.9062500000,5,0.2546539009,,,
43.9218750000,5,0.4096069038,,,
43.9375000000,5,0.5494689941,,,
43.9531250000,5,0.6477050781,,,
43.9687500000,5,0.6522521973,,,
43.9843750000,5,0.4977112114,,,
44.0000000000,5,0.1664581001,,,
44.0156250000,5,-0.2889099121,,,
44.0312500000,5,-0.7706909180,,,
44.0468750000,5,-1.1467740536,,,
44.0625000000,5,-1.3301539421,,,
44.0781250000,5,-1.3009639978,,,
44.0937500000,5,-1.1226500273,,,
44.1093750000,5,-0.9051055908,,,
44.1250000000,5,-0.7457885742,,,
44.1406250000,5,-0.7040100098,,,
44.1562500000,5,-0.7555084229,,,
44.1718750000,5,-0.8127440810,,,
44.1875000000,5,-0.7679901123,,,
44.2031250000,5,-0.5548859239,,,
44.2187500000,5,-0.1787566990,,,
44.2343750000,5,0.2716369927,,,
44.2500000000,5,0.6715393066,,,
44.2656250000,5,0.9224091172,,,
44.2812500000,5,1.0016939640,,,
44.2968750000,5,0.9668427110,,,
44.3125000000,5,0.9075927734,,,
44.3281250000,5,0.9213104248,,,
44.3437500000,5,1.0648189783,,,
44.3593750000,5,1.3323520422,,,
44.3750000000,5,1.6542819738,,,
44.3906250000,5,1.9251099825,,,
44.4062500000,5,2.0377349854,,,
44.4218750000,5,1.9425200224,,,
44.4375000000,5,1.6826319695,,,
44.4531250000,5,1.3655090332,,,
44.4687500000,5,1.1172330379,,,
44.4843750000,5,0.9868621826,,,
44.5000000000,5,0.9201201797,,,
44.5156250000,5,0.7967224121,,,
44.5312500000,5,0.5108489990,,,
44.5468750000,5,0.0709838867,,,
44.5625000000,5,-0.4085541070,,,
44.5781250000,5,-0.7610930800,,,
44.5937500000,5,-0.8852844238,,,
44.6093750000,5,-0.8137360215,,,
44.6250000000,5,-0.6776428223,,,
44.6406250000,5,-0.6194611192,,,
44.6562500000,5,-0.6879578233,,,
44.6718750000,5,-0.8054047227,,,
44.6875000000,5,-0.8198090196,,,
44.7031250000,5,-0.6119995117,,,
44.7187500000,5,-0.1795043945,,,
44.7343750000,5,0.3602752984,,,
44.7500000000,5,0.8251647949,,,
44.7656250000,5,1.0606989861,,,
44.7812500000,5,1.0020749569,,,
44.7968750000,5,0.7120819092,,,
44.8125000000,5,0.3062286079,,,
44.8281250000,5,-0.0957641602,,,
44.8437500000,5,-0.4207763970,,,
44.8593750000,5,-0.6577072144,,,
44.8750000000,5,-0.8263854980,,,
44.8906250000,5,-0.9235001206,,,
44.9062500000,5,-0.9246597290,,,
44.9218750000,5,-0.8099135756,,,
44.9375000000,5,-0.5966948867,,,
44.9531250000,5,-0.3857803047,,,
44.9687500000,5,-0.3118895888,,,
44.9843750000,5,-0.4739455879,,,
45.0000000000,5,-0.8708115220,,,
45.0156250000,5,-1.3782579899,,,
45.0312500000,5,-1.7901539803,,,
45.0468750000,5,-1.9256819487,,,
45.0625000000,5,-1.7101750374,,,
45.0781250000,5,-1.1783679724,,,
45.0937500000,5,-0.4667510986,,,
45.1093750000,5,0.2531966865,,,
45.1250000000,5,0.8361281753,,,
45.1406250000,5,1.1810380220,,,
45.1562500000,5,1.2347340584,,,
45.1718750000,5,0.9996643066,,,
45.1875000000,5,0.5203247070,,,
45.2031250000,5,-0.0851287767,,,
45.2187500000,5,-0.6758803725,,,
45.2343750000,5,-1.1005400419,,,
45.2500000000,5,-1.2590179443,,,
45.2656250000,5,-1.1395189762,,,
45.2812500000,5,-0.8304824829,,,
45.2968750000,5,-0.4748458862,,,
45.3125000000,5,-0.2165222019,,,
45.3281250000,5,-0.1438827962,,,
45.3437500000,5,-0.2682648003,,,
45.3593750000,5,-0.5180664063,,,
45.3750000000,5,-0.7851715088,,,
45.3906250000,5,-0.9522628784,,,
45.4062500000,5,-0.9386749268,,,
45.4218750000,5,-0.7237700820,,,
45.4375000000,5,-0.3359679878,,,
45.4531250000,5,0.1452483982,,,
45.4687500000,5,0.6163558960,,,
45.4843750000,5,0.9515457153,,,
45.5000000000,5,1.0529860258,,,
45.5156250000,5,0.8565062881,,,
45.5312500000,5,0.3914260864,,,
45.5468750000,5,-0.2212371975,,,
45.5625000000,5,-0.7963485718,,,
45.5781250000,5,-1.1478040218,,,
45.5937500000,5,-1.1780170202,,,
45.6093750000,5,-0.9226685166,,,
45.6250000000,5,-0.5268325806,,,
45.6406250000,5,-0.1766204983,,,
45.6562500000,5,-0.0052947998,,,
45.6718750000,5,-0.0243606605,,,
45.6875000000,5,-0.1553574055,,,
45.7031250000,5,-0.2733612061,,,
45.7187500000,5,-0.2970046997,,,
45.7343750000,5,-0.2301636040,,,
45.7500000000,5,-0.1485825032,,,
45.7656250000,5,-0.1379851997,,,
45.7812500000,5,-0.2064362019,,,
45.7968750000,5,-0.2870635986,,,
45.8125000000,5,-0.2542800903,,,
45.8281250000,5,-0.0070266719,,,
45.8437500000,5,0.4394302070,,,
45.8593750000,5,0.9489365220,,,
45.8750000000,5,1.3195879459,,,
45.8906250000,5,1.3949129581,,,
45.9062500000,5,1.1452939510,,,
45.9218750000,5,0.6968383789,,,
45.9375000000,5,0.2711029053,,,
45.9531250000,5,0.0667724609,,,
45.9687500000,5,0.1736298054,,,
45.9843750000,5,0.5239716172,,,
46.0000000000,5,0.9602280259,,,
46.0156250000,5,1.3107219934,,,
46.0312500000,5,1.4694819450,,,
46.0468750000,5,1.4125369787,,,
46.0625000000,5,1.1853489876,,,
46.0781250000,5,0.8550415039,,,
46.0937500000,5,0.4791106880,,,
46.1093750000,5,0.1089935005,,,
46.1250000000,5,-0.2113495022,,,
46.1406250000,5,-0.4459151924,,,
46.1562500000,5,-0.5734481812,,,
46.1718750000,5,-0.5740203857,,,
46.1875000000,5,-0.4434280097,,,
46.2031250000,5,-0.1920319051,,,
46.2187500000,5,0.1447295994,,,
46.2343750000,5,0.5058289170,,,
46.2500000000,5,0.8108367920,,,
46.2656250000,5,0.9895554185,,,
46.2812500000,5,0.9990996718,,,
46.2968750000,5,0.8497467041,,,
46.3125000000,5,0.6019744873,,,
46.3281250000,5,0.3191832900,,,
46.3437500000,5,0.0594024695,,,
46.3593750000,5,-0.1542510986,,,
46.3750000000,5,-0.3299331963,,,
46.3906250000,5,-0.4846039116,,,
46.4062500000,5,-0.6347960830,,,
46.4218750000,5,-0.7921524048,,,
46.4375000000,5,-0.9580153823,,,
46.4531250000,5,-1.1167600155,,,
46.4687500000,5,-1.2322239876,,,
46.4843750000,5,-1.2596280575,,,
46.5000000000,5,-1.1683809757,,,
46.5156250000,5,-0.9709854126,,,
46.5312500000,5,-0.7280501723,,,
46.5468750000,5,-0.5327224731,,,
46.5625000000,5,-0.4528884888,,,
46.5781250000,5,-0.4857482910,,,
46.5937500000,5,-0.5679625869,,,
46.6093750000,5,-0.5909957886,,,
46.6250000000,5,-0.4849930108,,,
46.6406250000,5,-0.2527770996,,,
46.6562500000,5,0.0148696899,,,
46.6718750000,5,0.1950377971,,,
46.6875000000,5,0.1994324028,,,
46.7031250000,5,0.0231475793,,,
46.7187500000,5,-0.2484283000,,,
46.7343750000,5,-0.5087891221,,,
46.7500000000,5,-0.6644287109,,,
46.7656250000,5,-0.6745911241,,,
46.7812500000,5,-0.5487822890,,,
46.7968750000,5,-0.3150101006,,,
46.8125000000,5,-0.0118713398,,,
46.8281250000,5,0.3090820014,,,
46.8437500000,5,0.5658264160,,,
46.8593750000,5,0.6838684082,,,
46.8750000000,5,0.5996245742,,,
46.8906250000,5,0.3286896050,,,
46.9062500000,5,-0.0339813195,,,
46.9218750000,5,-0.3542479873,,,
46.9375000000,5,-0.5172501206,,,
46.9531250000,5,-0.5060729980,,,
46.9687500000,5,-0.3838348091,,,
46.9843750000,5,-0.2551270127,,,
47.0000000000,5,-0.1962738037,,,
47.0156250000,5,-0.2283630073,,,
47.0312500000,5,-0.3072510064,,,
47.0468750000,5,-0.3756408989,,,
47.0625000000,5,-0.4062575996,,,
47.0781250000,5,-0.4130935967,,,
47.0937500000,5,-0.4199065864,,,
47.1093750000,5,-0.4275969863,,,
47.1250000000,5,-0.4262084961,,,
47.1406250000,5,-0.3745880127,,,
47.1562500000,5,-0.2439423054,,,
47.1718750000,5,-0.0303344708,,,
47.1875000000,5,0.2346497029,,,
47.2031250000,5,0.4912567139,,,
47.2187500000,5,0.6996306777,,,
47.2343750000,5,0.8224334717,,,
47.2500000000,5,0.8589171767,,,
47.2656250000,5,0.8326110840,,,
47.2812500000,5,0.8003693223,,,
47.2968750000,5,0.8163604736,,,
47.3125000000,5,0.9151000977,,,
47.3281250000,5,1.0825200081,,,
47.3437500000,5,1.2554019690,,,
47.3593750000,5,1.3713990450,,,
47.3750000000,5,1.3860019445,,,
47.3906250000,5,1.3069310188,,,
47.4062500000,5,1.1770629883,,,
47.4218750000,5,1.0636750460,,,
47.4375000000,5,0.9968261719,,,
47.4531250000,5,0.9513092041,,,
47.4687500000,5,0.8516234756,,,
47.4843750000,5,0.6166381836,,,
47.5000000000,5,0.2179412991,,,
47.5156250000,5,-0.3026123047,,,
47.5312500000,5,-0.8213195801,,,
47.5468750000,5,-1.1872099638,,,
47.5625000000,5,-1.2787090540,,,
47.5781250000,5,-1.0873260498,,,
47.5937500000,5,-0.6923751831,,,
47.6093750000,5,-0.2564086914,,,
47.6250000000,5,0.0592041016,,,
47.6406250000,5,0.1771392971,,,
47.6562500000,5,0.1377716064,,,
47.6718750000,5,0.0633850098,,,
47.6875000000,5,0.0662231371,,,
47.7031250000,5,0.1750030965,,,
47.7187500000,5,0.3068389893,,,
47.7343750000,5,0.3409729004,,,
47.7500000000,5,0.1934356987,,,
47.7656250000,5,-0.1183013991,,,
47.7812500000,5,-0.4809418023,,,
47.7968750000,5,-0.7621002197,,,
47.8125000000,5,-0.8733673096,,,
47.8281250000,5,-0.8101119995,,,
47.8437500000,5,-0.6280974746,,,
47.8593750000,5,-0.4006041884,,,
47.8750000000,5,-0.1822814941,,,
47.8906250000,5,-0.0135498000,,,
47.9062500000,5,0.0638732910,,,
47.9218750000,5,0.0217742901,,,
47.9375000000,5,-0.1386719048,,,
47.9531250000,5,-0.3458710015,,,
47.9687500000,5,-0.4886626899,,,
47.9843750000,5,-0.4636687934,,,
48.0000000000,6,-0.2504119873,,,
48.0156250000,6,0.0595550500,,,
48.0312500000,6,0.3023833930,,,
48.0468750000,6,0.3517150879,,,
48.0625000000,6,0.1927947998,,,
48.0781250000,6,-0.0660247803,,,
48.0937500000,6,-0.2254790962,,,
48.1093750000,6,-0.1466979980,,,
48.1250000000,6,0.1953887939,,,
48.1406250000,6,0.6709136963,,,
48.1562500000,6,1.0736080408,,,
48.1718750000,6,1.2312929630,,,
48.1875000000,6,1.0950930119,,,
48.2031250000,6,0.7660217285,,,
48.2187500000,6,0.4268341064,,,
48.2343750000,6,0.2296448052,,,
48.2500000000,6,0.2362671047,,,
48.2656250000,6,0.3731688857,,,
48.2812500000,6,0.5027465820,,,
48.2968750000,6,0.5115509033,,,
48.3125000000,6,0.3804473877,,,
48.3281250000,6,0.1818542033,,,
48.3437500000,6,0.0328674316,,,
48.3593750000,6,0.0055236821,,,
48.3750000000,6,0.0925598070,,,
48.3906250000,6,0.1882935017,,,
48.4062500000,6,0.1725769043,,,
48.4218750000,6,-0.0078277588,,,
48.4375000000,6,-0.3060913086,,,
48.4531250000,6,-0.5956954956,,,
48.4687500000,6,-0.7592391968,,,
48.4843750000,6,-0.7414780259,,,
48.5000000000,6,-0.5711135864,,,
48.5156250000,6,-0.3290404975,,,
48.5312500000,6,-0.0989532471,,,
48.5468750000,6,0.0636901930,,,
48.5625000000,6,0.1299895942,,,
48.5781250000,6,0.0906219482,,,
48.5937500000,6,-0.0632629395,,,
48.6093750000,6,-0.3378447890,,,
48.6250000000,6,-0.6899871826,,,
48.6406250000,6,-1.0248260498,,,
48.6562500000,6,-1.2122800350,,,
48.6718750000,6,-1.1476969719,,,
48.6875000000,6,-0.8131179810,,,
48.7031250000,6,-0.3128204048,,,
48.7187500000,6,0.1914062947,,,
48.7343750000,6,0.5411223769,,,
48.7500000000,6,0.6877288818,,,
48.7656250000,6,0.6692199707,,,
48.7812500000,6,0.5667572021,,,
48.7968750000,6,0.4353942871,,,
48.8125000000,6,0.2720490098,,,
48.8281250000,6,0.0476226807,,,
48.8437500000,6,-0.2456970066,,,
48.8593750000,6,-0.5549088120,,,
48.8750000000,6,-0.7680664063,,,
48.8906250000,6,-0.7920073867,,,
48.9062500000,6,-0.6050797105,,,
48.9218750000,6,-0.2807922065,,,
48.9375000000,6,0.0404968299,,,
48.9531250000,6,0.2465973049,,,
48.9687500000,6,0.2961578071,,,
48.9843750000,6,0.2384795994,,,
49.0000000000,6,0.1669463962,,,
49.0156250000,6,0.1414642036,,,
49.0312500000,6,0.1804123074,,,
49.0468750000,6,0.2352066040,,,
49.0625000000,6,0.2509459853,,,
49.0781250000,6,0.1878052056,,,
49.0937500000,6,0.0639495775,,,
49.1093750000,6,-0.0724487305,,,
49.1250000000,6,-0.1575469971,,,
49.1406250000,6,-0.1568984985,,,
49.1562500000,6,-0.0979461670,,,
49.1718750000,6,-0.0444412194,,,
49.1875000000,6,-0.0654144287,,,
49.2031250000,6,-0.1832581013,,,
49.2187500000,6,-0.3510895073,,,
49.2343750000,6,-0.4857864082,,,
49.2500000000,6,-0.4976958930,,,
49.2656250000,6,-0.3481521904,,,
49.2812500000,6,-0.0679931566,,,
49.2968750000,6,0.2746352851,,,
49.3125000000,6,0.6142960191,,,
49.3281250000,6,0.8990250230,,,
49.3437500000,6,1.0817569494,,,
49.3593750000,6,1.1205830574,,,
49.3750000000,6,0.9789276123,,,
49.3906250000,6,0.6404572129,,,
49.4062500000,6,0.1653441936,,,
49.4218750000,6,-0.3153457940,,,
49.4375000000,6,-0.6490479112,,,
49.4531250000,6,-0.7178726196,,,
49.4687500000,6,-0.5151824951,,,
49.4843750000,6,-0.1365966946,,,
49.5000000000,6,0.2763062119,,,
49.5156250000,6,0.5905609131,,,
49.5312500000,6,0.7470244765,,,
49.5468750000,6,0.7672728896,,,
49.5625000000,6,0.7191390991,,,
49.5781250000,6,0.6717833877,,,
49.5937500000,6,0.6746292114,,,
49.6093750000,6,0.7208861709,,,
49.6250000000,6,0.7622681260,,,
49.6406250000,6,0.7270812988,,,
49.6562500000,6,0.5592498779,,,
49.6718750000,6,0.2447433025,,,
49.6875000000,6,-0.1506347954,,,
49.7031250000,6,-0.5204238892,,,
49.7187500000,6,-0.7335358262,,,
49.7343750000,6,-0.7219849229,,,
49.7500000000,6,-0.5094910264,,,
49.7656250000,6,-0.1964340061,,,
49.7812500000,6,0.0786056519,,,
49.7968750000,6,0.2029647976,,,
49.8125000000,6,0.1470641941,,,
49.8281250000,6,-0.0458602905,,,
49.8437500000,6,-0.3106079102,,,
49.8593750000,6,-0.5731353760,,,
49.8750000000,6,-0.7988358140,,,
49.8906250000,6,-0.9953308105,,,
49.9062500000,6,-1.1685940027,,,
49.9218750000,6,-1.3155590296,,,
49.9375000000,6,-1.3935090303,,,
49.9531250000,6,-1.3451609612,,,
49.9687500000,6,-1.1185990572,,,
49.9843750000,6,-0.7407379150,,,
50.0000000000,6,-0.2996979058,,,
50.0156250000,6,0.0697479174,,,
50.0312500000,6,0.2444228977,,,
50.0468750000,6,0.1939087063,,,
50.0625000000,6,-0.0051803589,,,
50.0781250000,6,-0.2007751018,,,
50.0937500000,6,-0.2525481880,,,
50.1093750000,6,-0.0924987793,,,
50.1250000000,6,0.2349319011,,,
50.1406250000,6,0.6035385132,,,
50.1562500000,6,0.8864594102,,,
50.1718750000,6,0.9856414795,,,
50.1875000000,6,0.8887557983,,,
50.2031250000,6,0.6302185059,,,
50.2187500000,6,0.2862854004,,,
50.2343750000,6,-0.0478820801,,,
50.2500000000,6,-0.2837905884,,,
50.2656250000,6,-0.3759689033,,,
50.2812500000,6,-0.3175582886,,,
50.2968750000,6,-0.1738892049,,,
50.3125000000,6,-0.0414505005,,,
50.3281250000,6,0.0154342698,,,
50.3437500000,6,-0.0079803467,,,
50.3593750000,6,-0.0486831702,,,
50.3750000000,6,-0.0117950402,,,
50.3906250000,6,0.1378555000,,,
50.4062500000,6,0.3439941108,,,
50.4218750000,6,0.4784927070,,,
50.4375000000,6,0.4323807061,,,
50.4531250000,6,0.1859360039,,,
50.4687500000,6,-0.1542434990,,,
50.4843750000,6,-0.4294357002,,,
50.5000000000,6,-0.5087050796,,,
50.5156250000,6,-0.3693771064,,,
50.5312500000,6,-0.1115569994,,,
50.5468750000,6,0.0961380005,,,
50.5625000000,6,0.1275635064,,,
50.5781250000,6,-0.0409393311,,,
50.5937500000,6,-0.3216629028,,,
50.6093750000,6,-0.5621109009,,,
50.6250000000,6,-0.6496964097,,,
50.6406250000,6,-0.5672683716,,,
50.6562500000,6,-0.4048767090,,,
50.6718750000,6,-0.3066635132,,,
50.6875000000,6,-0.3710097969,,,
50.7031250000,6,-0.5961303711,,,
50.7187500000,6,-0.8840560913,,,
50.7343750000,6,-1.0962680578,,,
50.7500000000,6,-1.1323319674,,,
50.7656250000,6,-1.0073469877,,,
50.7812500000,6,-0.7964171767,,,
50.7968750000,6,-0.6062850952,,,
50.8125000000,6,-0.4744491875,,,
50.8281250000,6,-0.3514480889,,,
50.8437500000,6,-0.1361313015,,,
50.8593750000,6,0.2309418023,,,
50.8750000000,6,0.7311096191,,,
50.8906250000,6,1.2529909611,,,
50.9062500000,6,1.6382520199,,,
50.9218750000,6,1.7928769588,,,
50.9375000000,6,1.7244260311,,,
50.9531250000,6,1.5193940401,,,
50.9687500000,6,1.3137359619,,,
50.9843750000,6,1.1868439913,,,
51.0000000000,6,1.1383589506,,,
51.0156250000,6,1.1081540585,,,
51.0312500000,6,1.0069890022,,,
51.0468750000,6,0.7839431763,,,
51.0625000000,6,0.4601212144,,,
51.0781250000,6,0.1102676019,,,
51.0937500000,6,-0.1858977973,,,
51.1093750000,6,-0.3629455864,,,
51.1250000000,6,-0.4283142090,,,
51.1406250000,6,-0.4286957085,,,
51.1562500000,6,-0.4153900146,,,
51.1718750000,6,-0.4288176894,,,
51.1875000000,6,-0.4687804878,,,
51.2031250000,6,-0.5126113892,,,
51.2187500000,6,-0.5407485962,,,
51.2343750000,6,-0.5479050279,,,
51.2500000000,6,-0.5337905884,,,
51.2656250000,6,-0.4979934990,,,
51.2812500000,6,-0.4139632881,,,
51.2968750000,6,-0.2607651055,,,
51.3125000000,6,-0.0317687988,,,
51.3281250000,6,0.2551270127,,,
51.3437500000,6,0.5517960191,,,
51.3593750000,6,0.8014832139,,,
51.3750000000,6,0.9682999253,,,
51.3906250000,6,1.0527570248,,,
51.4062500000,6,1.0548319817,,,
51.4218750000,6,0.9907302856,,,
51.4375000000,6,0.8659514785,,,
51.4531250000,6,0.6679840088,,,
51.4687500000,6,0.4151076972,,,
51.4843750000,6,0.1479033977,,,
51.5000000000,6,-0.0730590820,,,
51.5156250000,6,-0.1744765937,,,
51.5312500000,6,-0.1262816936,,,
51.5468750000,6,0.0337448083,,,
51.5625000000,6,0.2261887044,,,
51.5781250000,6,0.3732604980,,,
51.5937500000,6,0.4152679145,,,
51.6093750000,6,0.3587951958,,,
51.6250000000,6,0.2367095947,,,
51.6406250000,6,0.0827026367,,,
51.6562500000,6,-0.0947265625,,,
51.6718750000,6,-0.3046950996,,,
51.6875000000,6,-0.5630416870,,,
51.7031250000,6,-0.8241118789,,,
51.7187500000,6,-1.0011140108,,,
51.7343750000,6,-1.0093079805,,,
51.7500000000,6,-0.8141860962,,,
51.7656250000,6,-0.4813232124,,,
51.7812500000,6,-0.1354293972,,,
51.7968750000,6,0.1002807990,,,
51.8125000000,6,0.1688614041,,,
51.8281250000,6,0.0932388306,,,
51.8437500000,6,-0.0603332482,,,
51.8593750000,6,-0.2307357937,,,
51.8750000000,6,-0.4156188965,,,
51.8906250000,6,-0.6250305176,,,
51.9062500000,6,-0.8740233779,,,
51.9218750000,6,-1.1269910336,,,
51.9375000000,6,-1.3026579618,,,
51.9531250000,6,-1.2969440222,,,
51.9687500000,6,-1.0600589514,,,
51.9843750000,6,-0.6328048706,,,
52.0000000000,6,-0.1473464966,,,
52.0156250000,6,0.2005691975,,,
52.0312500000,6,0.2760086060,,,
52.0468750000,6,0.0464477502,,,
52.0625000000,6,-0.3758240044,,,
52.0781250000,6,-0.7756270766,,,
52.0937500000,6,-0.9536591172,,,
52.1093750000,6,-0.8080750108,,,
52.1250000000,6,-0.4056243896,,,
52.1406250000,6,0.0780563429,,,
52.1562500000,6,0.4435043037,,,
52.1718750000,6,0.5988388062,,,
52.1875000000,6,0.5657349229,,,
52.2031250000,6,0.4723205864,,,
52.2187500000,6,0.4319077134,,,
52.2343750000,6,0.4723969102,,,
52.2500000000,6,0.5433959961,,,
52.2656250000,6,0.5554656982,,,
52.2812500000,6,0.4638290107,,,
52.2968750000,6,0.3124695122,,,
52.3125000000,6,0.1906891018,,,
52.3281250000,6,0.1809920967,,,
52.3437500000,6,0.2952193916,,,
52.3593750000,6,0.4635314941,,,
52.3750000000,6,0.5735167861,,,
52.3906250000,6,0.5515670776,,,
52.4062500000,6,0.4062424004,,,
52.4218750000,6,0.2216186970,,,
52.4375000000,6,0.0991897583,,,
52.4531250000,6,0.1063079983,,,
52.4687500000,6,0.2186049968,,,
52.4843750000,6,0.3643265069,,,
52.5000000000,6,0.4601212144,,,
52.5156250000,6,0.4549179077,,,
52.5312500000,6,0.3531570137,,,
52.5468750000,6,0.1966248006,,,
52.5625000000,6,0.0285339393,,,
52.5781250000,6,-0.1165314019,,,
52.5937500000,6,-0.2098618001,,,
52.6093750000,6,-0.2424010932,,,
52.6250000000,6,-0.2033767998,,,
52.6406250000,6,-0.0896377563,,,
52.6562500000,6,0.0855712891,,,
52.6718750000,6,0.3015517890,,,
52.6875000000,6,0.5082169175,,,
52.7031250000,6,0.6599121094,,,
52.7187500000,6,0.7001190186,,,
52.7343750000,6,0.5942993164,,,
52.7500000000,6,0.3163070977,,,
52.7656250000,6,-0.1171111986,,,
52.7812500000,6,-0.6503142715,,,
52.7968750000,6,-1.1614300013,,,
52.8125000000,6,-1.5172580481,,,
52.8281250000,6,-1.6252520084,,,
52.8437500000,6,-1.4651410580,,,
52.8593750000,6,-1.1129150391,,,
52.8750000000,6,-0.6810988784,,,
52.8906250000,6,-0.2948302925,,,
52.9062500000,6,-0.0085525513,,,
52.9218750000,6,0.1708679050,,,
52.9375000000,6,0.2829208076,,,
52.9531250000,6,0.3839797974,,,
52.9687500000,6,0.4998168945,,,
52.9843750000,6,0.6245269775,,,
53.0000000000,6,0.7110366821,,,
53.0156250000,6,0.6981812119,,,
53.0312500000,6,0.5340805054,,,
53.0468750000,6,0.2080307007,,,
53.0625000000,6,-0.2387848049,,,
53.0781250000,6,-0.7308806777,,,
53.0937500000,6,-1.1460109949,,,
53.1093750000,6,-1.3872380257,,,
53.1250000000,6,-1.3844449520,,,
53.1406250000,6,-1.1222840548,,,
53.1562500000,6,-0.6547470093,,,
53.1718750000,6,-0.0778427124,,,
53.1875000000,6,0.5006561279,,,
53.2031250000,6,0.9724426270,,,
53.2187500000,6,1.2387239933,,,
53.2343750000,6,1.2594759464,,,
53.2500000000,6,1.0408020020,,,
53.2656250000,6,0.6688460708,,,
53.2812500000,6,0.2549743950,,,
53.2968750000,6,-0.0803909302,,,
53.3125000000,6,-0.2581557930,,,
53.3281250000,6,-0.2642441094,,,
53.3437500000,6,-0.1503372043,,,
53.3593750000,6,-0.0057067871,,,
53.3750000000,6,0.0958557129,,,
53.3906250000,6,0.1113129035,,,
53.4062500000,6,0.0636367798,,,
53.4218750000,6,-0.0002670288,,,
53.4375000000,6,-0.0232467707,,,
53.4531250000,6,0.0242462195,,,
53.4687500000,6,0.1317902058,,,
53.4843750000,6,0.2718581855,,,
53.5000000000,6,0.4307785034,,,
53.5156250000,6,0.6143187881,,,
53.5312500000,6,0.8166962266,,,
53.5468750000,6,1.0041429996,,,
53.5625000000,6,1.1059110165,,,
53.5781250000,6,1.0350949764,,,
53.5937500000,6,0.7375946045,,,
53.6093750000,6,0.2313919067,,,
53.6250000000,6,-0.3819580078,,,
53.6406250000,6,-0.9594954848,,,
53.6562500000,6,-1.3627699614,,,
53.6718750000,6,-1.5167690516,,,
53.6875000000,6,-1.4125139713,,,
53.7031250000,6,-1.0847400427,,,
53.7187500000,6,-0.6087645888,,,
53.7343750000,6,-0.0695419312,,,
53.7500000000,6,0.4375762939,,,
53.7656250000,6,0.8298720717,,,
53.7812500000,6,1.0488280058,,,
53.7968750000,6,1.0884480476,,,
53.8125000000,6,0.9822921753,,,
53.8281250000,6,0.7820510864,,,
53.8437500000,6,0.5410156250,,,
53.8593750000,6,0.2963409126,,,
53.8750000000,6,0.0801086426,,,
53.8906250000,6,-0.0697631836,,,
53.9062500000,6,-0.1167374030,,,
53.9218750000,6,-0.0651321411,,,
53.9375000000,6,0.0375442505,,,
53.9531250000,6,0.1092453003,,,
53.9687500000,6,0.0919876099,,,
53.9843750000,6,-0.0189971905,,,
54.0000000000,6,-0.1586226970,,,
54.0156250000,6,-0.2393950969,,,
54.0312500000,6,-0.2169951946,,,
54.0468750000,6,-0.1280211955,,,
54.0625000000,6,-0.0467376709,,,
54.0781250000,6,-0.0549240112,,,
54.0937500000,6,-0.1597443074,,,
54.1093750000,6,-0.3091354072,,,
54.1250000000,6,-0.4234009087,,,
54.1406250000,6,-0.4556655884,,,
54.1562500000,6,-0.4307937920,,,
54.1718750000,6,-0.4257889092,,,
54.1875000000,6,-0.5234680176,,,
54.2031250000,6,-0.7739028931,,,
54.2187500000,6,-1.1545870304,,,
54.2343750000,6,-1.5561829805,,,
54.2500000000,6,-1.8350449800,,,
54.2656250000,6,-1.8747329712,,,
54.2812500000,6,-1.6344829798,,,
54.2968750000,6,-1.1705399752,,,
54.3125000000,6,-0.6059188843,,,
54.3281250000,6,-0.0783996582,,,
54.3437500000,6,0.3121643066,,,
54.3593750000,6,0.5533905029,,,
54.3750000000,6,0.6940842271,,,
54.3906250000,6,0.7858963013,,,
54.4062500000,6,0.8544464111,,,
54.4218750000,6,0.8881149292,,,
54.4375000000,6,0.8674163818,,,
54.4531250000,6,0.7914810181,,,
54.4687500000,6,0.6839827895,,,
54.4843750000,6,0.5682601929,,,
54.5000000000,6,0.4391174018,,,
54.5156250000,6,0.2597121894,,,
54.5312500000,6,-0.0037841799,,,
54.5468750000,6,-0.3405914009,,,
54.5625000000,6,-0.6766585708,,,
54.5781250000,6,-0.9083557129,,,
54.5937500000,6,-0.9418869019,,,
54.6093750000,6,-0.7656250000,,,
54.6250000000,6,-0.4370192885,,,
54.6406250000,6,-0.0647811890,,,
54.6562500000,6,0.2571029961,,,
54.6718750000,6,0.4634856880,,,
54.6875000000,6,0.5463637710,,,
54.7031250000,6,0.5307083130,,,
54.7187500000,6,0.4553909004,,,
54.7343750000,6,0.3821335137,,,
54.7500000000,6,0.3636550903,,,
54.7656250000,6,0.4402618110,,,
54.7812500000,6,0.5941467285,,,
54.7968750000,6,0.7563933730,,,
54.8125000000,6,0.8351439834,,,
54.8281250000,6,0.7971343994,,,
54.8437500000,6,0.6624373794,,,
54.8593750000,6,0.5276641846,,,
54.8750000000,6,0.4841003120,,,
54.8906250000,6,0.5471420288,,,
54.9062500000,6,0.6348494887,,,
54.9218750000,6,0.6200867295,,,
54.9375000000,6,0.4205474854,,,
54.9531250000,6,0.0643005371,,,
54.9687500000,6,-0.3042449951,,,
54.9843750000,6,-0.5244827271,,,
55.0000000000,6,-0.5062636733,,,
55.0156250000,6,-0.3006210029,,,
55.0312500000,6,-0.0640182495,,,
55.0468750000,6,0.0618591309,,,
55.0625000000,6,0.0079116821,,,
55.0781250000,6,-0.1704636067,,,
55.0937500000,6,-0.3575362861,,,
55.1093750000,6,-0.4522781074,,,
55.1250000000,6,-0.4226990044,,,
55.1406250000,6,-0.3139419854,,,
55.1562500000,6,-0.1868439019,,,
55.1718750000,6,-0.0946350098,,,
55.1875000000,6,-0.0345916711,,,
55.2031250000,6,0.0075531011,,,
55.2187500000,6,0.0540771484,,,
55.2343750000,6,0.1007537991,,,
55.2500000000,6,0.1250381023,,,
55.2656250000,6,0.1046523973,,,
55.2812500000,6,0.0382766686,,,
55.2968750000,6,-0.0409317017,,,
55.3125000000,6,-0.1062012017,,,
55.3281250000,6,-0.1174316034,,,
55.3437500000,6,-0.0891036987,,,
55.3593750000,6,-0.0497131310,,,
55.3750000000,6,-0.0436477698,,,
55.3906250000,6,-0.0910873413,,,
55.4062500000,6,-0.1891555935,,,
55.4218750000,6,-0.2838898003,,,
55.4375000000,6,-0.3128814995,,,
55.4531250000,6,-0.2495650947,,,
55.4687500000,6,-0.1042098999,,,
55.4843750000,6,0.0347595215,,,
55.5000000000,6,0.0847930908,,,
55.5156250000,6,-0.0162735004,,,
55.5312500000,6,-0.2553100884,,,
55.5468750000,6,-0.5532073975,,,
55.5625000000,6,-0.7930908203,,,
55.5781250000,6,-0.8658980727,,,
55.5937500000,6,-0.7194061279,,,
55.6093750000,6,-0.3739395142,,,
55.6250000000,6,0.0771331787,,,
55.6406250000,6,0.5050430298,,,
55.6562500000,6,0.7948226929,,,
55.6718750000,6,0.8834915161,,,
55.6875000000,6,0.7992401123,,,
55.7031250000,6,0.6221541762,,,
55.7187500000,6,0.4607619941,,,
55.7343750000,6,0.3802489936,,,
55.7500000000,6,0.3992461860,,,
55.7656250000,6,0.4774017036,,,
55.7812500000,6,0.5631561279,,,
55.7968750000,6,0.6166152954,,,
55.8125000000,6,0.6386566162,,,
55.8281250000,6,0.6459732056,,,
55.8437500000,6,0.6381226182,,,
55.8593750000,6,0.5953217149,,,
55.8750000000,6,0.4643172920,,,
55.8906250000,6,0.2207565010,,,
55.9062500000,6,-0.1464461982,,,
55.9218750000,6,-0.5610504150,,,
55.9375000000,6,-0.9245300293,,,
55.9531250000,6,-1.1181260347,,,
55.9687500000,6,-1.0587079525,,,
55.9843750000,6,-0.7410582900,,,
56.0000000000,7,-0.2390975952,,,
56.0156250000,7,0.2910309136,,,
56.0312500000,7,0.6820678711,,,
56.0468750000,7,0.8034744263,,,
56.0625000000,7,0.6244583130,,,
56.0781250000,7,0.2172622979,,,
56.0937500000,7,-0.2628403008,,,
56.1093750000,7,-0.6493759155,,,
56.1250000000,7,-0.8209304810,,,
56.1406250000,7,-0.7355347276,,,
56.1562500000,7,-0.4435425103,,,
56.1718750000,7,-0.0466766395,,,
56.1875000000,7,0.3395080864,,,
