Time:64Hz,Epoch,Channel 1,Event Id,Event Date,Event Duration
0.0000000000,0,-0.1568450928,,,
0.0156250000,0,-0.0907440186,,,
0.0312500000,0,0.1609954983,,,
0.0468750000,0,0.4887084961,,,
0.0625000000,0,0.7795714736,,,
0.0781250000,0,0.9720153809,,,
0.0937500000,0,1.0669560432,,,
0.1093750000,0,1.0775909424,,,
0.1250000000,0,1.0172120333,,,
0.1406250000,0,0.8636322021,,,
0.1562500000,0,0.5954741836,,,
0.1718750000,0,0.2365570068,,,
0.1875000000,0,-0.1322174072,,,
0.2031250000,0,-0.3962096870,,,
0.2187500000,0,-0.4707641900,,,
0.2343750000,0,-0.3523406982,,,
0.2500000000,0,-0.1354828030,,,
0.2656250000,0,0.0177612305,,,
0.2812500000,0,-0.0165710393,,,
0.2968750000,0,-0.2679137886,,,
0.3125000000,0,-0.6340789795,,,
0.3281250000,0,-0.9441986084,,,
0.3437500000,0,-1.0501860380,,,
0.3593750000,0,-0.8846436143,,,
0.3750000000,0,-0.4978333116,,,
0.3906250000,0,-0.0274047907,,,
0.4062500000,0,0.3705902100,,,
0.4218750000,0,0.5955657959,,,
0.4375000000,0,0.6192321777,,,
0.4531250000,0,0.4831542969,,,
0.4687500000,0,0.2581787109,,,
0.4843750000,0,0.0027465820,,,
0.5000000000,0,-0.2541809082,,,
0.5156250000,0,-0.4906615913,,,
0.5312500000,0,-0.6930999756,,,
0.5468750000,0,-0.8480072021,,,
0.5625000000,0,-0.9193878174,,,
0.5781250000,0,-0.8992462158,,,
0.5937500000,0,-0.7859191895,,,
0.6093750000,0,-0.6065825820,,,
0.6250000000,0,-0.3945465088,,,
0.6406250000,0,-0.1872864068,,,
0.6562500000,0,-0.0084075928,,,
0.6718750000,0,0.1375274956,,,
0.6875000000,0,0.2458954006,,,
0.7031250000,0,0.3024750054,,,
0.7187500000,0,0.2671203911,,,
0.7343750000,0,0.1163024977,,,
0.7500000000,0,-0.1344299018,,,
0.7656250000,0,-0.4156799018,,,
0.7812500000,0,-0.6195374131,,,
0.7968750000,0,-0.6600646973,,,
0.8125000000,0,-0.5053710938,,,
0.8281250000,0,-0.2083739936,,,
0.8437500000,0,0.1198424995,,,
0.8593750000,0,0.3580474854,,,
0.8750000000,0,0.4573211968,,,
0.8906250000,0,0.4495849907,,,
0.9062500000,0,0.4124602973,,,
0.9218750000,0,0.4266662896,,,
0.9375000000,0,0.5022429824,,,
0.9531250000,0,0.5807343125,,,
0.9687500000,0,0.5690917969,,,
0.9843750000,0,0.4122008979,,,
1.0000000000,0,0.1204224005,,,
1.0156250000,0,-0.2252044976,,,
1.0312500000,0,-0.5349730849,,,
1.0468750000,0,-0.7573853135,,,
1.0625000000,0,-0.8934783936,,,
1.0781250000,0,-0.9960021973,,,
1.0937500000,0,-1.1154019833,,,
1.1093750000,0,-1.2680360079,,,
1.1250000000,0,-1.4119570255,,,
1.1406250000,0,-1.4812769890,,,
1.1562500000,0,-1.4258420467,,,
1.1718750000,0,-1.2425689697,,,
1.1875000000,0,-0.9717102051,,,
1.2031250000,0,-0.6599730849,,,
1.2187500000,0,-0.3448638916,,,
1.2343750000,0,-0.0271606408,,,
1.2500000000,0,0.2908172905,,,
1.2656250000,0,0.5977935791,,,
1.2812500000,0,0.8562316895,,,
1.2968750000,0,1.0241390467,,,
1.3125000000,0,1.0851750374,,,
1.3281250000,0,1.0632480383,,,
1.3437500000,0,1.0186309814,,,
1.3593750000,0,1.0021820068,,,
1.3750000000,0,1.0287630558,,,
1.3906250000,0,1.0771479607,,,
1.4062500000,0,1.1013029814,,,
1.4218750000,0,1.0846560001,,,
1.4375000000,0,1.0538020134,,,
1.4531250000,0,1.0575560331,,,
1.4687500000,0,1.1166379452,,,
1.4843750000,0,1.2046509981,,,
1.5000000000,0,1.2412259579,,,
1.5156250000,0,1.1409909725,,,
1.5312500000,0,0.8750000000,,,
1.5468750000,0,0.5033721924,,,
1.5625000000,0,0.1375885010,,,
1.5781250000,0,-0.0950469971,,,
1.5937500000,0,-0.1346130073,,,
1.6093750000,0,-0.0273284893,,,
1.6250000000,0,0.1109313965,,,
1.6406250000,0,0.1219481975,,,
1.6562500000,0,-0.0962982178,,,
1.6718750000,0,-0.5442656875,,,
1.6875000000,0,-1.1154170036,,,
1.7031250000,0,-1.6137080193,,,
1.7187500000,0,-1.8542790413,,,
1.7343750000,0,-1.7265470028,,,
1.7500000000,0,-1.2631529570,,,
1.7656250000,0,-0.6200408936,,,
1.7812500000,0,-0.0204772893,,,
1.7968750000,0,0.3259735107,,,
1.8125000000,0,0.3060607910,,,
1.8281250000,0,-0.0661926270,,,
1.8437500000,0,-0.6469727159,,,
1.8593750000,0,-1.2318420410,,,
1.8750000000,0,-1.6294250488,,,
1.8906250000,0,-1.7265169621,,,
1.9062500000,0,-1.5493160486,,,
1.9218750000,0,-1.2167049646,,,
1.9375000000,0,-0.9006500244,,,
1.9531250000,0,-0.7178192139,,,
1.9687500000,0,-0.6951904297,,,
1.9843750000,0,-0.7520446777,,,
2.0000000000,0,-0.7681427002,,,
2.0156250000,0,-0.6719207764,,,
2.0312500000,0,-0.4681091011,,,
2.0468750000,0,-0.2343444973,,,
2.0625000000,0,-0.0508270301,,,
2.0781250000,0,0.0518646203,,,
2.0937500000,0,0.1076202020,,,
2.1093750000,0,0.1700287014,,,
2.1250000000,0,0.2581023872,,,
2.1406250000,0,0.3293304145,,,
2.1562500000,0,0.3274689019,,,
2.1718750000,0,0.2213744968,,,
2.1875000000,0,0.0466308594,,,
2.2031250000,0,-0.0931549072,,,
2.2187500000,0,-0.1062469035,,,
2.2343750000,0,0.0389251709,,,
2.2500000000,0,0.3003081977,,,
2.2656250000,0,0.5713043213,,,
2.2812500000,0,0.7444152832,,,
2.2968750000,0,0.7496489882,,,
2.3125000000,0,0.5909882188,,,
2.3281250000,0,0.3193511963,,,
2.3437500000,0,0.0254821796,,,
2.3593750000,0,-0.1985321045,,,
2.3750000000,0,-0.3027954102,,,
2.3906250000,0,-0.2857818902,,,
2.4062500000,0,-0.2084960938,,,
2.4218750000,0,-0.1457519978,,,
2.4375000000,0,-0.1578368992,,,
2.4531250000,0,-0.2266540974,,,
2.4687500000,0,-0.2734833062,,,
2.4843750000,0,-0.1786956936,,,
2.5000000000,0,0.1099091023,,,
2.5156250000,0,0.5142517090,,,
2.5312500000,0,0.8504639268,,,
2.5468750000,0,0.8951721191,,,
2.5625000000,0,0.5407103896,,,
2.5781250000,0,-0.1290894002,,,
2.5937500000,0,-0.8699340820,,,
2.6093750000,0,-1.3851469755,,,
2.6250000000,0,-1.4772030115,,,
2.6406250000,0,-1.1562039852,,,
2.6562500000,0,-0.6032866836,,,
2.6718750000,0,-0.0534210205,,,
2.6875000000,0,0.3121033013,,,
2.7031250000,0,0.4588775933,,,
2.7187500000,0,0.4572449028,,,
2.7343750000,0,0.3875580132,,,
2.7500000000,0,0.2854613960,,,
2.7656250000,0,0.1181183010,,,
2.7812500000,0,-0.1381835938,,,
2.7968750000,0,-0.4657593071,,,
2.8125000000,0,-0.7464447021,,,
2.8281250000,0,-0.8477631211,,,
2.8437500000,0,-0.6869658828,,,
2.8593750000,0,-0.2864989936,,,
2.8750000000,0,0.2058258057,,,
2.8906250000,0,0.5938873291,,,
2.9062500000,0,0.7397766113,,,
2.9218750000,0,0.6305236816,,,
2.9375000000,0,0.3650817871,,,
2.9531250000,0,0.1106415018,,,
2.9687500000,0,-0.0291442908,,,
2.9843750000,0,-0.0405425988,,,
3.0000000000,0,-0.0045166020,,,
3.0156250000,0,-0.0291137695,,,
3.0312500000,0,-0.1615294963,,,
3.0468750000,0,-0.3728942871,,,
3.0625000000,0,-0.5819243789,,,
3.0781250000,0,-0.7350006104,,,
3.0937500000,0,-0.8408812881,,,
3.1093750000,0,-0.9788970947,,,
3.1250000000,0,-1.2110600471,,,
3.1406250000,0,-1.5465090275,,,
3.1562500000,0,-1.9367519617,,,
3.1718750000,0,-2.2958068848,,,
3.1875000000,0,-2.5840609074,,,
3.2031250000,0,-2.7851560116,,,
3.2187500000,0,-2.8900148869,,,
3.2343750000,0,-2.8518679142,,,
3.2500000000,0,-2.5879669189,,,
3.2656250000,0,-2.0392611027,,,
3.2812500000,0,-1.2102049589,,,
3.2968750000,0,-0.2198486030,,,
3.3125000000,0,0.7570496202,,,
3.3281250000,0,1.5535889864,,,
3.3437500000,0,2.0667269230,,,
3.3593750000,0,2.2662200928,,,
3.3750000000,0,2.1656339169,,,
3.3906250000,0,1.7846980095,,,
3.4062500000,0,1.1687159538,,,
3.4218750000,0,0.4206390083,,,
3.4375000000,0,-0.2794646919,,,
3.4531250000,0,-0.6882476807,,,
3.4687500000,0,-0.6037445068,,,
3.4843750000,0,0.0290374793,,,
3.5000000000,0,1.0624690056,,,
3.5156250000,0,2.1809689999,,,
3.5312500000,0,3.0114591122,,,
3.5468750000,0,3.2761690617,,,
3.5625000000,0,2.9045100212,,,
3.5781250000,0,2.0481259823,,,
3.5937500000,0,1.0183110237,,,
3.6093750000,0,0.1497803032,,,
3.6250000000,0,-0.3228302002,,,
3.6406250000,0,-0.3501586914,,,
3.6562500000,0,-0.0585022010,,,
3.6718750000,0,0.3375853896,,,
3.6875000000,0,0.6279144287,,,
3.7031250000,0,0.7141417861,,,
3.7187500000,0,0.6350098252,,,
3.7343750000,0,0.5192719102,,,
3.7500000000,0,0.5117949843,,,
3.7656250000,0,0.6866912842,,,
3.7812500000,0,1.0461269617,,,
3.7968750000,0,1.5099949837,,,
3.8125000000,0,1.9775389433,,,
3.8281250000,0,2.3813319206,,,
3.8437500000,0,2.6868588924,,,
3.8593750000,0,2.8725280762,,,
3.8750000000,0,2.9158630371,,,
3.8906250000,0,2.7851870060,,,
3.9062500000,0,2.4596860409,,,
3.9218750000,0,1.9512020350,,,
3.9375000000,0,1.3469389677,,,
3.9531250000,0,0.7696533203,,,
3.9687500000,0,0.3675841987,,,
3.9843750000,0,0.2304535061,,,
4.0000000000,0,0.3631134033,,,
4.0156250000,0,0.6846160889,,,
4.0312500000,0,1.0534969568,,,
4.0468750000,0,1.3523249626,,,
4.0625000000,0,1.5190119743,,,
4.0781250000,0,1.5733799934,,,
4.0937500000,0,1.5674740076,,,
4.1093750000,0,1.5428160429,,,
4.1250000000,0,1.4884799719,,,
4.1406250000,0,1.3624269962,,,
4.1562500000,0,1.1336359978,,,
4.1718750000,0,0.8249968886,,,
4.1875000000,0,0.5164489746,,,
4.2031250000,0,0.3013916016,,,
4.2187500000,0,0.2123260051,,,
4.2343750000,0,0.1918639988,,,
4.2500000000,0,0.1188964993,,,
4.2656250000,0,-0.1354064941,,,
4.2812500000,0,-0.5837097168,,,
4.2968750000,0,-1.1319429874,,,
4.3125000000,0,-1.5967249870,,,
4.3281250000,0,-1.8175660372,,,
4.3437500000,0,-1.7288670540,,,
4.3593750000,0,-1.3985140324,,,
4.3750000000,0,-0.9887847900,,,
4.3906250000,0,-0.6705780029,,,
4.4062500000,0,-0.5613402724,,,
4.4218750000,0,-0.7005310059,,,
4.4375000000,0,-1.0346829891,,,
4.4531250000,0,-1.4603730440,,,
4.4687500000,0,-1.8536829948,,,
4.4843750000,0,-2.1175229549,,,
4.5000000000,0,-2.2026369572,,,
4.5156250000,0,-2.1171879768,,,
4.5312500000,0,-1.9133759737,,,
4.5468750000,0,-1.6554720402,,,
4.5625000000,0,-1.3893589973,,,
4.5781250000,0,-1.1290440559,,,
4.5937500000,0,-0.8559569716,,,
4.6093750000,0,-0.5481414795,,,
4.6250000000,0,-0.2085418999,,,
4.6406250000,0,0.1350554973,,,
4.6562500000,0,0.4243622124,,,
4.6718750000,0,0.6220092773,,,
4.6875000000,0,0.7219849229,,,
4.7031250000,0,0.7680205703,,,
4.7187500000,0,0.8224791884,,,
4.7343750000,0,0.9363402724,,,
4.7500000000,0,1.1051789522,,,
4.7656250000,0,1.2678380013,,,
4.7812500000,0,1.3274539709,,,
4.7968750000,0,1.1986999512,,,
4.8125000000,0,0.8676453233,,,
4.8281250000,0,0.4038239121,,,
4.8437500000,0,-0.0556793213,,,
4.8593750000,0,-0.3872070014,,,
4.8750000000,0,-0.5301514268,,,
4.8906250000,0,-0.5131530762,,,
4.9062500000,0,-0.4271545112,,,
4.9218750000,0,-0.3523559868,,,
4.9375000000,0,-0.3248595893,,,
4.9531250000,0,-0.3193053901,,,
4.9687500000,0,-0.3077850044,,,
4.9843750000,0,-0.3067780137,,,
5.0000000000,0,-0.3815459907,,,
5.0156250000,0,-0.5824890137,,,
5.0312500000,0,-0.8869323730,,,
5.0468750000,0,-1.1768039465,,,
5.0625000000,0,-1.2796629667,,,
5.0781250000,0,-1.0834350586,,,
5.0937500000,0,-0.5921173096,,,
5.1093750000,0,0.0503082313,,,
5.1250000000,0,0.6369475722,,,
5.1406250000,0,1.0135799646,,,
5.1562500000,0,1.1120150089,,,
5.1718750000,0,0.9794158936,,,
5.1875000000,0,0.7006530762,,,
5.2031250000,0,0.3700866997,,,
5.2187500000,0,0.0394287109,,,
5.2343750000,0,-0.2567138970,,,
5.2500000000,0,-0.5052947998,,,
5.2656250000,0,-0.6843261719,,,
5.2812500000,0,-0.7617493272,,,
5.2968750000,0,-0.7157592773,,,
5.3125000000,0,-0.5502471924,,,
5.3281250000,0,-0.2938232124,,,
5.3437500000,0,-0.0171356201,,,
5.3593750000,0,0.1957245022,,,
5.3750000000,0,0.2824707031,,,
5.3906250000,0,0.2354889065,,,
5.4062500000,0,0.1227722019,,,
5.4218750000,0,0.0534515418,,,
5.4375000000,0,0.1121063009,,,
5.4531250000,0,0.3107146919,,,
5.4687500000,0,0.5879973769,,,
5.4843750000,0,0.8504027724,,,
5.5000000000,0,1.0313869715,,,
5.5156250000,0,1.1269379854,,,
5.5312500000,0,1.1650700569,,,
5.5468750000,0,1.1528320313,,,
5.5625000000,0,1.0489809513,,,
5.5781250000,0,0.7801207900,,,
5.5937500000,0,0.3197784126,,,
5.6093750000,0,-0.2571564019,,,
5.6250000000,0,-0.7967224121,,,
5.6406250000,0,-1.1209720373,,,
5.6562500000,0,-1.1462550163,,,
5.6718750000,0,-0.9095001221,,,
5.6875000000,0,-0.5454102159,,,
5.7031250000,0,-0.1954192966,,,
5.7187500000,0,0.0514984094,,,
5.7343750000,0,0.1756743938,,,
5.7500000000,0,0.1875458062,,,
5.7656250000,0,0.0816345215,,,
5.7812500000,0,-0.1580657959,,,
5.7968750000,0,-0.5349274278,,,
5.8125000000,0,-1.0131230354,,,
5.8281250000,0,-1.4915310144,,,
5.8437500000,0,-1.8728790283,,,
5.8593750000,0,-2.0839080811,,,
5.8750000000,0,-2.1216130257,,,
5.8906250000,0,-2.0466918945,,,
5.9062500000,0,-1.9399410486,,,
5.9218750000,0,-1.8612669706,,,
5.9375000000,0,-1.8230739832,,,
5.9531250000,0,-1.7879790068,,,
5.9687500000,0,-1.6792449951,,,
5.9843750000,0,-1.4302059412,,,
6.0000000000,0,-1.0081180334,,,
6.0156250000,0,-0.4549407959,,,
6.0312500000,0,0.1190947965,,,
6.0468750000,0,0.5722960830,,,
6.0625000000,0,0.7998352051,,,
6.0781250000,0,0.7790374756,,,
6.0937500000,0,0.5778656006,,,
6.1093750000,0,0.3098906875,,,
6.1250000000,0,0.0476379395,,,
6.1406250000,0,-0.1834105998,,,
6.1562500000,0,-0.4011841118,,,
6.1718750000,0,-0.5989838243,,,
6.1875000000,0,-0.6999968886,,,
6.2031250000,0,-0.6004027724,,,
6.2187500000,0,-0.2179718018,,,
6.2343750000,0,0.3919067085,,,
6.2500000000,0,1.0577239990,,,
6.2656250000,0,1.5619349480,,,
6.2812500000,0,1.7607270479,,,
6.2968750000,0,1.6496429443,,,
6.3125000000,0,1.3421169519,,,
6.3281250000,0,0.9734038711,,,
6.3437500000,0,0.6075897217,,,
6.3593750000,0,0.2303771973,,,
6.3750000000,0,-0.2020874023,,,
6.3906250000,0,-0.6810913086,,,
6.4062500000,0,-1.1174470186,,,
6.4218750000,0,-1.3733979464,,,
6.4375000000,0,-1.3456569910,,,
6.4531250000,0,-1.0378880501,,,
6.4687500000,0,-0.5597991943,,,
6.4843750000,0,-0.0706481934,,,
6.5000000000,0,0.3074187934,,,
6.5156250000,0,0.5189362168,,,
6.5312500000,0,0.6008452773,,,
6.5468750000,0,0.6141204834,,,
6.5625000000,0,0.6233214736,,,
6.5781250000,0,0.6688385010,,,
6.5937500000,0,0.7766417861,,,
6.6093750000,0,0.9713134766,,,
6.6250000000,0,1.2286529541,,,
6.6406250000,0,1.4948120117,,,
6.6562500000,0,1.6649019718,,,
6.6718750000,0,1.6324310303,,,
6.6875000000,0,1.3518830538,,,
6.7031250000,0,0.8658905029,,,
6.7187500000,0,0.3280333877,,,
6.7343750000,0,-0.0732574463,,,
6.7500000000,0,-0.2047272027,,,
6.7656250000,0,-0.0561370812,,,
6.7812500000,0,0.2689513862,,,
6.7968750000,0,0.5963286757,,,
6.8125000000,0,0.7876740098,,,
6.8281250000,0,0.7959442139,,,
6.8437500000,0,0.6740416884,,,
6.8593750000,0,0.5164948106,,,
6.8750000000,0,0.3983002007,,,
6.8906250000,0,0.3312073052,,,
6.9062500000,0,0.2495422065,,,
6.9218750000,0,0.0760345533,,,
6.9375000000,0,-0.2372741997,,,
6.9531250000,0,-0.6573333740,,,
6.9687500000,0,-1.0884859562,,,
6.9843750000,0,-1.4019010067,,,
7.0000000000,0,-1.4987950325,,,
7.0156250000,0,-1.3567810059,,,
7.0312500000,0,-1.0194549561,,,
7.0468750000,0,-0.5826110840,,,
7.0625000000,0,-0.1377563030,,,
7.0781250000,0,0.2559967041,,,
7.0937500000,0,0.5718079209,,,
7.1093750000,0,0.8082122803,,,
7.1250000000,0,0.9556427002,,,
7.1406250000,0,0.9875792861,,,
7.1562500000,0,0.8749390244,,,
7.1718750000,0,0.6269989014,,,
7.1875000000,0,0.2969818115,,,
7.2031250000,0,-0.0325317383,,,
7.2187500000,0,-0.2910003960,,,
7.2343750000,0,-0.4585266113,,,
7.2500000000,0,-0.5725402832,,,
7.2656250000,0,-0.7048035264,,,
7.2812500000,0,-0.8827362061,,,
7.2968750000,0,-1.0812230110,,,
7.3125000000,0,-1.2255710363,,,
7.3281250000,0,-1.2392120361,,,
7.3437500000,0,-1.0974880457,,,
7.3593750000,0,-0.8255615234,,,
7.3750000000,0,-0.5195770264,,,
7.3906250000,0,-0.2886962891,,,
7.4062500000,0,-0.2094879001,,,
7.4218750000,0,-0.3022460938,,,
7.4375000000,0,-0.5151671767,,,
7.4531250000,0,-0.7506865859,,,
7.4687500000,0,-0.9027556777,,,
7.4843750000,0,-0.9062194824,,,
7.5000000000,0,-0.7550507188,,,
7.5156250000,0,-0.5082092285,,,
7.5312500000,0,-0.2512817085,,,
7.5468750000,0,-0.0547485389,,,
7.5625000000,0,0.0786132813,,,
7.5781250000,0,0.2059326023,,,
7.5937500000,0,0.3831787109,,,
7.6093750000,0,0.6203613281,,,
7.6250000000,0,0.8586730957,,,
7.6406250000,0,0.9835051894,,,
7.6562500000,0,0.9065856934,,,
7.6718750000,0,0.6250153184,,,
7.6875000000,0,0.2325592041,,,
7.7031250000,0,-0.1351929009,,,
7.7187500000,0,-0.3524323106,,,
7.7343750000,0,-0.3905181885,,,
7.7500000000,0,-0.2933655083,,,
7.7656250000,0,-0.1689452976,,,
7.7812500000,0,-0.0897979736,,,
7.7968750000,0,-0.0707702637,,,
7.8125000000,0,-0.0604400598,,,
7.8281250000,0,0.0196075402,,,
7.8437500000,0,0.2017059028,,,
7.8593750000,0,0.4714354873,,,
7.8750000000,0,0.7462921143,,,
7.8906250000,0,0.9246063232,,,
7.9062500000,0,0.9200286865,,,
7.9218750000,0,0.7017670274,,,
7.9375000000,0,0.3203887939,,,
7.9531250000,0,-0.1196442023,,,
7.9687500000,0,-0.5038756728,,,
7.9843750000,0,-0.7621306777,,,
8.0000000000,1,-0.8740233779,,,
8.0156250000,1,-0.8944396973,,,
8.0312500000,1,-0.8821868896,,,
8.0468750000,1,-0.8693695068,,,
8.0625000000,1,-0.8253479004,,,
8.0781250000,1,-0.6575164795,,,
8.0937500000,1,-0.2913666070,,,
8.1093750000,1,0.2805939019,,,
8.1250000000,1,0.9697875977,,,
8.1406250000,1,1.6056820154,,,
8.1562500000,1,2.0189359188,,,
8.1718750000,1,2.1032099724,,,
8.1875000000,1,1.8786929846,,,
8.2031250000,1,1.4607700109,,,
8.2187500000,1,1.0214389563,,,
8.2343750000,1,0.6844788194,,,
8.2500000000,1,0.5122985840,,,
8.2656250000,1,0.4677124023,,,
8.2812500000,1,0.4675445855,,,
8.2968750000,1,0.4140014946,,,
8.3125000000,1,0.2496643066,,,
8.3281250000,1,-0.0170135498,,,
8.3437500000,1,-0.3278808892,,,
8.3593750000,1,-0.5992584229,,,
8.3750000000,1,-0.7698975205,,,
8.3906250000,1,-0.8107758164,,,
8.4062500000,1,-0.7437133789,,,
8.4218750000,1,-0.6144561768,,,
8.4375000000,1,-0.4673309028,,,
8.4531250000,1,-0.3137817085,,,
8.4687500000,1,-0.1540527046,,,
8.4843750000,1,-0.0024108889,,,
8.5000000000,1,0.1112670973,,,
8.5156250000,1,0.1377106011,,,
8.5312500000,1,0.0610504188,,,
8.5468750000,1,-0.1057586968,,,
8.5625000000,1,-0.3083953857,,,
8.5781250000,1,-0.4626770020,,,
8.5937500000,1,-0.4916228950,,,
8.6093750000,1,-0.3856812119,,,
8.6250000000,1,-0.1682891995,,,
8.6406250000,1,0.0902862474,,,
8.6562500000,1,0.3290100098,,,
8.6718750000,1,0.5102539063,,,
8.6875000000,1,0.6384124756,,,
8.7031250000,1,0.7475891113,,,
8.7187500000,1,0.8769531250,,,
8.7343750000,1,1.0164790154,,,
8.7500000000,1,1.1197969913,,,
8.7656250000,1,1.1105190516,,,
8.7812500000,1,0.9374846816,,,
8.7968750000,1,0.5898895264,,,
8.8125000000,1,0.1155548021,,,
8.8281250000,1,-0.4048157036,,,
8.8437500000,1,-0.8770751953,,,
8.8593750000,1,-1.2250980139,,,
8.8750000000,1,-1.3883359432,,,
8.8906250000,1,-1.3365169764,,,
8.9062500000,1,-1.0697330236,,,
8.9218750000,1,-0.6331635118,,,
8.9375000000,1,-0.1462707967,,,
8.9531250000,1,0.2419127971,,,
8.9687500000,1,0.3898468018,,,
8.9843750000,1,0.2682799995,,,
9.0000000000,1,-0.0234069806,,,
9.0156250000,1,-0.3016205132,,,
9.0312500000,1,-0.3769378960,,,
9.0468750000,1,-0.1865997016,,,
9.0625000000,1,0.1640625000,,,
9.0781250000,1,0.4404143989,,,
9.0937500000,1,0.4383544922,,,
9.1093750000,1,0.0789031982,,,
9.1250000000,1,-0.5190582275,,,
9.1406250000,1,-1.1032409668,,,
9.1562500000,1,-1.4103389978,,,
9.1718750000,1,-1.3046569824,,,
9.1875000000,1,-0.8482360840,,,
9.2031250000,1,-0.2570038140,,,
9.2187500000,1,0.2205810994,,,
9.2343750000,1,0.4138793945,,,
9.2500000000,1,0.3103027046,,,
9.2656250000,1,0.0315246582,,,
9.2812500000,1,-0.2402648926,,,
9.2968750000,1,-0.3600615859,,,
9.3125000000,1,-0.2841033936,,,
9.3281250000,1,-0.0978698730,,,
9.3437500000,1,0.0416259803,,,
9.3593750000,1,-0.0198516808,,,
9.3750000000,1,-0.3570404053,,,
9.3906250000,1,-0.9044647217,,,
9.4062500000,1,-1.4808349609,,,
9.4218750000,1,-1.8586879969,,,
9.4375000000,1,-1.8716429472,,,
9.4531250000,1,-1.4977259636,,,
9.4687500000,1,-0.8780364990,,,
9.4843750000,1,-0.2287292033,,,
9.5000000000,1,0.2646790147,,,
9.5156250000,1,0.5502930284,,,
9.5312500000,1,0.7125092149,,,
9.5468750000,1,0.8975371718,,,
9.5625000000,1,1.2013089657,,,
9.5781250000,1,1.5905460119,,,
9.5937500000,1,1.9391330481,,,
9.6093750000,1,2.1080629826,,,
9.6250000000,1,2.0287630558,,,
9.6406250000,1,1.7222599983,,,
9.6562500000,1,1.2722630501,,,
9.6718750000,1,0.7709503174,,,
9.6875000000,1,0.2680664063,,,
9.7031250000,1,-0.2029571980,,,
9.7187500000,1,-0.5926361084,,,
9.7343750000,1,-0.8461303711,,,
9.7500000000,1,-0.9073944092,,,
9.7656250000,1,-0.7807006836,,,
9.7812500000,1,-0.5487822890,,,
9.7968750000,1,-0.3520965874,,,
9.8125000000,1,-0.3053894043,,,
9.8281250000,1,-0.4415740967,,,
9.8437500000,1,-0.7030487061,,,
9.8593750000,1,-0.9897460938,,,
9.8750000000,1,-1.2227480412,,,
9.8906250000,1,-1.3943480253,,,
9.9062500000,1,-1.5204160213,,,
9.9218750000,1,-1.6020510197,,,
9.9375000000,1,-1.5953669548,,,
9.9531250000,1,-1.4496459961,,,
9.9687500000,1,-1.1390229464,,,
9.9843750000,1,-0.7235565186,,,
10.0000000000,1,-0.3235779107,,,
10.0156250000,1,-0.0788268968,,,
10.0312500000,1,-0.0661010668,,,
10.0468750000,1,-0.2605895996,,,
10.0625000000,1,-0.5500031114,,,
10.0781250000,1,-0.7874146104,,,
10.0937500000,1,-0.8574370742,,,
10.1093750000,1,-0.7032012939,,,
10.1250000000,1,-0.3548279107,,,
10.1406250000,1,0.0933075026,,,
10.1562500000,1,0.5122374892,,,
10.1718750000,1,0.7844238281,,,
10.1875000000,1,0.8451384902,,,
10.2031250000,1,0.6989746094,,,
10.2187500000,1,0.4517517090,,,
10.2343750000,1,0.2385711968,,,
10.2500000000,1,0.1812592000,,,
10.2656250000,1,0.3297882080,,,
10.2812500000,1,0.6526489258,,,
10.2968750000,1,1.0455019474,,,
10.3125000000,1,1.3909150362,,,
10.3281250000,1,1.6031949520,,,
10.3437500000,1,1.6452330351,,,
10.3593750000,1,1.5508270264,,,
10.3750000000,1,1.3995970488,,,
10.3906250000,1,1.2670589685,,,
10.4062500000,1,1.1905820370,,,
10.4218750000,1,1.1570130587,,,
10.4375000000,1,1.1188349724,,,
10.4531250000,1,1.0309599638,,,
10.4687500000,1,0.8983154297,,,
10.4843750000,1,0.7635955811,,,
10.5000000000,1,0.6727753282,,,
10.5156250000,1,0.6110228896,,,
10.5312500000,1,0.5061339736,,,
10.5468750000,1,0.2575989068,,,
10.5625000000,1,-0.1656342000,,,
10.5781250000,1,-0.6683197021,,,
10.5937500000,1,-1.0690310001,,,
10.6093750000,1,-1.1628110409,,,
10.6250000000,1,-0.8727722168,,,
10.6406250000,1,-0.2901917100,,,
10.6562500000,1,0.3419036865,,,
10.6718750000,1,0.7698516846,,,
10.6875000000,1,0.8523712158,,,
10.7031250000,1,0.6117095947,,,
10.7187500000,1,0.2053222954,,,
10.7343750000,1,-0.1792297065,,,
10.7500000000,1,-0.4208069146,,,
10.7656250000,1,-0.4941405952,,,
10.7812500000,1,-0.4479370117,,,
10.7968750000,1,-0.3609313965,,,
10.8125000000,1,-0.2907867134,,,
10.8281250000,1,-0.2709197998,,,
10.8437500000,1,-0.3055267036,,,
10.8593750000,1,-0.3807525933,,,
10.8750000000,1,-0.4667663872,,,
10.8906250000,1,-0.5274506211,,,
10.9062500000,1,-0.5289459229,,,
10.9218750000,1,-0.4550780952,,,
10.9375000000,1,-0.3134307861,,,
10.9531250000,1,-0.1409911960,,,
10.9687500000,1,0.0281066895,,,
10.9843750000,1,0.1776428074,,,
11.0000000000,1,0.3118895888,,,
11.0156250000,1,0.4484862983,,,
11.0312500000,1,0.6050568223,,,
11.0468750000,1,0.7630156875,,,
11.0625000000,1,0.8855286241,,,
11.0781250000,1,0.9513245225,,,
11.0937500000,1,0.9606475830,,,
11.1093750000,1,0.9576721191,,,
11.1250000000,1,0.9933472276,,,
11.1406250000,1,1.0936280489,,,
11.1562500000,1,1.2301939726,,,
11.1718750000,1,1.3548430204,,,
11.1875000000,1,1.4133449793,,,
11.2031250000,1,1.3839420080,,,
11.2187500000,1,1.2797390223,,,
11.2343750000,1,1.1297450066,,,
11.2500000000,1,0.9383850098,,,
11.2656250000,1,0.6768035889,,,
11.2812500000,1,0.3058471978,,,
11.2968750000,1,-0.1912079006,,,
11.3125000000,1,-0.7478942871,,,
11.3281250000,1,-1.2262270451,,,
11.3437500000,1,-1.4798890352,,,
11.3593750000,1,-1.4480739832,,,
11.3750000000,1,-1.1969599724,,,
11.3906250000,1,-0.9038544297,,,
11.4062500000,1,-0.7481384277,,,
11.4218750000,1,-0.8165131211,,,
11.4375000000,1,-1.0433349609,,,
11.4531250000,1,-1.2660679817,,,
11.4687500000,1,-1.3089599609,,,
11.4843750000,1,-1.1043850183,,,
11.5000000000,1,-0.7071990967,,,
11.5156250000,1,-0.2812195122,,,
11.5312500000,1,0.0050353999,,,
11.5468750000,1,0.0576934814,,,
11.5625000000,1,-0.1122284010,,,
11.5781250000,1,-0.4257813096,,,
11.5937500000,1,-0.7950745225,,,
11.6093750000,1,-1.1639859676,,,
11.6250000000,1,-1.4915469885,,,
11.6406250000,1,-1.7373349667,,,
11.6562500000,1,-1.8363800049,,,
11.6718750000,1,-1.7202450037,,,
11.6875000000,1,-1.3477020264,,,
11.7031250000,1,-0.7562714219,,,
11.7187500000,1,-0.0446777306,,,
11.7343750000,1,0.6535797119,,,
11.7500000000,1,1.2111660242,,,
11.7656250000,1,1.5483859777,,,
11.7812500000,1,1.6587519646,,,
11.7968750000,1,1.5923310518,,,
11.8125000000,1,1.4127960205,,,
11.8281250000,1,1.2141269445,,,
11.8437500000,1,1.0616149902,,,
11.8593750000,1,0.9819641113,,,
11.8750000000,1,0.9503021240,,,
11.8906250000,1,0.9146729112,,,
11.9062500000,1,0.8340302110,,,
11.9218750000,1,0.6976317763,,,
11.9375000000,1,0.5312957764,,,
11.9531250000,1,0.3776245117,,,
11.9687500000,1,0.2557525933,,,
11.9843750000,1,0.1429748982,,,
12.0000000000,1,0.0234527607,,,
12.0156250000,1,-0.0941467285,,,
12.0312500000,1,-0.1597290039,,,
12.0468750000,1,-0.1122589037,,,
12.0625000000,1,0.0680084229,,,
12.0781250000,1,0.3038634956,,,
12.0937500000,1,0.4562683105,,,
12.1093750000,1,0.3944396973,,,
12.1250000000,1,0.0820922926,,,
12.1406250000,1,-0.3970642090,,,
12.1562500000,1,-0.8703308105,,,
12.1718750000,1,-1.1949310303,,,
12.1875000000,1,-1.3096009493,,,
12.2031250000,1,-1.2863160372,,,
12.2187500000,1,-1.2376860380,,,
12.2343750000,1,-1.2400510311,,,
12.2500000000,1,-1.2829740047,,,
12.2656250000,1,-1.2864459753,,,
12.2812500000,1,-1.1632540226,,,
12.2968750000,1,-0.8781661987,,,
12.3125000000,1,-0.4966354072,,,
12.3281250000,1,-0.1334839016,,,
12.3437500000,1,0.1042862013,,,
12.3593750000,1,0.1872176975,,,
12.3750000000,1,0.1685791016,,,
12.3906250000,1,0.1462554932,,,
12.4062500000,1,0.1902541965,,,
12.4218750000,1,0.3025664985,,,
12.4375000000,1,0.3916091919,,,
12.4531250000,1,0.3473891914,,,
12.4687500000,1,0.1095580980,,,
12.4843750000,1,-0.2920303047,,,
12.5000000000,1,-0.7280272841,,,
12.5156250000,1,-1.0376050472,,,
12.5312500000,1,-1.0845259428,,,
12.5468750000,1,-0.8339920044,,,
12.5625000000,1,-0.3469542861,,,
12.5781250000,1,0.2207107991,,,
12.5937500000,1,0.7032546997,,,
12.6093750000,1,0.9829254150,,,
12.6250000000,1,1.0356520414,,,
12.6406250000,1,0.9292907715,,,
12.6562500000,1,0.7619400024,,,
12.6718750000,1,0.6198195815,,,
12.6875000000,1,0.5271378160,,,
12.7031250000,1,0.4589081109,,,
12.7187500000,1,0.3731307983,,,
12.7343750000,1,0.2443085015,,,
12.7500000000,1,0.0868072510,,,
12.7656250000,1,-0.0677795410,,,
12.7812500000,1,-0.1915207058,,,
12.7968750000,1,-0.2893218994,,,
12.8125000000,1,-0.3963927925,,,
12.8281250000,1,-0.5351334214,,,
12.8437500000,1,-0.6736373901,,,
12.8593750000,1,-0.7509688735,,,
12.8750000000,1,-0.6936798096,,,
12.8906250000,1,-0.4859619141,,,
12.9062500000,1,-0.2006226033,,,
12.9218750000,1,0.0478820801,,,
12.9375000000,1,0.1470565945,,,
12.9531250000,1,0.0615615807,,,
12.9687500000,1,-0.1510162055,,,
12.9843750000,1,-0.3695679009,,,
13.0000000000,1,-0.4760971069,,,
13.0156250000,1,-0.4208450019,,,
13.0312500000,1,-0.2369080037,,,
13.0468750000,1,-0.0130310096,,,
13.0625000000,1,0.1604080051,,,
13.0781250000,1,0.2327651978,,,
13.0937500000,1,0.2188110054,,,
13.1093750000,1,0.1666945964,,,
13.1250000000,1,0.1188888997,,,
13.1406250000,1,0.0985488892,,,
13.1562500000,1,0.1060181037,,,
13.1718750000,1,0.1370162964,,,
13.1875000000,1,0.1959304959,,,
13.2031250000,1,0.3075638115,,,
13.2187500000,1,0.4825438857,,,
13.2343750000,1,0.7085037231,,,
13.2500000000,1,0.9338837266,,,
13.2656250000,1,1.0665279627,,,
13.2812500000,1,1.0183639526,,,
13.2968750000,1,0.7564086914,,,
13.3125000000,1,0.3389205933,,,
13.3281250000,1,-0.1116333008,,,
13.3437500000,1,-0.4309844971,,,
13.3593750000,1,-0.5238571167,,,
13.3750000000,1,-0.3921279907,,,
13.3906250000,1,-0.1537781060,,,
13.4062500000,1,0.0205001794,,,
13.4218750000,1,0.0000839233,,,
13.4375000000,1,-0.2325668037,,,
13.4531250000,1,-0.5798339844,,,
13.4687500000,1,-0.8722686768,,,
13.4843750000,1,-0.9697800279,,,
13.5000000000,1,-0.8320770264,,,
13.5156250000,1,-0.5252686143,,,
13.5312500000,1,-0.1784286052,,,
13.5468750000,1,0.1057280973,,,
13.5625000000,1,0.2872543037,,,
13.5781250000,1,0.3836059868,,,
13.5937500000,1,0.4384841919,,,
13.6093750000,1,0.4838486016,,,
13.6250000000,1,0.5248336792,,,
13.6406250000,1,0.5507965088,,,
13.6562500000,1,0.5765761733,,,
13.6718750000,1,0.6183624268,,,
13.6875000000,1,0.6874771118,,,
13.7031250000,1,0.7594069839,,,
13.7187500000,1,0.7780532837,,,
13.7343750000,1,0.6785277724,,,
13.7500000000,1,0.4357757866,,,
13.7656250000,1,0.0875473022,,,
13.7812500000,1,-0.2785339057,,,
13.7968750000,1,-0.5790557861,,,
13.8125000000,1,-0.7770004272,,,
13.8281250000,1,-0.9082108140,,,
13.8437500000,1,-1.0291819572,,,
13.8593750000,1,-1.2038120031,,,
13.8750000000,1,-1.4419169426,,,
13.8906250000,1,-1.7015149593,,,
13.9062500000,1,-1.9069750309,,,
13.9218750000,1,-1.9972690344,,,
13.9375000000,1,-1.9438400269,,,
13.9531250000,1,-1.7688219547,,,
13.9687500000,1,-1.5138239861,,,
13.9843750000,1,-1.2139279842,,,
14.0000000000,1,-0.9006500244,,,
14.0156250000,1,-0.5830230713,,,
14.0312500000,1,-0.2924728096,,,
14.0468750000,1,-0.0570373498,,,
14.0625000000,1,0.0939025879,,,
14.0781250000,1,0.1564102024,,,
14.0937500000,1,0.1455307007,,,
14.1093750000,1,0.1061019972,,,
14.1250000000,1,0.0971374512,,,
14.1406250000,1,0.1688461006,,,
14.1562500000,1,0.3327332139,,,
14.1718750000,1,0.5595169067,,,
14.1875000000,1,0.7846221924,,,
14.2031250000,1,0.9161682129,,,
14.2187500000,1,0.9204254150,,,
14.2343750000,1,0.8191375732,,,
14.2500000000,1,0.7094573975,,,
14.2656250000,1,0.7086029053,,,
14.2812500000,1,0.8886718750,,,
14.2968750000,1,1.2236629725,,,
14.3125000000,1,1.5846710205,,,
14.3281250000,1,1.7951970100,,,
14.3437500000,1,1.7093509436,,,
14.3593750000,1,1.2927550077,,,
14.3750000000,1,0.6344757080,,,
14.3906250000,1,-0.0881652832,,,
14.4062500000,1,-0.6820526123,,,
14.4218750000,1,-1.0104680061,,,
14.4375000000,1,-1.0305329561,,,
14.4531250000,1,-0.7922974229,,,
14.4687500000,1,-0.3951111138,,,
14.4843750000,1,0.0521240197,,,
14.5000000000,1,0.4665221870,,,
14.5156250000,1,0.8193969727,,,
14.5312500000,1,1.1027070284,,,
14.5468750000,1,1.3166500330,,,
14.5625000000,1,1.4346770048,,,
14.5781250000,1,1.4313050508,,,
14.5937500000,1,1.2930910587,,,
14.6093750000,1,1.0641020536,,,
14.6250000000,1,0.8334044814,,,
14.6406250000,1,0.7090454102,,,
14.6562500000,1,0.7190093994,,,
14.6718750000,1,0.7883452773,,,
14.6875000000,1,0.7729796767,,,
14.7031250000,1,0.5438385010,,,
14.7187500000,1,0.0896453932,,,
14.7343750000,1,-0.4588775933,,,
14.7500000000,1,-0.9013671875,,,
14.7656250000,1,-1.0903320313,,,
14.7812500000,1,-1.0344090462,,,
14.7968750000,1,-0.8845366836,,,
14.8125000000,1,-0.8316649795,,,
14.8281250000,1,-0.9643859863,,,
14.8437500000,1,-1.2012629509,,,
14.8593750000,1,-1.3322449923,,,
14.8750000000,1,-1.1767580509,,,
14.8906250000,1,-0.7051926255,,,
14.9062500000,1,-0.0679931566,,,
14.9218750000,1,0.4803313911,,,
14.9375000000,1,0.7448577881,,,
14.9531250000,1,0.6842194200,,,
14.9687500000,1,0.4110412896,,,
14.9843750000,1,0.1008910984,,,
15.0000000000,1,-0.1436614990,,,
15.0156250000,1,-0.3334502876,,,
15.0312500000,1,-0.5519409180,,,
15.0468750000,1,-0.8598937988,,,
15.0625000000,1,-1.2372280359,,,
15.0781250000,1,-1.5620119572,,,
15.0937500000,1,-1.7196500301,,,
15.1093750000,1,-1.6769709587,,,
15.1250000000,1,-1.5215150118,,,
15.1406250000,1,-1.3812710047,,,
15.1562500000,1,-1.3465880156,,,
15.1718750000,1,-1.4176330566,,,
15.1875000000,1,-1.4991610050,,,
15.2031250000,1,-1.4914400578,,,
15.2187500000,1,-1.3538969755,,,
15.2343750000,1,-1.1311650276,,,
15.2500000000,1,-0.9160919189,,,
15.2656250000,1,-0.7689666748,,,
15.2812500000,1,-0.6986083984,,,
15.2968750000,1,-0.6736754775,,,
15.3125000000,1,-0.6613007188,,,
15.3281250000,1,-0.6820220947,,,
15.3437500000,1,-0.7800750732,,,
15.3593750000,1,-0.9639586806,,,
15.3750000000,1,-1.1612850428,,,
15.3906250000,1,-1.2230830193,,,
15.4062500000,1,-0.9766845703,,,
15.4218750000,1,-0.3478699028,,,
15.4375000000,1,0.5945128798,,,
15.4531250000,1,1.6429140568,,,
15.4687500000,1,2.5212399960,,,
15.4843750000,1,3.0076448917,,,
15.5000000000,1,3.0023040771,,,
15.5156250000,1,2.5432589054,,,
15.5312500000,1,1.7889859676,,,
15.5468750000,1,0.9638519287,,,
15.5625000000,1,0.2985534966,,,
15.5781250000,1,-0.0250091609,,,
15.5937500000,1,0.0812988281,,,
15.6093750000,1,0.5694580078,,,
15.6250000000,1,1.2548220158,,,
15.6406250000,1,1.9004670382,,,
15.6562500000,1,2.3033909798,,,
15.6718750000,1,2.3808751106,,,
15.6875000000,1,2.1957859993,,,
15.7031250000,1,1.9025570154,,,
15.7187500000,1,1.6480410099,,,
15.7343750000,1,1.4925379753,,,
15.7500000000,1,1.3895109892,,,
15.7656250000,1,1.2400050163,,,
15.7812500000,1,0.9865416884,,,
15.7968750000,1,0.6595305800,,,
15.8125000000,1,0.3511658013,,,
15.8281250000,1,0.1296844035,,,
15.8437500000,1,-0.0158081092,,,
15.8593750000,1,-0.1791533977,,,
15.8750000000,1,-0.4673309028,,,
15.8906250000,1,-0.8997802734,,,
15.9062500000,1,-1.3663940430,,,
15.9218750000,1,-1.6767270565,,,
15.9375000000,1,-1.6779630184,,,
15.9531250000,1,-1.3591309786,,,
15.9687500000,1,-0.8668671250,,,
15.9843750000,1,-0.4253386855,,,
16.0000000000,2,-0.1915894002,,,
16.0156250000,2,-0.1723479927,,,
16.0312500000,2,-0.2240753025,,,
16.0468750000,2,-0.1897583008,,,
16.0625000000,2,-0.0201721191,,,
16.0781250000,2,0.1630706936,,,
16.0937500000,2,0.1491089016,,,
16.1093750000,2,-0.2158202976,,,
16.1250000000,2,-0.9048308730,,,
16.1406250000,2,-1.6807709932,,,
16.1562500000,2,-2.2281649113,,,
16.1718750000,2,-2.2848050594,,,
16.1875000000,2,-1.7977139950,,,
16.2031250000,2,-0.9208068848,,,
16.2187500000,2,0.0765838623,,,
16.2343750000,2,0.9472960830,,,
16.2500000000,2,1.5402829647,,,
16.2656250000,2,1.8246459961,,,
16.2812500000,2,1.8336639404,,,
16.2968750000,2,1.6215059757,,,
16.3125000000,2,1.2419589758,,,
16.3281250000,2,0.7588195801,,,
16.3437500000,2,0.2545776069,,,
16.3593750000,2,-0.1609497070,,,
16.3750000000,2,-0.4067992866,,,
16.3906250000,2,-0.4483185112,,,
16.4062500000,2,-0.3155212104,,,
16.4218750000,2,-0.0827941895,,,
16.4375000000,2,0.1633300930,,,
16.4531250000,2,0.3422546089,,,
16.4687500000,2,0.3956908882,,,
16.4843750000,2,0.2902069092,,,
16.5000000000,2,0.0377349891,,,
16.5156250000,2,-0.2966308892,,,
16.5312500000,2,-0.5943756104,,,
16.5468750000,2,-0.7329558730,,,
16.5625000000,2,-0.6391754150,,,
16.5781250000,2,-0.3391265869,,,
16.5937500000,2,0.0507812500,,,
16.6093750000,2,0.3554688096,,,
16.6250000000,2,0.4260405898,,,
16.6406250000,2,0.2220612019,,,
16.6562500000,2,-0.2011414021,,,
16.6718750000,2,-0.6813201904,,,
16.6875000000,2,-1.0244450569,,,
16.7031250000,2,-1.0746920109,,,
16.7187500000,2,-0.7713013291,,,
16.7343750000,2,-0.1628571004,,,
16.7500000000,2,0.5806121826,,,
16.7656250000,2,1.2364809513,,,
16.7812500000,2,1.6099090576,,,
16.7968750000,2,1.5954899788,,,
16.8125000000,2,1.2201689482,,,
16.8281250000,2,0.6213684082,,,
16.8437500000,2,-0.0373230018,,,
16.8593750000,2,-0.6132659912,,,
16.8750000000,2,-1.0409699678,,,
16.8906250000,2,-1.3045649529,,,
16.9062500000,2,-1.4197690487,,,
16.9218750000,2,-1.4070589542,,,
16.9375000000,2,-1.2936710119,,,
16.9531250000,2,-1.1314699650,,,
16.9687500000,2,-1.0003199577,,,
16.9843750000,2,-0.9784088135,,,
17.0000000000,2,-1.1099400520,,,
17.0156250000,2,-1.3613890409,,,
17.0312500000,2,-1.6256259680,,,
17.0468750000,2,-1.7696379423,,,
17.0625000000,2,-1.6932369471,,,
17.0781250000,2,-1.3887480497,,,
17.0937500000,2,-0.9317321777,,,
17.1093750000,2,-0.4326018989,,,
17.1250000000,2,0.0162506104,,,
17.1406250000,2,0.3780212104,,,
17.1562500000,2,0.6461791992,,,
17.1718750000,2,0.8096160889,,,
17.1875000000,2,0.8185883164,,,
17.2031250000,2,0.6034088135,,,
17.2187500000,2,0.1354674995,,,
17.2343750000,2,-0.5233001709,,,
17.2500000000,2,-1.2179410458,,,
17.2656250000,2,-1.7845000029,,,
17.2812500000,2,-2.1154630184,,,
17.2968750000,2,-2.2237238884,,,
17.3125000000,2,-2.2225649357,,,
17.3281250000,2,-2.2367100716,,,
17.3437500000,2,-2.3463749886,,,
17.3593750000,2,-2.5340270996,,,
17.3750000000,2,-2.7326049805,,,
17.3906250000,2,-2.8463900089,,,
17.4062500000,2,-2.8243560791,,,
17.4218750000,2,-2.6564478874,,,
17.4375000000,2,-2.3761439323,,,
17.4531250000,2,-2.0214838982,,,
17.4687500000,2,-1.6275329590,,,
17.4843750000,2,-1.2285310030,,,
17.5000000000,2,-0.8531035781,,,
17.5156250000,2,-0.5232697129,,,
17.5312500000,2,-0.2395019978,,,
17.5468750000,2,-0.0047454829,,,
17.5625000000,2,0.1817779988,,,
17.5781250000,2,0.2848815918,,,
17.5937500000,2,0.2107391059,,,
17.6093750000,2,-0.1727752984,,,
17.6250000000,2,-0.9620513916,,,
17.6406250000,2,-2.1548459530,,,
17.6562500000,2,-3.5730900764,,,
17.6718750000,2,-4.8746490479,,,
17.6875000000,2,-5.6355590820,,,
17.7031250000,2,-5.4927830696,,,
17.7187500000,2,-4.2888641357,,,
17.7343750000,2,-2.1458890438,,,
17.7500000000,2,0.5829467773,,,
17.7656250000,2,3.4152219296,,,
17.7812500000,2,5.9276118279,,,
17.7968750000,2,7.8578948975,,,
17.8125000000,2,9.1174926758,,,
17.8281250000,2,9.7600708008,,,
17.8437500000,2,9.8886566162,,,
17.8593750000,2,9.6286926270,,,
17.8750000000,2,9.1029510498,,,
17.8906250000,2,8.4532165527,,,
17.9062500000,2,7.8441009521,,,
17.9218750000,2,7.4119110107,,,
17.9375000000,2,7.1852259636,,,
17.9531250000,2,7.0661931038,,,
17.9687500000,2,6.8594059944,,,
17.9843750000,2,6.3499598503,,,
18.0000000000,2,5.4033660889,,,
18.0156250000,2,4.0267329216,,,
18.0312500000,2,2.3612670898,,,
18.0468750000,2,0.6143494248,,,
18.0625000000,2,-1.0064849854,,,
18.0781250000,2,-2.3566889763,,,
18.0937500000,2,-3.3481140137,,,
18.1093750000,2,-3.9643399715,,,
18.1250000000,2,-4.2177281380,,,
18.1406250000,2,-4.1507258415,,,
18.1562500000,2,-3.8349759579,,,
18.1718750000,2,-3.3702700138,,,
18.1875000000,2,-2.8654019833,,,
18.2031250000,2,-2.3912808895,,,
18.2187500000,2,-1.9723210335,,,
18.2343750000,2,-1.5800629854,,,
18.2500000000,2,-1.1700439453,,,
18.2656250000,2,-0.7358397841,,,
18.2812500000,2,-0.3007507026,,,
18.2968750000,2,0.0761260986,,,
18.3125000000,2,0.3275451958,,,
18.3281250000,2,0.4155426025,,,
18.3437500000,2,0.3261565864,,,
18.3593750000,2,0.0999298096,,,
18.3750000000,2,-0.1571502984,,,
18.3906250000,2,-0.3290100098,,,
18.4062500000,2,-0.3168793023,,,
18.4218750000,2,-0.0993041992,,,
18.4375000000,2,0.2326049954,,,
18.4531250000,2,0.5187988281,,,
18.4687500000,2,0.6118927002,,,
18.4843750000,2,0.4679259956,,,
18.5000000000,2,0.1597443074,,,
18.5156250000,2,-0.1442718953,,,
18.5312500000,2,-0.3135071099,,,
18.5468750000,2,-0.3258056939,,,
18.5625000000,2,-0.2785797119,,,
18.5781250000,2,-0.3057709038,,,
18.5937500000,2,-0.4740447998,,,
18.6093750000,2,-0.7330933213,,,
18.6250000000,2,-0.9777526855,,,
18.6406250000,2,-1.1270749569,,,
18.6562500000,2,-1.1957550049,,,
18.6718750000,2,-1.2719119787,,,
18.6875000000,2,-1.4383699894,,,
18.7031250000,2,-1.6833649874,,,
18.7187500000,2,-1.9018100500,,,
18.7343750000,2,-1.9610899687,,,
18.7500000000,2,-1.7867130041,,,
18.7656250000,2,-1.4047089815,,,
18.7812500000,2,-0.9132996202,,,
18.7968750000,2,-0.4004364014,,,
18.8125000000,2,0.0957336426,,,
18.8281250000,2,0.6121215820,,,
18.8437500000,2,1.1925959587,,,
18.8593750000,2,1.8362120390,,,
18.8750000000,2,2.4900209904,,,
18.8906250000,2,3.0681920052,,,
18.9062500000,2,3.4841771126,,,
18.9218750000,2,3.6872100830,,,
18.9375000000,2,3.6598660946,,,
18.9531250000,2,3.4316101074,,,
18.9687500000,2,3.0417790413,,,
18.9843750000,2,2.5565190315,,,
19.0000000000,2,2.0121920109,,,
19.0156250000,2,1.4307399988,,,
19.0312500000,2,0.8277893066,,,
19.0468750000,2,0.2237700969,,,
19.0625000000,2,-0.3513947129,,,
19.0781250000,2,-0.8193358779,,,
19.0937500000,2,-1.1125179529,,,
19.1093750000,2,-1.1852569580,,,
19.1250000000,2,-1.0599670410,,,
19.1406250000,2,-0.8032531738,,,
19.1562500000,2,-0.5161743164,,,
19.1718750000,2,-0.2647551894,,,
19.1875000000,2,-0.0803375170,,,
19.2031250000,2,0.0478210412,,,
19.2187500000,2,0.1484375000,,,
19.2343750000,2,0.2434691936,,,
19.2500000000,2,0.3323974907,,,
19.2656250000,2,0.4019165039,,,
19.2812500000,2,0.4046782851,,,
19.2968750000,2,0.2863006890,,,
19.3125000000,2,-0.0139617901,,,
19.3281250000,2,-0.5093535781,,,
19.3437500000,2,-1.1155400276,,,
19.3593750000,2,-1.6638790369,,,
19.3750000000,2,-1.9650119543,,,
19.3906250000,2,-1.8782650232,,,
19.4062500000,2,-1.3947750330,,,
19.4218750000,2,-0.6652832031,,,
19.4375000000,2,0.0616302490,,,
19.4531250000,2,0.5797576904,,,
19.4687500000,2,0.7668457031,,,
19.4843750000,2,0.6366118789,,,
19.5000000000,2,0.2724761963,,,
19.5156250000,2,-0.2426909953,,,
19.5312500000,2,-0.8740844727,,,
19.5468750000,2,-1.5765689611,,,
19.5625000000,2,-2.3059229851,,,
19.5781250000,2,-2.9651639462,,,
19.5937500000,2,-3.4596560001,,,
19.6093750000,2,-3.7691960335,,,
19.6250000000,2,-4.0040740967,,,
19.6406250000,2,-4.3387761116,,,
19.6562500000,2,-4.9182591438,,,
19.6718750000,2,-5.6908421516,,,
19.6875000000,2,-6.3735051155,,,
19.7031250000,2,-6.5473179817,,,
19.7187500000,2,-5.8737030029,,,
19.7343750000,2,-4.2629551888,,,
19.7500000000,2,-1.9735870361,,,
19.7656250000,2,0.5154418945,,,
19.7812500000,2,2.7038879395,,,
19.7968750000,2,4.2740478516,,,
19.8125000000,2,5.1471099854,,,
19.8281250000,2,5.4281311035,,,
19.8437500000,2,5.2833399773,,,
19.8593750000,2,4.8543548584,,,
19.8750000000,2,4.2242889404,,,
19.8906250000,2,3.4524540901,,,
19.9062500000,2,2.6303861141,,,
19.9218750000,2,1.8661500216,,,
19.9375000000,2,1.2562869787,,,
19.9531250000,2,0.8623961806,,,
19.9687500000,2,0.6905670166,,,
19.9843750000,2,0.7156829834,,,
20.0000000000,2,0.8880004883,,,
20.0156250000,2,1.1627500057,,,
20.0312500000,2,1.4803620577,,,
20.0468750000,2,1.8099980354,,,
20.0625000000,2,2.1495358944,,,
20.0781250000,2,2.5393519402,,,
20.0937500000,2,3.0225520134,,,
20.1093750000,2,3.6116940975,,,
20.1250000000,2,4.2426757813,,,
20.1406250000,2,4.8012242317,,,
20.1562500000,2,5.1636199951,,,
20.1718750000,2,5.2684168816,,,
20.1875000000,2,5.1182861328,,,
20.2031250000,2,4.7621607780,,,
20.2187500000,2,4.2368011475,,,
20.2343750000,2,3.5591430664,,,
20.2500000000,2,2.7475430965,,,
20.2656250000,2,1.8548129797,,,
20.2812500000,2,0.9832611084,,,
20.2968750000,2,0.2344817966,,,
20.3125000000,2,-0.3514252007,,,
20.3281250000,2,-0.8054047227,,,
20.3437500000,2,-1.2059019804,,,
20.3593750000,2,-1.6046750546,,,
20.3750000000,2,-1.9973599911,,,
20.3906250000,2,-2.3350520134,,,
20.4062500000,2,-2.5651090145,,,
20.4218750000,2,-2.6886439323,,,
20.4375000000,2,-2.7491300106,,,
20.4531250000,2,-2.8105618954,,,
20.4687500000,2,-2.9139559269,,,
20.4843750000,2,-3.0349578857,,,
20.5000000000,2,-3.1123659611,,,
20.5156250000,2,-3.0657498837,,,
20.5312500000,2,-2.8541409969,,,
20.5468750000,2,-2.5057530403,,,
20.5625000000,2,-2.1170649529,,,
20.5781250000,2,-1.7835079432,,,
20.5937500000,2,-1.5979770422,,,
20.6093750000,2,-1.5836639404,,,
20.6250000000,2,-1.6985319853,,,
20.6406250000,2,-1.8573299646,,,
20.6562500000,2,-1.9797669649,,,
20.6718750000,2,-2.0029449463,,,
20.6875000000,2,-1.9381710291,,,
20.7031250000,2,-1.8450930119,,,
20.7187500000,2,-1.7763819695,,,
20.7343750000,2,-1.7571259737,,,
20.7500000000,2,-1.7569270134,,,
20.7656250000,2,-1.7290190458,,,
20.7812500000,2,-1.6543430090,,,
20.7968750000,2,-1.5484770536,,,
20.8125000000,2,-1.4254460335,,,
20.8281250000,2,-1.2965550423,,,
20.8437500000,2,-1.1393280029,,,
20.8593750000,2,-0.9179840088,,,
20.8750000000,2,-0.6316832900,,,
20.8906250000,2,-0.3253326118,,,
20.9062500000,2,-0.0589599609,,,
20.9218750000,2,0.1140900031,,,
20.9375000000,2,0.1933441013,,,
20.9531250000,2,0.2330016941,,,
20.9687500000,2,0.2941131890,,,
20.9843750000,2,0.3973082900,,,
21.0000000000,2,0.4916228950,,,
21.0156250000,2,0.4809113145,,,
21.0312500000,2,0.3001098931,,,
21.0468750000,2,-0.0223541297,,,
21.0625000000,2,-0.3712005913,,,
21.0781250000,2,-0.5725250244,,,
21.0937500000,2,-0.4830017090,,,
21.1093750000,2,-0.0749969482,,,
21.1250000000,2,0.5666503906,,,
21.1406250000,2,1.2806849480,,,
21.1562500000,2,1.8807979822,,,
21.1718750000,2,2.2468569279,,,
21.1875000000,2,2.3587648869,,,
21.2031250000,2,2.2874760628,,,
21.2187500000,2,2.1485290527,,,
21.2343750000,2,2.0414888859,,,
21.2500000000,2,1.9871670008,,,
21.2656250000,2,1.9346920252,,,
21.2812500000,2,1.7968139648,,,
21.2968750000,2,1.5119320154,,,
21.3125000000,2,1.1006619930,,,
21.3281250000,2,0.6550902724,,,
21.3437500000,2,0.2904357910,,,
21.3593750000,2,0.0739135668,,,
21.3750000000,2,0.0026855471,,,
21.3906250000,2,-0.0215759296,,,
21.4062500000,2,-0.0934600830,,,
21.4218750000,2,-0.2642669976,,,
21.4375000000,2,-0.5159760118,,,
21.4531250000,2,-0.7634276748,,,
21.4687500000,2,-0.9151610732,,,
21.4843750000,2,-0.9254608154,,,
21.5000000000,2,-0.8117675781,,,
21.5156250000,2,-0.6597747803,,,
21.5312500000,2,-0.5704956055,,,
21.5468750000,2,-0.5985717773,,,
21.5625000000,2,-0.7498779297,,,
21.5781250000,2,-0.9691467285,,,
21.5937500000,2,-1.1569370031,,,
21.6093750000,2,-1.2045439482,,,
21.6250000000,2,-1.0232700109,,,
21.6406250000,2,-0.5774993896,,,
21.6562500000,2,0.0906219482,,,
21.6718750000,2,0.8343657851,,,
21.6875000000,2,1.4408869743,,,
21.7031250000,2,1.7017359734,,,
21.7187500000,2,1.5012660027,,,
21.7343750000,2,0.8946074843,,,
21.7500000000,2,0.0952758789,,,
21.7656250000,2,-0.5992888808,,,
21.7812500000,2,-0.9648438096,,,
21.7968750000,2,-0.9220427871,,,
21.8125000000,2,-0.5766602159,,,
21.8281250000,2,-0.1360930949,,,
21.8437500000,2,0.1994324028,,,
21.8593750000,2,0.3147735894,,,
21.8750000000,2,0.2091064006,,,
21.8906250000,2,-0.0867004395,,,
21.9062500000,2,-0.5228118896,,,
21.9218750000,2,-1.0535889864,,,
21.9375000000,2,-1.6313929558,,,
21.9531250000,2,-2.1701660156,,,
21.9687500000,2,-2.5464780331,,,
21.9843750000,2,-2.6582179070,,,
22.0000000000,2,-2.4602808952,,,
22.0156250000,2,-2.0050659180,,,
22.0312500000,2,-1.4252320528,,,
22.0468750000,2,-0.8590850830,,,
22.0625000000,2,-0.4082336128,,,
22.0781250000,2,-0.0925445631,,,
22.0937500000,2,0.1376952976,,,
22.1093750000,2,0.3568114936,,,
22.1250000000,2,0.6168518066,,,
22.1406250000,2,0.9304503798,,,
22.1562500000,2,1.2678990364,,,
22.1718750000,2,1.5799560547,,,
22.1875000000,2,1.8458859921,,,
22.2031250000,2,2.0838170052,,,
22.2187500000,2,2.3163149357,,,
22.2343750000,2,2.5507969856,,,
22.2500000000,2,2.7380828857,,,
22.2656250000,2,2.7882230282,,,
22.2812500000,2,2.6035609245,,,
22.2968750000,2,2.1324009895,,,
22.3125000000,2,1.4106750488,,,
22.3281250000,2,0.5686035156,,,
22.3437500000,2,-0.2216186970,,,
22.3593750000,2,-0.7969512939,,,
22.3750000000,2,-1.0683590174,,,
22.3906250000,2,-1.0593869686,,,
22.4062500000,2,-0.8725585938,,,
22.4218750000,2,-0.6429749131,,,
22.4375000000,2,-0.4598694146,,,
22.4531250000,2,-0.3651123047,,,
22.4687500000,2,-0.3260802925,,,
22.4843750000,2,-0.2955017090,,,
22.5000000000,2,-0.2221069038,,,
22.5156250000,2,-0.1033478007,,,
22.5312500000,2,0.0353241004,,,
22.5468750000,2,0.1545868069,,,
22.5625000000,2,0.2188872993,,,
22.5781250000,2,0.2148589939,,,
22.5937500000,2,0.1636810005,,,
22.6093750000,2,0.0860748291,,,
22.6250000000,2,0.0009002686,,,
22.6406250000,2,-0.0837860107,,,
22.6562500000,2,-0.1657561958,,,
22.6718750000,2,-0.2661896050,,,
22.6875000000,2,-0.4069671929,,,
22.7031250000,2,-0.5853729248,,,
22.7187500000,2,-0.7869873047,,,
22.7343750000,2,-0.9612885118,,,
22.7500000000,2,-1.0611109734,,,
22.7656250000,2,-1.0594480038,,,
22.7812500000,2,-0.9815673828,,,
22.7968750000,2,-0.8920288086,,,
22.8125000000,2,-0.8551177979,,,
22.8281250000,2,-0.8972167969,,,
22.8437500000,2,-0.9837036133,,,
22.8593750000,2,-1.0257259607,,,
22.8750000000,2,-0.9472656250,,,
22.8906250000,2,-0.7195128798,,,
22.9062500000,2,-0.3801726997,,,
22.9218750000,2,-0.0170974694,,,
22.9375000000,2,0.2991791070,,,
22.9531250000,2,0.5303955078,,,
22.9687500000,2,0.6830214858,,,
22.9843750000,2,0.7703704834,,,
23.0000000000,2,0.8198317885,,,
23.0156250000,2,0.8407058716,,,
23.0312500000,2,0.8570479751,,,
23.0468750000,2,0.9086533189,,,
23.0625000000,2,1.0178070068,,,
23.0781250000,2,1.1598130465,,,
23.0937500000,2,1.2565380335,,,
23.1093750000,2,1.2012939453,,,
23.1250000000,2,0.9328613281,,,
23.1406250000,2,0.4824065864,,,
23.1562500000,2,-0.0176391602,,,
23.1718750000,2,-0.4017181098,,,
23.1875000000,2,-0.5545958877,,,
23.2031250000,2,-0.4662781060,,,
23.2187500000,2,-0.2251053005,,,
23.2343750000,2,0.0404586792,,,
23.2500000000,2,0.2393036038,,,
23.2656250000,2,0.3357391059,,,
23.2812500000,2,0.3268890083,,,
23.2968750000,2,0.2263336033,,,
23.3125000000,2,0.0397109985,,,
23.3281250000,2,-0.2318114936,,,
23.3437500000,2,-0.5768280029,,,
23.3593750000,2,-0.9401093125,,,
23.3750000000,2,-1.2508620024,,,
23.3906250000,2,-1.4337840080,,,
23.4062500000,2,-1.4294509888,,,
23.4218750000,2,-1.2077870369,,,
23.4375000000,2,-0.8070145249,,,
23.4531250000,2,-0.3120116889,,,
23.4687500000,2,0.1648560017,,,
23.4843750000,2,0.5153427124,,,
23.5000000000,2,0.7009963989,,,
23.5156250000,2,0.7443695068,,,
23.5312500000,2,0.7234191895,,,
23.5468750000,2,0.7146605849,,,
23.5625000000,2,0.7395247817,,,
23.5781250000,2,0.7362517715,,,
23.5937500000,2,0.6138306260,,,
23.6093750000,2,0.3002395928,,,
23.6250000000,2,-0.1951217949,,,
23.6406250000,2,-0.7686920166,,,
23.6562500000,2,-1.2734299898,,,
23.6718750000,2,-1.5901949406,,,
23.6875000000,2,-1.6637339592,,,
23.7031250000,2,-1.5222779512,,,
23.7187500000,2,-1.2473750114,,,
23.7343750000,2,-0.9484406114,,,
23.7500000000,2,-0.7189254761,,,
23.7656250000,2,-0.5919724107,,,
23.7812500000,2,-0.5536499023,,,
23.7968750000,2,-0.5432816148,,,
23.8125000000,2,-0.4824219048,,,
23.8281250000,2,-0.3321380913,,,
23.8437500000,2,-0.1118011028,,,
23.8593750000,2,0.1171799004,,,
23.8750000000,2,0.2854537964,,,
23.8906250000,2,0.3583984077,,,
23.9062500000,2,0.3329620063,,,
23.9218750000,2,0.2579726875,,,
23.9375000000,2,0.1907577962,,,
23.9531250000,2,0.1660155952,,,
23.9687500000,2,0.2084884942,,,
23.9843750000,2,0.3346176147,,,
24.0000000000,3,0.5760040283,,,
24.0156250000,3,0.9368743896,,,
24.0312500000,3,1.8032840490,,,
24.0468750000,3,2.0516738892,,,
24.0625000000,3,1.9941250086,,,
24.0781250000,3,1.6090999842,,,
24.0937500000,3,1.0019680262,,,
24.1093750000,3,0.3596954048,,,
24.1250000000,3,-0.1182326972,,,
24.1406250000,3,-0.3237685859,,,
24.1562500000,3,-0.2794494927,,,
24.1718750000,3,-0.1270675957,,,
24.1875000000,3,-0.0203094501,,,
24.2031250000,3,-0.0658264235,,,
24.2187500000,3,-0.2661057115,,,
24.2343750000,3,-0.5469359756,,,
24.2500000000,3,-0.8034285903,,,
24.2656250000,3,-0.9522551894,,,
24.2812500000,3,-0.9579619765,,,
24.2968750000,3,-0.8085175157,,,
24.3125000000,3,-0.5249556899,,,
24.3281250000,3,-0.1839065999,,,
24.3437500000,3,0.0916519165,,,
24.3593750000,3,0.1497649997,,,
24.3750000000,3,-0.1120987013,,,
24.3906250000,3,-0.6664505005,,,
24.4062500000,3,-1.3305050135,,,
24.4218750000,3,-1.8399579525,,,
24.4375000000,3,-1.9685970545,,,
24.4531250000,3,-1.6550450325,,,
24.4687500000,3,-1.0392760038,,,
24.4843750000,3,-0.3750838935,,,
24.5000000000,3,0.0820846632,,,
24.5156250000,3,0.2181625068,,,
24.5312500000,3,0.0841064528,,,
24.5468750000,3,-0.1510467976,,,
24.5625000000,3,-0.3328934014,,,
24.5781250000,3,-0.3742370903,,,
24.5937500000,3,-0.2996825874,,,
24.6093750000,3,-0.1984633952,,,
24.6250000000,3,-0.1553574055,,,
24.6406250000,3,-0.1887283027,,,
24.6562500000,3,-0.2497406006,,,
24.6718750000,3,-0.2788009942,,,
24.6875000000,3,-0.2188415974,,,
24.7031250000,3,-0.0758361816,,,
24.7187500000,3,0.0930404663,,,
24.7343750000,3,0.2217406929,,,
24.7500000000,3,0.2649154961,,,
24.7656250000,3,0.2582550049,,,
24.7812500000,3,0.2778015137,,,
24.7968750000,3,0.3897399902,,,
24.8125000000,3,0.6055603027,,,
24.8281250000,3,0.8377150893,,,
24.8437500000,3,0.9736710191,,,
24.8593750000,3,0.9366837144,,,
24.8750000000,3,0.7371597290,,,
24.8906250000,3,0.4745864868,,,
24.9062500000,3,0.2633286119,,,
24.9218750000,3,0.1524353027,,,
24.9375000000,3,0.1212157980,,,
24.9531250000,3,0.0877304077,,,
24.9687500000,3,-0.0138854999,,,
24.9843750000,3,-0.1796416938,,,
25.0000000000,3,-0.3485184014,,,
25.0156250000,3,-0.4424515069,,,
25.0312500000,3,-0.4185028076,,,
25.0468750000,3,-0.2975082099,,,
25.0625000000,3,-0.1731033027,,,
25.0781250000,3,-0.1163939983,,,
25.0937500000,3,-0.1654358059,,,
25.1093750000,3,-0.2865143120,,,
25.1250000000,3,-0.4103546143,,,
25.1406250000,3,-0.4472045898,,,
25.1562500000,3,-0.3289870918,,,
25.1718750000,3,-0.0328979492,,,
25.1875000000,3,0.3993149102,,,
25.2031250000,3,0.8702849746,,,
25.2187500000,3,1.2649919987,,,
25.2343750000,3,1.4765930176,,,
25.2500000000,3,1.4533920288,,,
25.2656250000,3,1.2238999605,,,
25.2812500000,3,0.8482056260,,,
25.2968750000,3,0.4137344062,,,
25.3125000000,3,-0.0129394503,,,
25.3281250000,3,-0.3888702095,,,
25.3437500000,3,-0.6661682129,,,
25.3593750000,3,-0.8002166748,,,
25.3750000000,3,-0.7560576797,,,
25.3906250000,3,-0.5411148071,,,
25.4062500000,3,-0.2216873020,,,
25.4218750000,3,0.0769271925,,,
25.4375000000,3,0.2385711968,,,
25.4531250000,3,0.2070312947,,,
25.4687500000,3,0.0377426110,,,
25.4843750000,3,-0.1307144016,,,
25.5000000000,3,-0.1565169990,,,
25.5156250000,3,0.0104675302,,,
25.5312500000,3,0.3068085015,,,
25.5468750000,3,0.5887145996,,,
25.5625000000,3,0.7169799805,,,
25.5781250000,3,0.6690216064,,,
25.5937500000,3,0.5201873779,,,
25.6093750000,3,0.4215851128,,,
25.6250000000,3,0.4795609117,,,
25.6406250000,3,0.6919937134,,,
25.6562500000,3,0.9342269897,,,
25.6718750000,3,1.0435329676,,,
25.6875000000,3,0.9075927734,,,
25.7031250000,3,0.5499572754,,,
25.7187500000,3,0.1044922024,,,
25.7343750000,3,-0.2743225098,,,
25.7500000000,3,-0.4710541070,,,
25.7656250000,3,-0.4800567925,,,
25.7812500000,3,-0.3709259033,,,
25.7968750000,3,-0.2381743938,,,
25.8125000000,3,-0.1500549018,,,
25.8281250000,3,-0.1449889988,,,
25.8437500000,3,-0.2351913005,,,
25.8593750000,3,-0.4146347046,,,
25.8750000000,3,-0.6658782959,,,
25.8906250000,3,-0.9394149780,,,
25.9062500000,3,-1.1674799919,,,
25.9218750000,3,-1.2686460018,,,
25.9375000000,3,-1.1953660250,,,
25.9531250000,3,-0.9451904297,,,
25.9687500000,3,-0.5771102905,,,
25.9843750000,3,-0.1761779934,,,
26.0000000000,3,0.1763152927,,,
26.0156250000,3,0.4336318970,,,
26.0312500000,3,0.6100388169,,,
26.0468750000,3,0.7289962769,,,
26.0625000000,3,0.8237305284,,,
26.0781250000,3,0.9047775269,,,
26.0937500000,3,0.9504929185,,,
26.1093750000,3,0.9221268296,,,
26.1250000000,3,0.7801284790,,,
26.1406250000,3,0.5373839736,,,
26.1562500000,3,0.2617340088,,,
26.1718750000,3,0.0732650831,,,
26.1875000000,3,0.0743942335,,,
26.2031250000,3,0.3019028008,,,
26.2187500000,3,0.6744766235,,,
26.2343750000,3,1.0196989775,,,
26.2500000000,3,1.1767649651,,,
26.2656250000,3,1.0682300329,,,
26.2812500000,3,0.7484130859,,,
26.2968750000,3,0.3701018989,,,
26.3125000000,3,0.1005783007,,,
26.3281250000,3,0.0289306603,,,
26.3437500000,3,0.1194991991,,,
26.3593750000,3,0.2586517036,,,
26.3750000000,3,0.3076247871,,,
26.3906250000,3,0.1944427043,,,
26.4062500000,3,-0.0735931396,,,
26.4218750000,3,-0.4246368110,,,
26.4375000000,3,-0.7754669189,,,
26.4531250000,3,-1.0626369715,,,
26.4687500000,3,-1.2695850134,,,
26.4843750000,3,-1.3848949671,,,
26.5000000000,3,-1.4025570154,,,
26.5156250000,3,-1.3215869665,,,
26.5312500000,3,-1.1294250488,,,
26.5468750000,3,-0.8514708877,,,
26.5625000000,3,-0.5316315293,,,
26.5781250000,3,-0.2534484863,,,
26.5937500000,3,-0.0925445631,,,
26.6093750000,3,-0.1085129008,,,
26.6250000000,3,-0.3176270127,,,
26.6406250000,3,-0.6712265015,,,
26.6562500000,3,-1.0640870333,,,
26.6718750000,3,-1.3551859856,,,
26.6875000000,3,-1.4310610294,,,
26.7031250000,3,-1.2264399529,,,
26.7187500000,3,-0.7780075073,,,
26.7343750000,3,-0.1935576946,,,
26.7500000000,3,0.3652114868,,,
26.7656250000,3,0.7558745742,,,
26.7812500000,3,0.8910903931,,,
26.7968750000,3,0.7761536241,,,
26.8125000000,3,0.4984970093,,,
26.8281250000,3,0.1777039021,,,
26.8437500000,3,-0.0858612135,,,
26.8593750000,3,-0.2518768013,,,
26.8750000000,3,-0.3632583916,,,
26.8906250000,3,-0.4956511855,,,
26.9062500000,3,-0.7041016221,,,
26.9218750000,3,-0.9836730957,,,
26.9375000000,3,-1.2528380156,,,
26.9531250000,3,-1.4144439697,,,
26.9687500000,3,-1.4152679443,,,
26.9843750000,3,-1.2637629509,,,
27.0000000000,3,-1.0472409725,,,
27.0156250000,3,-0.8698425293,,,
27.0312500000,3,-0.7766953111,,,
27.0468750000,3,-0.7331619263,,,
27.0625000000,3,-0.6573944092,,,
27.0781250000,3,-0.4750823975,,,
27.0937500000,3,-0.2010039985,,,
27.1093750000,3,0.0468521118,,,
27.1250000000,3,0.1237792969,,,
27.1406250000,3,-0.0565338098,,,
27.1562500000,3,-0.4541473091,,,
27.1718750000,3,-0.8919754028,,,
27.1875000000,3,-1.1414870024,,,
27.2031250000,3,-1.0375750065,,,
27.2187500000,3,-0.5697479248,,,
27.2343750000,3,0.1321105957,,,
27.2500000000,3,0.8685073853,,,
27.2656250000,3,1.4911350012,,,
27.2812500000,3,1.9649050236,,,
27.2968750000,3,2.3443911076,,,
27.3125000000,3,2.7189331055,,,
27.3281250000,3,3.1171650887,,,
27.3437500000,3,3.4954380989,,,
27.3593750000,3,3.7823100090,,,
27.3750000000,3,3.9278409481,,,
27.3906250000,3,3.9451749325,,,
27.4062500000,3,3.8681790829,,,
27.4218750000,3,3.7337720394,,,
27.4375000000,3,3.5424499512,,,
27.4531250000,3,3.2753520012,,,
27.4687500000,3,2.9131159782,,,
27.4843750000,3,2.4778900146,,,
27.5000000000,3,2.0119779110,,,
27.5156250000,3,1.5585939884,,,
27.5312500000,3,1.1549530029,,,
27.5468750000,3,0.8218688965,,,
27.5625000000,3,0.5662918091,,,
27.5781250000,3,0.3765259087,,,
27.5937500000,3,0.2230301052,,,
27.6093750000,3,0.0488128699,,,
27.6250000000,3,-0.2089996040,,,
27.6406250000,3,-0.5739517212,,,
27.6562500000,3,-1.0126420259,,,
27.6718750000,3,-1.4562300444,,,
27.6875000000,3,-1.8185119629,,,
27.7031250000,3,-2.0498430729,,,
27.7187500000,3,-2.1473619938,,,
27.7343750000,3,-2.1412730217,,,
27.7500000000,3,-2.0647580624,,,
27.7656250000,3,-1.9359209538,,,
27.7812500000,3,-1.7552260160,,,
27.7968750000,3,-1.5293879509,,,
27.8125000000,3,-1.3078310490,,,
27.8281250000,3,-1.1644289494,,,
27.8437500000,3,-1.1712490320,,,
27.8593750000,3,-1.3603739738,,,
27.8750000000,3,-1.6927109957,,,
27.8906250000,3,-2.0757679939,,,
27.9062500000,3,-2.4147028923,,,
27.9218750000,3,-2.6370239258,,,
27.9375000000,3,-2.7154688835,,,
27.9531250000,3,-2.6616520882,,,
27.9687500000,3,-2.5138089657,,,
27.9843750000,3,-2.3085100651,,,
28.0000000000,3,-2.0758509636,,,
28.0156250000,3,-1.8113329411,,,
28.0312500000,3,-1.4899220467,,,
28.0468750000,3,-1.1089249849,,,
28.0625000000,3,-0.6854248047,,,
28.0781250000,3,-0.2957153022,,,
28.0937500000,3,-0.0365600586,,,
28.1093750000,3,0.0287857093,,,
28.1250000000,3,-0.0947799683,,,
28.1406250000,3,-0.3161697090,,,
28.1562500000,3,-0.5073090196,,,
28.1718750000,3,-0.5531157851,,,
28.1875000000,3,-0.4324341118,,,
28.2031250000,3,-0.2211685032,,,
28.2187500000,3,-0.0458984412,,,
28.2343750000,3,-0.0146026602,,,
28.2500000000,3,-0.1615829021,,,
28.2656250000,3,-0.4321823120,,,
28.2812500000,3,-0.7265244126,,,
28.2968750000,3,-0.9462584853,,,
28.3125000000,3,-1.0469440222,,,
28.3281250000,3,-1.0318069458,,,
28.3437500000,3,-0.9163054824,,,
28.3593750000,3,-0.7275620103,,,
28.3750000000,3,-0.4800185859,,,
28.3906250000,3,-0.1901779026,,,
28.4062500000,3,0.1153412014,,,
28.4218750000,3,0.4089584053,,,
28.4375000000,3,0.6903380752,,,
28.4531250000,3,0.9716873169,,,
28.4687500000,3,1.2741390467,,,
28.4843750000,3,1.6138379574,,,
28.5000000000,3,1.9492419958,,,
28.5156250000,3,2.1817018986,,,
28.5312500000,3,2.1814119816,,,
28.5468750000,3,1.8347170353,,,
28.5625000000,3,1.1141510010,,,
28.5781250000,3,0.1168060005,,,
28.5937500000,3,-0.9422760010,,,
28.6093750000,3,-1.8071290255,,,
28.6250000000,3,-2.2750089169,,,
28.6406250000,3,-2.2848210335,,,
28.6562500000,3,-1.9355930090,,,
28.6718750000,3,-1.4365539551,,,
28.6875000000,3,-1.0249179602,,,
28.7031250000,3,-0.8728026748,,,
28.7187500000,3,-1.0135040283,,,
28.7343750000,3,-1.3525389433,,,
28.7500000000,3,-1.7293399572,,,
28.7656250000,3,-1.9964599609,,,
28.7812500000,3,-2.0633699894,,,
28.7968750000,3,-1.9079740047,,,
28.8125000000,3,-1.5477290154,,,
28.8281250000,3,-1.0277860165,,,
28.8437500000,3,-0.3911896050,,,
28.8593750000,3,0.3014526069,,,
28.8750000000,3,0.9806365967,,,
28.8906250000,3,1.5932919979,,,
28.9062500000,3,2.1001429558,,,
28.9218750000,3,2.4928588867,,,
28.9375000000,3,2.7934110165,,,
28.9531250000,3,3.0431981087,,,
28.9687500000,3,3.2650909424,,,
28.9843750000,3,3.4864809513,,,
29.0000000000,3,3.7118229866,,,
29.0156250000,3,3.9408719540,,,
29.0312500000,3,4.1500401497,,,
29.0468750000,3,4.2905430794,,,
29.0625000000,3,4.3019409180,,,
29.0781250000,3,4.1423192024,,,
29.0937500000,3,3.8340759277,,,
29.1093750000,3,3.4772191048,,,
29.1250000000,3,3.2174530029,,,
29.1406250000,3,3.1518099308,,,
29.1562500000,3,3.2836000919,,,
29.1718750000,3,3.5007019043,,,
29.1875000000,3,3.6468958855,,,
29.2031250000,3,3.5925140381,,,
29.2187500000,3,3.2961580753,,,
29.2343750000,3,2.7951810360,,,
29.2500000000,3,2.1696619987,,,
29.2656250000,3,1.4735720158,,,
29.2812500000,3,0.7159119248,,,
29.2968750000,3,-0.1065369025,,,
29.3125000000,3,-0.9880065918,,,
29.3281250000,3,-1.8611910343,,,
29.3437500000,3,-2.6115720272,,,
29.3593750000,3,-3.1114039421,,,
29.3750000000,3,-3.2754819393,,,
29.3906250000,3,-3.0795140266,,,
29.4062500000,3,-2.5971980095,,,
29.4218750000,3,-1.9742130041,,,
29.4375000000,3,-1.3935699463,,,
29.4531250000,3,-1.0050660372,,,
29.4687500000,3,-0.8940886855,,,
29.4843750000,3,-1.0304260254,,,
29.5000000000,3,-1.3055729866,,,
29.5156250000,3,-1.5438079834,,,
29.5312500000,3,-1.5970000029,,,
29.5468750000,3,-1.3954999447,,,
29.5625000000,3,-0.9818419814,,,
29.5781250000,3,-0.4887466133,,,
29.5937500000,3,-0.0955505371,,,
29.6093750000,3,0.0511474609,,,
29.6250000000,3,-0.1221008003,,,
29.6406250000,3,-0.5755767822,,,
29.6562500000,3,-1.1589889526,,,
29.6718750000,3,-1.6840440035,,,
29.6875000000,3,-1.9588700533,,,
29.7031250000,3,-1.8956069946,,,
29.7187500000,3,-1.5328450203,,,
29.7343750000,3,-1.0282969475,,,
29.7500000000,3,-0.5666655898,,,
29.7656250000,3,-0.2790755928,,,
29.7812500000,3,-0.1892395020,,,
29.7968750000,3,-0.2048110962,,,
29.8125000000,3,-0.2313155979,,,
29.8281250000,3,-0.2229842991,,,
29.8437500000,3,-0.2072295994,,,
29.8593750000,3,-0.2511901855,,,
29.8750000000,3,-0.3646773994,,,
29.8906250000,3,-0.4669724107,,,
29.9062500000,3,-0.4227828979,,,
29.9218750000,3,-0.1507949978,,,
29.9375000000,3,0.3014450073,,,
29.9531250000,3,0.7504500747,,,
29.9687500000,3,0.9819794297,,,
29.9843750000,3,0.8881226182,,,
30.0000000000,3,0.5316848755,,,
30.0156250000,3,0.1334304959,,,
30.0312500000,3,-0.0595321693,,,
30.0468750000,3,0.0930175781,,,
30.0625000000,3,0.5406569839,,,
30.0781250000,3,1.0952299833,,,
30.0937500000,3,1.5216449499,,,
30.1093750000,3,1.6533659697,,,
30.1250000000,3,1.4411770105,,,
30.1406250000,3,0.9585648179,,,
30.1562500000,3,0.3431395888,,,
30.1718750000,3,-0.2611618042,,,
30.1875000000,3,-0.7388762832,,,
30.2031250000,3,-1.0354310274,,,
30.2187500000,3,-1.1520080566,,,
30.2343750000,3,-1.1390609741,,,
30.2500000000,3,-1.0527800322,,,
30.2656250000,3,-0.9351577759,,,
30.2812500000,3,-0.8123779297,,,
30.2968750000,3,-0.6800537109,,,
30.3125000000,3,-0.5323563218,,,
30.3281250000,3,-0.3854751885,,,
30.3437500000,3,-0.2827605903,,,
30.3593750000,3,-0.2832641900,,,
30.3750000000,3,-0.3964614868,,,
30.3906250000,3,-0.5869141221,,,
30.4062500000,3,-0.7633438110,,,
30.4218750000,3,-0.8203201294,,,
30.4375000000,3,-0.6915053725,,,
30.4531250000,3,-0.3859634101,,,
30.4687500000,3,-0.0015029910,,,
30.4843750000,3,0.3399963081,,,
30.5000000000,3,0.5272064209,,,
30.5156250000,3,0.5258789063,,,
30.5312500000,3,0.3784714043,,,
30.5468750000,3,0.1959839016,,,
30.5625000000,3,0.0739059374,,,
30.5781250000,3,0.0612793006,,,
30.5937500000,3,0.1457290947,,,
30.6093750000,3,0.2605285943,,,
30.6250000000,3,0.3401718140,,,
30.6406250000,3,0.3483428955,,,
30.6562500000,3,0.2784957886,,,
30.6718750000,3,0.1426468045,,,
30.6875000000,3,-0.0313186608,,,
30.7031250000,3,-0.2169875950,,,
30.7187500000,3,-0.3955993950,,,
30.7343750000,3,-0.5497283936,,,
30.7500000000,3,-0.6548386216,,,
30.7656250000,3,-0.6834641099,,,
30.7812500000,3,-0.6254196167,,,
30.7968750000,3,-0.4977721870,,,
30.8125000000,3,-0.3530654907,,,
30.8281250000,3,-0.2438430935,,,
30.8437500000,3,-0.2186889946,,,
30.8593750000,3,-0.2889175117,,,
30.8750000000,3,-0.4232712090,,,
30.8906250000,3,-0.5659409165,,,
30.9062500000,3,-0.6485977173,,,
30.9218750000,3,-0.6287918091,,,
30.9375000000,3,-0.4976654053,,,
30.9531250000,3,-0.2682495117,,,
30.9687500000,3,0.0147094699,,,
30.9843750000,3,0.3056334853,,,
31.0000000000,3,0.5562819839,,,
31.0156250000,3,0.7317429185,,,
31.0312500000,3,0.8129807115,,,
31.0468750000,3,0.8234329224,,,
31.0625000000,3,0.8014678955,,,
31.0781250000,3,0.7946624756,,,
31.0937500000,3,0.8292465210,,,
31.1093750000,3,0.8921431899,,,
31.1250000000,3,0.9488677979,,,
31.1406250000,3,0.9628983140,,,
31.1562500000,3,0.9241027832,,,
31.1718750000,3,0.8314285278,,,
31.1875000000,3,0.6910399795,,,
31.2031250000,3,0.5112227798,,,
31.2187500000,3,0.2943572998,,,
31.2343750000,3,0.0624771118,,,
31.2500000000,3,-0.1366806030,,,
31.2656250000,3,-0.2665863037,,,
31.2812500000,3,-0.3298264146,,,
31.2968750000,3,-0.3943099976,,,
31.3125000000,3,-0.5659027100,,,
31.3281250000,3,-0.9130936265,,,
31.3437500000,3,-1.4137339592,,,
31.3593750000,3,-1.9315949678,,,
31.3750000000,3,-2.2755661011,,,
31.3906250000,3,-2.2994379997,,,
31.4062500000,3,-1.9767299891,,,
31.4218750000,3,-1.4166790247,,,
31.4375000000,3,-0.8172454834,,,
31.4531250000,3,-0.3584136963,,,
31.4687500000,3,-0.1163635030,,,
31.4843750000,3,-0.0544433594,,,
31.5000000000,3,-0.0526428185,,,
31.5156250000,3,-0.0070648189,,,
31.5312500000,3,0.1068039015,,,
31.5468750000,3,0.2310256958,,,
31.5625000000,3,0.2695999146,,,
31.5781250000,3,0.1753616035,,,
31.5937500000,3,-0.0282745399,,,
31.6093750000,3,-0.2377167046,,,
31.6250000000,3,-0.3477706909,,,
31.6406250000,3,-0.2882690132,,,
31.6562500000,3,-0.0890121534,,,
31.6718750000,3,0.1489486992,,,
31.6875000000,3,0.3113937080,,,
31.7031250000,3,0.3370895088,,,
31.7187500000,3,0.2448883057,,,
31.7343750000,3,0.1205596998,,,
31.7500000000,3,0.0528793298,,,
31.7656250000,3,0.0788879395,,,
31.7812500000,3,0.1694564968,,,
31.7968750000,3,0.2526626885,,,
31.8125000000,3,0.2835387886,,,
31.8281250000,3,0.2607573867,,,
31.8437500000,3,0.2274779975,,,
31.8593750000,3,0.2259293050,,,
31.8750000000,3,0.2536163032,,,
31.8906250000,3,0.2569350898,,,
31.9062500000,3,0.1685332954,,,
31.9218750000,3,-0.0241012592,,,
31.9375000000,3,-0.2462539971,,,
31.9531250000,3,-0.3790436089,,,
31.9687500000,3,-0.3149796128,,,
31.9843750000,3,-0.0514907800,,,
32.0000000000,4,0.3074570000,,,
32.0156250000,4,0.5999221802,,,
32.0312500000,4,0.7066268921,,,
32.0468750000,4,0.5986099243,,,
32.0625000000,4,0.3365173042,,,
32.0781250000,4,0.0255355798,,,
32.0937500000,4,-0.2561188042,,,
32.1093750000,4,-0.4534836113,,,
32.1250000000,4,-0.5500869751,,,
32.1406250000,4,-0.5292739868,,,
32.1562500000,4,-0.3970794976,,,
32.1718750000,4,-0.2077407986,,,
32.1875000000,4,-0.0476455688,,,
32.2031250000,4,-0.0061569209,,,
32.2187500000,4,-0.1229477003,,,
32.2343750000,4,-0.3415375054,,,
32.2500000000,4,-0.5421752930,,,
32.2656250000,4,-0.6039505005,,,
32.2812500000,4,-0.4819183052,,,
32.2968750000,4,-0.2336044014,,,
32.3125000000,4,0.0296173096,,,
32.3281250000,4,0.2040939033,,,
32.3437500000,4,0.2555083930,,,
32.3593750000,4,0.2243271023,,,
32.3750000000,4,0.2060317993,,,
32.3906250000,4,0.2917785943,,,
32.4062500000,4,0.5249481201,,,
32.4218750000,4,0.8837891221,,,
32.4375000000,4,1.2922819853,,,
32.4531250000,4,1.6434249878,,,
32.4687500000,4,1.8253860474,,,
32.4843750000,4,1.7701189518,,,
32.5000000000,4,1.4877469540,,,
32.5156250000,4,1.0714570284,,,
32.5312500000,4,0.6705245972,,,
32.5468750000,4,0.4246979058,,,
32.5625000000,4,0.3987121880,,,
32.5781250000,4,0.5413588881,,,
32.5937500000,4,0.7245101929,,,
32.6093750000,4,0.8014603257,,,
32.6250000000,4,0.6927794814,,,
32.6406250000,4,0.4133223891,,,
32.6562500000,4,0.0639419630,,,
32.6718750000,4,-0.2422713935,,,
32.6875000000,4,-0.4381408989,,,
32.7031250000,4,-0.5176848769,,,
32.7187500000,4,-0.5318145752,,,
32.7343750000,4,-0.5255966187,,,
32.7500000000,4,-0.5057982802,,,
32.7656250000,4,-0.4449538887,,,
32.7812500000,4,-0.3202590942,,,
32.7968750000,4,-0.1454696953,,,
32.8125000000,4,0.0098876953,,,
32.8281250000,4,0.0711593628,,,
32.8437500000,4,-0.0047912602,,,
32.8593750000,4,-0.1840897053,,,
32.8750000000,4,-0.3681792915,,,
32.8906250000,4,-0.4659118950,,,
32.9062500000,4,-0.4373703003,,,
32.9218750000,4,-0.3240737915,,,
32.9375000000,4,-0.2340240031,,,
32.9531250000,4,-0.2581635118,,,
32.9687500000,4,-0.4244613945,,,
32.9843750000,4,-0.6693801880,,,
33.0000000000,4,-0.8948745728,,,
33.0156250000,4,-0.9960631728,,,
33.0312500000,4,-0.9256591797,,,
33.0468750000,4,-0.6979370117,,,
33.0625000000,4,-0.3350372016,,,
33.0781250000,4,0.0985183716,,,
33.0937500000,4,0.5471115112,,,
33.1093750000,4,0.9367523193,,,
33.1250000000,4,1.1913759708,,,
33.1406250000,4,1.2444989681,,,
33.1562500000,4,1.0759429932,,,
33.1718750000,4,0.7404937744,,,
33.1875000000,4,0.3373565972,,,
33.2031250000,4,-0.0126037598,,,
33.2187500000,4,-0.2224730998,,,
33.2343750000,4,-0.2645492852,,,
33.2500000000,4,-0.1786652058,,,
33.2656250000,4,-0.0349197388,,,
33.2812500000,4,0.0990524292,,,
33.2968750000,4,0.1806107014,,,
33.3125000000,4,0.1879120022,,,
33.3281250000,4,0.1312256008,,,
33.3437500000,4,0.0358123817,,,
33.3593750000,4,-0.0456848107,,,
33.3750000000,4,-0.0409164391,,,
33.3906250000,4,0.0892639235,,,
33.4062500000,4,0.3460541070,,,
33.4218750000,4,0.6686707139,,,
33.4375000000,4,0.9662857056,,,
33.4531250000,4,1.1500929594,,,
33.4687500000,4,1.1611939669,,,
33.4843750000,4,0.9950255752,,,
33.5000000000,4,0.6837158203,,,
33.5156250000,4,0.3051146865,,,
33.5312500000,4,-0.0535583496,,,
33.5468750000,4,-0.3234786987,,,
33.5625000000,4,-0.4721375108,,,
33.5781250000,4,-0.5269240737,,,
33.5937500000,4,-0.5479279160,,,
33.6093750000,4,-0.5968781114,,,
33.6250000000,4,-0.6860045791,,,
33.6406250000,4,-0.7849884033,,,
33.6562500000,4,-0.8393402100,,,
33.6718750000,4,-0.8195114136,,,
33.6875000000,4,-0.7382965088,,,
33.7031250000,4,-0.6504744887,,,
33.7187500000,4,-0.6037750244,,,
33.7343750000,4,-0.6001052856,,,
33.7500000000,4,-0.6098784804,,,
33.7656250000,4,-0.5946884155,,,
33.7812500000,4,-0.5850753784,,,
33.7968750000,4,-0.6577681899,,,
33.8125000000,4,-0.8930130005,,,
33.8281250000,4,-1.2863080502,,,
33.8437500000,4,-1.7336579561,,,
33.8593750000,4,-2.0503768921,,,
33.8750000000,4,-2.0838999748,,,
33.8906250000,4,-1.7765120268,,,
33.9062500000,4,-1.1912989616,,,
33.9218750000,4,-0.4774627984,,,
33.9375000000,4,0.2294082940,,,
33.9531250000,4,0.8348845840,,,
33.9687500000,4,1.3106689453,,,
33.9843750000,4,1.6630400419,,,
34.0000000000,4,1.9064099789,,,
34.0156250000,4,2.0530550480,,,
34.0312500000,4,2.1111149788,,,
34.0468750000,4,2.0975949764,,,
34.0625000000,4,2.0118560791,,,
34.0781250000,4,1.8619539738,,,
34.0937500000,4,1.6297529936,,,
34.1093750000,4,1.3059010506,,,
34.1250000000,4,0.9031372070,,,
34.1406250000,4,0.4569320977,,,
34.1562500000,4,0.0308914203,,,
34.1718750000,4,-0.3447647095,,,
34.1875000000,4,-0.6680068970,,,
34.2031250000,4,-0.9695816040,,,
34.2187500000,4,-1.2664409876,,,
34.2343750000,4,-1.5360870361,,,
34.2500000000,4,-1.7160110474,,,
34.2656250000,4,-1.7385480404,,,
34.2812500000,4,-1.5996929407,,,
34.2968750000,4,-1.3697890043,,,
34.3125000000,4,-1.1843800545,,,
34.3281250000,4,-1.1582720280,,,
34.3437500000,4,-1.3237990141,,,
34.3593750000,4,-1.5995409489,,,
34.3750000000,4,-1.8497849703,,,
34.3906250000,4,-1.9308470488,,,
34.4062500000,4,-1.7912600040,,,
34.4218750000,4,-1.4799580574,,,
34.4375000000,4,-1.1063539982,,,
34.4531250000,4,-0.7879561782,,,
34.4687500000,4,-0.5809478760,,,
34.4843750000,4,-0.4707184136,,,
34.5000000000,4,-0.3852921128,,,
34.5156250000,4,-0.2441329956,,,
34.5312500000,4,0.0011215210,,,
34.5468750000,4,0.3323441148,,,
34.5625000000,4,0.6723250747,,,
34.5781250000,4,0.9326400757,,,
34.5937500000,4,1.0233459473,,,
34.6093750000,4,0.9286499023,,,
34.6250000000,4,0.6903151870,,,
34.6406250000,4,0.3853226006,,,
34.6562500000,4,0.0955810472,,,
34.6718750000,4,-0.1346053928,,,
34.6875000000,4,-0.2761229873,,,
34.7031250000,4,-0.3174973130,,,
34.7187500000,4,-0.2321853936,,,
34.7343750000,4,0.0041885381,,,
34.7500000000,4,0.3889693916,,,
34.7656250000,4,0.8594130874,,,
34.7812500000,4,1.2925950289,,,
34.7968750000,4,1.5462880135,,,
34.8125000000,4,1.5111999512,,,
34.8281250000,4,1.1747360229,,,
34.8437500000,4,0.6169281006,,,
34.8593750000,4,0.0012207030,,,
34.8750000000,4,-0.4951247871,,,
34.8906250000,4,-0.7176436782,,,
34.9062500000,4,-0.5981674194,,,
34.9218750000,4,-0.1922913045,,,
34.9375000000,4,0.3381882012,,,
34.9531250000,4,0.7952576280,,,
34.9687500000,4,1.0189900398,,,
34.9843750000,4,0.9638596177,,,
35.0000000000,4,0.7280197144,,,
35.0156250000,4,0.4918136895,,,
35.0312500000,4,0.4337311089,,,
35.0468750000,4,0.6206588745,,,
35.0625000000,4,0.9789047241,,,
35.0781250000,4,1.3585660458,,,
35.0937500000,4,1.5996479988,,,
35.1093750000,4,1.6413569450,,,
35.1250000000,4,1.5345000029,,,
35.1406250000,4,1.3940960169,,,
35.1562500000,4,1.3158040047,,,
35.1718750000,4,1.3025890589,,,
35.1875000000,4,1.3054809570,,,
35.2031250000,4,1.2331089973,,,
35.2187500000,4,1.0316239595,,,
35.2343750000,4,0.6999434829,,,
35.2500000000,4,0.2807540894,,,
35.2656250000,4,-0.1617279053,,,
35.2812500000,4,-0.5561141968,,,
35.2968750000,4,-0.8435363770,,,
35.3125000000,4,-0.9835205078,,,
35.3281250000,4,-0.9324417114,,,
35.3437500000,4,-0.6846923828,,,
35.3593750000,4,-0.2648163140,,,
35.3750000000,4,0.2514038086,,,
35.3906250000,4,0.7450714111,,,
35.4062500000,4,1.0906449556,,,
35.4218750000,4,1.2151180506,,,
35.4375000000,4,1.1039049625,,,
35.4531250000,4,0.8187789917,,,
35.4687500000,4,0.4617615044,,,
35.4843750000,4,0.1386414021,,,
35.5000000000,4,-0.0654678270,,,
35.5156250000,4,-0.1164245978,,,
35.5312500000,4,-0.0288772602,,,
35.5468750000,4,0.1208954006,,,
35.5625000000,4,0.2333983928,,,
35.5781250000,4,0.2172928005,,,
35.5937500000,4,0.0317840613,,,
35.6093750000,4,-0.2874298096,,,
35.6250000000,4,-0.6496964097,,,
35.6406250000,4,-0.9417952895,,,
35.6562500000,4,-1.0914839506,,,
35.6718750000,4,-1.1221849918,,,
35.6875000000,4,-1.1211849451,,,
35.7031250000,4,-1.1903690100,,,
35.7187500000,4,-1.3745959997,,,
35.7343750000,4,-1.6189650297,,,
35.7500000000,4,-1.7915040255,,,
35.7656250000,4,-1.7709729671,,,
35.7812500000,4,-1.5322649479,,,
35.7968750000,4,-1.1560820341,,,
35.8125000000,4,-0.7962952256,,,
35.8281250000,4,-0.5948867798,,,
35.8437500000,4,-0.5936431885,,,
35.8593750000,4,-0.7378082275,,,
35.8750000000,4,-0.9124069214,,,
35.8906250000,4,-1.0087970495,,,
35.9062500000,4,-0.9830703735,,,
35.9218750000,4,-0.8454285264,,,
35.9375000000,4,-0.6319121718,,,
35.9531250000,4,-0.3776473999,,,
35.9687500000,4,-0.1024627984,,,
35.9843750000,4,0.1845169067,,,
36.0000000000,4,0.4460754097,,,
36.0156250000,4,0.6194304824,,,
36.0312500000,4,0.6364365220,,,
36.0468750000,4,0.4672394097,,,
36.0625000000,4,0.1513366997,,,
36.0781250000,4,-0.2136383057,,,
36.0937500000,4,-0.4993591011,,,
36.1093750000,4,-0.5975418091,,,
36.1250000000,4,-0.4813995063,,,
36.1406250000,4,-0.1963959038,,,
36.1562500000,4,0.1502837986,,,
36.1718750000,4,0.4589920044,,,
36.1875000000,4,0.6466751099,,,
36.2031250000,4,0.6902770996,,,
36.2187500000,4,0.6104125977,,,
36.2343750000,4,0.4654541016,,,
36.2500000000,4,0.3296661079,,,
36.2656250000,4,0.2768096924,,,
36.2812500000,4,0.3433074951,,,
36.2968750000,4,0.5143051147,,,
36.3125000000,4,0.7050247192,,,
36.3281250000,4,0.8053894043,,,
36.3437500000,4,0.7327117920,,,
36.3593750000,4,0.4867554009,,,
36.3750000000,4,0.1593399048,,,
36.3906250000,4,-0.1043014973,,,
36.4062500000,4,-0.1928710938,,,
36.4218750000,4,-0.0515823402,,,
36.4375000000,4,0.2722930908,,,
36.4531250000,4,0.6799163818,,,
36.4687500000,4,1.0447850227,,,
36.4843750000,4,1.2624130249,,,
36.5000000000,4,1.2531050444,,,
36.5156250000,4,1.0072779655,,,
36.5312500000,4,0.5618895888,,,
36.5468750000,4,0.0132217398,,,
36.5625000000,4,-0.5189133286,,,
36.5781250000,4,-0.9240798950,,,
36.5937500000,4,-1.1623309851,,,
36.6093750000,4,-1.2483750582,,,
36.6250000000,4,-1.2442250252,,,
36.6406250000,4,-1.1808400154,,,
36.6562500000,4,-1.0420000553,,,
36.6718750000,4,-0.7867661119,,,
36.6875000000,4,-0.4018783867,,,
36.7031250000,4,0.0612335205,,,
36.7187500000,4,0.4861603081,,,
36.7343750000,4,0.7557907104,,,
36.7500000000,4,0.8021774292,,,
36.7656250000,4,0.6339492798,,,
36.7812500000,4,0.3195419014,,,
36.7968750000,4,-0.0603485107,,,
36.8125000000,4,-0.4390945137,,,
36.8281250000,4,-0.7581862807,,,
36.8437500000,4,-0.9746245742,,,
36.8593750000,4,-1.0536880493,,,
36.8750000000,4,-0.9848632813,,,
36.8906250000,4,-0.7906265259,,,
36.9062500000,4,-0.5380783081,,,
36.9218750000,4,-0.2806395888,,,
36.9375000000,4,-0.0908050537,,,
36.9531250000,4,0.0035858150,,,
36.9687500000,4,-0.0053329468,,,
36.9843750000,4,-0.1086272970,,,
37.0000000000,4,-0.2852172852,,,
37.0156250000,4,-0.4918212891,,,
37.0312500000,4,-0.6457520127,,,
37.0468750000,4,-0.6484221816,,,
37.0625000000,4,-0.4291991889,,,
37.0781250000,4,0.0218353309,,,
37.0937500000,4,0.6251831055,,,
37.1093750000,4,1.2325819731,,,
37.1250000000,4,1.6816099882,,,
37.1406250000,4,1.8506850004,,,
37.1562500000,4,1.7180479765,,,
37.1718750000,4,1.3493729830,,,
37.1875000000,4,0.8801651001,,,
37.2031250000,4,0.4678955078,,,
37.2187500000,4,0.2226867974,,,
37.2343750000,4,0.1844253987,,,
37.2500000000,4,0.3432540894,,,
37.2656250000,4,0.6371306777,,,
37.2812500000,4,1.0174640417,,,
37.2968750000,4,1.4401400089,,,
37.3125000000,4,1.8640669584,,,
37.3281250000,4,2.2101359367,,,
37.3437500000,4,2.3814699650,,,
37.3593750000,4,2.2771680355,,,
37.3750000000,4,1.8626170158,,,
37.3906250000,4,1.2058260441,,,
37.4062500000,4,0.4710693061,,,
37.4218750000,4,-0.1444167942,,,
37.4375000000,4,-0.5100020766,,,
37.4531250000,4,-0.5945816040,,,
37.4687500000,4,-0.4801788032,,,
37.4843750000,4,-0.2788619995,,,
37.5000000000,4,-0.0724639893,,,
37.5156250000,4,0.1064376980,,,
37.5312500000,4,0.2600936890,,,
37.5468750000,4,0.3660506904,,,
37.5625000000,4,0.3662033081,,,
37.5781250000,4,0.1960144043,,,
37.5937500000,4,-0.1354445964,,,
37.6093750000,4,-0.5424271226,,,
37.6250000000,4,-0.8737869263,,,
37.6406250000,4,-1.0141140223,,,
37.6562500000,4,-0.9489058852,,,
37.6718750000,4,-0.7783051133,,,
37.6875000000,4,-0.6444550157,,,
37.7031250000,4,-0.6244735718,,,
37.7187500000,4,-0.6913452148,,,
37.7343750000,4,-0.7267150879,,,
37.7500000000,4,-0.6054381728,,,
37.7656250000,4,-0.2896041870,,,
37.7812500000,4,0.1317214966,,,
37.7968750000,4,0.4987488091,,,
37.8125000000,4,0.6669617295,,,
37.8281250000,4,0.5833435059,,,
37.8437500000,4,0.3064041138,,,
37.8593750000,4,-0.0420074500,,,
37.8750000000,4,-0.3626174927,,,
37.8906250000,4,-0.6115493774,,,
37.9062500000,4,-0.8299942017,,,
37.9218750000,4,-1.0808260441,,,
37.9375000000,4,-1.3959050179,,,
37.9531250000,4,-1.7149729729,,,
37.9687500000,4,-1.9268720150,,,
37.9843750000,4,-1.9076000452,,,
38.0000000000,4,-1.6114200354,,,
38.0156250000,4,-1.1040500402,,,
38.0312500000,4,-0.5504302979,,,
38.0468750000,4,-0.1142119989,,,
38.0625000000,4,0.1244964972,,,
38.0781250000,4,0.2213287055,,,
38.0937500000,4,0.3016890883,,,
38.1093750000,4,0.4568404853,,,
38.1250000000,4,0.6517639160,,,
38.1406250000,4,0.7282180786,,,
38.1562500000,4,0.5070418715,,,
38.1718750000,4,-0.0576171912,,,
38.1875000000,4,-0.8162993789,,,
38.2031250000,4,-1.4785920382,,,
38.2187500000,4,-1.7817080021,,,
38.2343750000,4,-1.6188130379,,,
38.2500000000,4,-1.0938949585,,,
38.2656250000,4,-0.4291611016,,,
38.2812500000,4,0.1579131931,,,
38.2968750000,4,0.5576248169,,,
38.3125000000,4,0.7742310166,,,
38.3281250000,4,0.8712387085,,,
38.3437500000,4,0.9027404785,,,
38.3593750000,4,0.8905333877,,,
38.3750000000,4,0.8348541260,,,
38.3906250000,4,0.7540817261,,,
38.4062500000,4,0.6776732802,,,
38.4218750000,4,0.6396483779,,,
38.4375000000,4,0.6284484863,,,
38.4531250000,4,0.6020966172,,,
38.4687500000,4,0.5107421875,,,
38.4843750000,4,0.3237304986,,,
38.5000000000,4,0.0569610596,,,
38.5156250000,4,-0.2370986938,,,
38.5312500000,4,-0.4956511855,,,
38.5468750000,4,-0.6445159912,,,
38.5625000000,4,-0.6312180161,,,
38.5781250000,4,-0.4283829033,,,
38.5937500000,4,-0.0771789625,,,
38.6093750000,4,0.3203277886,,,
38.6250000000,4,0.6257858276,,,
38.6406250000,4,0.7234191895,,,
38.6562500000,4,0.5646973252,,,
38.6718750000,4,0.2059707940,,,
38.6875000000,4,-0.2254868001,,,
38.7031250000,4,-0.5915297866,,,
38.7187500000,4,-0.8003540039,,,
38.7343750000,4,-0.8077011108,,,
38.7500000000,4,-0.6517105103,,,
38.7656250000,4,-0.4101867974,,,
38.7812500000,4,-0.1758423001,,,
38.7968750000,4,-0.0303955097,,,
38.8125000000,4,-0.0021743770,,,
38.8281250000,4,-0.0562744103,,,
38.8437500000,4,-0.1005629972,,,
38.8593750000,4,-0.0394515991,,,
38.8750000000,4,0.1872711033,,,
38.8906250000,4,0.5436478257,,,
38.9062500000,4,0.9073867798,,,
38.9218750000,4,1.1419600248,,,
38.9375000000,4,1.1676030159,,,
38.9531250000,4,0.9866104126,,,
38.9687500000,4,0.6868590713,,,
38.9843750000,4,0.3738707900,,,
39.0000000000,4,0.1065291986,,,
39.0156250000,4,-0.1057586968,,,
39.0312500000,4,-0.2808380127,,,
39.0468750000,4,-0.4162139893,,,
39.0625000000,4,-0.4875946045,,,
39.0781250000,4,-0.4405669868,,,
39.0937500000,4,-0.2576217949,,,
39.1093750000,4,0.0138702402,,,
39.1250000000,4,0.2786712945,,,
39.1406250000,4,0.4291228950,,,
39.1562500000,4,0.3959350884,,,
39.1718750000,4,0.1995315999,,,
39.1875000000,4,-0.0656890869,,,
39.2031250000,4,-0.2928085029,,,
39.2187500000,4,-0.3974533081,,,
39.2343750000,4,-0.3450698853,,,
39.2500000000,4,-0.1605225056,,,
39.2656250000,4,0.0995025635,,,
39.2812500000,4,0.3654251099,,,
39.2968750000,4,0.5692749023,,,
39.3125000000,4,0.6571503282,,,
39.3281250000,4,0.6100006104,,,
39.3437500000,4,0.4284820855,,,
39.3593750000,4,0.1332854927,,,
39.3750000000,4,-0.2333450019,,,
39.3906250000,4,-0.6079025269,,,
39.4062500000,4,-0.9131926894,,,
39.4218750000,4,-1.0640950203,,,
39.4375000000,4,-0.9844666123,,,
39.4531250000,4,-0.6618347168,,,
39.4687500000,4,-0.1682891995,,,
39.4843750000,4,0.3473815918,,,
39.5000000000,4,0.7223052979,,,
39.5156250000,4,0.8508605957,,,
39.5312500000,4,0.7531586289,,,
39.5468750000,4,0.5438919067,,,
39.5625000000,4,0.3526459038,,,
39.5781250000,4,0.2431029975,,,
39.5937500000,4,0.1715469062,,,
39.6093750000,4,0.0638351366,,,
39.6250000000,4,-0.0952377319,,,
39.6406250000,4,-0.2188950032,,,
39.6562500000,4,-0.1827469021,,,
39.6718750000,4,0.0913467407,,,
39.6875000000,4,0.5273131728,,,
39.7031250000,4,0.9371643066,,,
39.7187500000,4,1.1266169548,,,
39.7343750000,4,1.0150680542,,,
39.7500000000,4,0.6959686279,,,
39.7656250000,4,0.3602752984,,,
39.7812500000,4,0.1680908054,,,
39.7968750000,4,0.1581345052,,,
39.8125000000,4,0.2347946018,,,
39.8281250000,4,0.2550354004,,,
39.8437500000,4,0.1364898980,,,
39.8593750000,4,-0.1068267971,,,
39.8750000000,4,-0.4001007080,,,
39.8906250000,4,-0.6534271240,,,
39.9062500000,4,-0.8214874268,,,
39.9218750000,4,-0.9102097154,,,
39.9375000000,4,-0.9447174072,,,
39.9531250000,4,-0.9353179932,,,
39.9687500000,4,-0.8852996826,,,
39.9843750000,4,-0.8272705078,,,
40.0000000000,5,-0.7973480225,,,
40.0156250000,5,-0.8490601182,,,
40.0312500000,5,-1.0012890100,,,
40.0468750000,5,-1.2332309484,,,
40.0625000000,5,-1.4785000086,,,
40.0781250000,5,-1.6615300179,,,
40.0937500000,5,-1.7268520594,,,
40.1093750000,5,-1.6704790592,,,
40.1250000000,5,-1.5066070557,,,
40.1406250000,5,-1.2588269711,,,
40.1562500000,5,-0.9719315171,,,
40.1718750000,5,-0.6970214844,,,
40.1875000000,5,-0.4980086982,,,
40.2031250000,5,-0.4032897949,,,
40.2187500000,5,-0.3749771118,,,
40.2343750000,5,-0.3191604912,,,
40.2500000000,5,-0.1407088935,,,
40.2656250000,5,0.1934967041,,,
40.2812500000,5,0.6018372178,,,
40.2968750000,5,0.9271317124,,,
40.3125000000,5,1.0115200281,,,
40.3281250000,5,0.7842025757,,,
40.3437500000,5,0.3199996948,,,
40.3593750000,5,-0.2142792046,,,
40.3750000000,5,-0.6470336914,,,
40.3906250000,5,-0.8630905151,,,
40.4062500000,5,-0.8536223769,,,
40.4218750000,5,-0.6673964858,,,
40.4375000000,5,-0.3620148003,,,
40.4531250000,5,0.0266571008,,,
40.4687500000,5,0.4787215889,,,
40.4843750000,5,0.9557343125,,,
40.5000000000,5,1.3981089592,,,
40.5156250000,5,1.7338490486,,,
40.5312500000,5,1.9040529728,,,
40.5468750000,5,1.8835829496,,,
40.5625000000,5,1.6792980433,,,
40.5781250000,5,1.3166120052,,,
40.5937500000,5,0.8746948242,,,
40.6093750000,5,0.4580231011,,,
40.6250000000,5,0.1830444038,,,
40.6406250000,5,0.1408919990,,,
40.6562500000,5,0.3506087959,,,
40.6718750000,5,0.7368392944,,,
40.6875000000,5,1.1774599552,,,
40.7031250000,5,1.5530469418,,,
40.7187500000,5,1.7990490198,,,
40.7343750000,5,1.9263919592,,,
40.7500000000,5,1.9742579460,,,
40.7656250000,5,1.9564900398,,,
40.7812500000,5,1.8298720121,,,
40.7968750000,5,1.5447080135,,,
40.8125000000,5,1.0835039616,,,
40.8281250000,5,0.5348129272,,,
40.8437500000,5,0.0614471398,,,
40.8593750000,5,-0.1784210056,,,
40.8750000000,5,-0.1506652981,,,
40.8906250000,5,0.0387191810,,,
40.9062500000,5,0.1724167019,,,
40.9218750000,5,0.0700988770,,,
40.9375000000,5,-0.2919768989,,,
40.9531250000,5,-0.7581940293,,,
40.9687500000,5,-1.0923459530,,,
40.9843750000,5,-1.1100159883,,,
41.0000000000,5,-0.8027877808,,,
41.0156250000,5,-0.3496016860,,,
41.0312500000,5,-0.0071411128,,,
41.0468750000,5,0.0142211895,,,
41.0625000000,5,-0.3259583116,,,
41.0781250000,5,-0.9265518188,,,
41.0937500000,5,-1.5821080208,,,
41.1093750000,5,-2.1120219231,,,
41.1250000000,5,-2.4206240177,,,
41.1406250000,5,-2.5111310482,,,
41.1562500000,5,-2.4361269474,,,
41.1718750000,5,-2.2383120060,,,
41.1875000000,5,-1.9279019833,,,
41.2031250000,5,-1.4676970243,,,
41.2187500000,5,-0.8179473877,,,
41.2343750000,5,0.0096588125,,,
41.2500000000,5,0.9147263169,,,
41.2656250000,5,1.7204060555,,,
41.2812500000,5,2.2119669914,,,
41.2968750000,5,2.2487258911,,,
41.3125000000,5,1.8409349918,,,
41.3281250000,5,1.1673890352,,,
41.3437500000,5,0.4841994941,,,
41.3593750000,5,0.0306167603,,,
41.3750000000,5,-0.1018142998,,,
41.3906250000,5,0.0286102295,,,
41.4062500000,5,0.2519072890,,,
41.4218750000,5,0.4043273926,,,
41.4375000000,5,0.3996582031,,,
41.4531250000,5,0.2556228936,,,
41.4687500000,5,0.0232315101,,,
41.4843750000,5,-0.2382964939,,,
41.5000000000,5,-0.4870071113,,,
41.5156250000,5,-0.6937714219,,,
41.5312500000,5,-0.7900009155,,,
41.5468750000,5,-0.6957169175,,,
41.5625000000,5,-0.3602142036,,,
41.5781250000,5,0.1646880955,,,
41.5937500000,5,0.7495192885,,,
41.6093750000,5,1.2025070190,,,
41.6250000000,5,1.3971710205,,,
41.6406250000,5,1.3319849968,,,
41.6562500000,5,1.1223829985,,,
41.6718750000,5,0.9361572266,,,
41.6875000000,5,0.8779373169,,,
41.7031250000,5,0.9306870103,,,
41.7187500000,5,0.9788436890,,,
41.7343750000,5,0.8890380859,,,
41.7500000000,5,0.5992354751,,,
41.7656250000,5,0.1786040962,,,
41.7812500000,5,-0.2233276069,,,
41.7968750000,5,-0.4683913887,,,
41.8125000000,5,-0.5045928955,,,
41.8281250000,5,-0.3821029961,,,
41.8437500000,5,-0.2242660969,,,
41.8593750000,5,-0.1464004964,,,
41.8750000000,5,-0.2049560994,,,
41.8906250000,5,-0.3808516860,,,
41.9062500000,5,-0.6015548706,,,
41.9218750000,5,-0.7962722778,,,
41.9375000000,5,-0.9218521118,,,
41.9531250000,5,-0.9828491211,,,
41.9687500000,5,-1.0047450066,,,
41.9843750000,5,-1.0210419893,,,
42.0000000000,5,-1.0322569609,,,
42.0156250000,5,-1.0210720301,,,
42.0312500000,5,-0.9459152222,,,
42.0468750000,5,-0.7875900269,,,
42.0625000000,5,-0.5664901733,,,
42.0781250000,5,-0.3398056030,,,
42.0937500000,5,-0.1808623970,,,
42.1093750000,5,-0.1479340047,,,
42.1250000000,5,-0.2584838867,,,
42.1406250000,5,-0.4750671089,,,
42.1562500000,5,-0.7303009033,,,
42.1718750000,5,-0.9495009780,,,
42.1875000000,5,-1.0872499943,,,
42.2031250000,5,-1.1439820528,,,
42.2187500000,5,-1.1245349646,,,
42.2343750000,5,-1.0293120146,,,
42.2500000000,5,-0.8382874131,,,
42.2656250000,5,-0.5332642198,,,
42.2812500000,5,-0.1314774007,,,
42.2968750000,5,0.2962341011,,,
42.3125000000,5,0.6328048706,,,
42.3281250000,5,0.7879714966,,,
42.3437500000,5,0.7408980727,,,
42.3593750000,5,0.5735474229,,,
42.3750000000,5,0.4132995903,,,
42.3906250000,5,0.3594284058,,,
42.4062500000,5,0.4238663018,,,
42.4218750000,5,0.5140457153,,,
42.4375000000,5,0.5059813857,,,
42.4531250000,5,0.3186492920,,,
42.4687500000,5,-0.0374984704,,,
42.4843750000,5,-0.4492264092,,,
42.5000000000,5,-0.7705078125,,,
42.5156250000,5,-0.9104003906,,,
42.5312500000,5,-0.8578186035,,,
42.5468750000,5,-0.6967163086,,,
42.5625000000,5,-0.5408707261,,,
42.5781250000,5,-0.4704819024,,,
42.5937500000,5,-0.4976424873,,,
42.6093750000,5,-0.5710983276,,,
42.6250000000,5,-0.6056212783,,,
42.6406250000,5,-0.5307158828,,,
42.6562500000,5,-0.3393554986,,,
42.6718750000,5,-0.0797348022,,,
42.6875000000,5,0.1550368965,,,
42.7031250000,5,0.2742767036,,,
42.7187500000,5,0.2642593086,,,
42.7343750000,5,0.2040482014,,,
42.7500000000,5,0.2124329060,,,
42.7656250000,5,0.3918991089,,,
42.7812500000,5,0.7559890747,,,
42.7968750000,5,1.2346040010,,,
42.8125000000,5,1.6922529936,,,
42.8281250000,5,2.0126800537,,,
42.8437500000,5,2.1170198917,,,
42.8593750000,5,2.0076370239,,,
42.8750000000,5,1.7276690006,,,
42.8906250000,5,1.3451310396,,,
42.9062500000,5,0.9466400146,,,
42.9218750000,5,0.6060410142,,,
42.9375000000,5,0.3638763130,,,
42.9531250000,5,0.2259140015,,,
42.9687500000,5,0.1423415989,,,
42.9843750000,5,0.0378341712,,,
43.0000000000,5,-0.1549530029,,,
43.0156250000,5,-0.4623183906,,,
43.0312500000,5,-0.8201674819,,,
43.0468750000,5,-1.1220779419,,,
43.0625000000,5,-1.2522430420,,,
43.0781250000,5,-1.1641310453,,,
43.0937500000,5,-0.8893585205,,,
43.1093750000,5,-0.5527648926,,,
43.1250000000,5,-0.2967605889,,,
43.1406250000,5,-0.2254943997,,,
43.1562500000,5,-0.3629378974,,,
43.1718750000,5,-0.6558151245,,,
43.1875000000,5,-0.9898757935,,,
43.2031250000,5,-1.2655030489,,,
43.2187500000,5,-1.4226460457,,,
43.2343750000,5,-1.4604259729,,,
43.2500000000,5,-1.4240419865,,,
43.2656250000,5,-1.3600159883,,,
43.2812500000,5,-1.2947009802,,,
43.2968750000,5,-1.1958769560,,,
43.3125000000,5,-1.0101319551,,,
43.3281250000,5,-0.6868134141,,,
43.3437500000,5,-0.2325211018,,,
43.3593750000,5,0.2934494019,,,
43.3750000000,5,0.7795485854,,,
43.3906250000,5,1.0946270227,,,
43.4062500000,5,1.1515660286,,,
43.4218750000,5,0.9349746704,,,
43.4375000000,5,0.5173264146,,,
43.4531250000,5,0.0328216590,,,
43.4687500000,5,-0.3739471138,,,
43.4843750000,5,-0.6181411743,,,
43.5000000000,5,-0.7019500732,,,
43.5156250000,5,-0.7049788833,,,
43.5312500000,5,-0.6998366714,,,
43.5468750000,5,-0.7001876831,,,
43.5625000000,5,-0.6329345703,,,
43.5781250000,5,-0.4107742012,,,
43.5937500000,5,0.0090255737,,,
43.6093750000,5,0.5443572998,,,
43.6250000000,5,1.0312119722,,,
43.6406250000,5,1.3088760376,,,
43.6562500000,5,1.3018649817,,,
43.6718750000,5,1.0591959953,,,
43.6875000000,5,0.7200623155,,,
43.7031250000,5,0.4033736885,,,
43.7187500000,5,0.1573867947,,,
43.7343750000,5,-0.0642471313,,,
43.7500000000,5,-0.3359375000,,,
43.7656250000,5,-0.6879044175,,,
43.7812500000,5,-1.0763469934,,,
43.7968750000,5,-1.4009089470,,,
43.8125000000,5,-1.5689320564,,,
43.8281250000,5,-1.5453029871,,,
43.8437500000,5,-1.3451689482,,,
43.8593750000,5,-1.0133290291,,,
43.8750000000,5,-0.6081160903,,,
43.8906250000,5,-0.1865157932,,,
43.9062500000,5,0.1930388957,,,
43.9218750000,5,0.4763335884,,,
43.9375000000,5,0.6233444214,,,
43.9531250000,5,0.6505661011,,,
43.9687500000,5,0.6282805800,,,
43.9843750000,5,0.6450042725,,,
44.0000000000,5,0.7673950195,,,
44.0156250000,5,0.9939193726,,,
44.0312500000,5,1.2595829964,,,
44.0468750000,5,1.4698940516,,,
44.0625000000,5,1.5663219690,,,
44.0781250000,5,1.5441210270,,,
44.0937500000,5,1.4505230188,,,
44.1093750000,5,1.3301320076,,,
44.1250000000,5,1.1815190315,,,
44.1406250000,5,0.9829788208,,,
44.1562500000,5,0.7006607056,,,
44.1718750000,5,0.3684234917,,,
44.1875000000,5,0.0809707567,,,
44.2031250000,5,-0.0451202393,,,
44.2187500000,5,0.0404281616,,,
44.2343750000,5,0.2763138115,,,
44.2500000000,5,0.5172805786,,,
44.2656250000,5,0.5934981704,,,
44.2812500000,5,0.4338836968,,,
44.2968750000,5,0.1022033989,,,
44.3125000000,5,-0.2364730984,,,
44.3281250000,5,-0.4160003960,,,
44.3437500000,5,-0.3473511040,,,
44.3593750000,5,-0.0628280565,,,
44.3750000000,5,0.3165588081,,,
44.3906250000,5,0.6822280884,,,
44.4062500000,5,0.9571762085,,,
44.4218750000,5,1.1405179501,,,
44.4375000000,5,1.2790989876,,,
44.4531250000,5,1.4094159603,,,
44.4687500000,5,1.5302200317,,,
44.4843750000,5,1.6205600500,,,
44.5000000000,5,1.6310269833,,,
44.5156250000,5,1.5293960571,,,
44.5312500000,5,1.2929459810,,,
44.5468750000,5,0.9225234985,,,
44.5625000000,5,0.4281081855,,,
44.5781250000,5,-0.1657714993,,,
44.5937500000,5,-0.7957764268,,,
44.6093750000,5,-1.3733899593,,,
44.6250000000,5,-1.7846980095,,,
44.6406250000,5,-1.9261319637,,,
44.6562500000,5,-1.7552410364,,,
44.6718750000,5,-1.3291020393,,,
44.6875000000,5,-0.7945479751,,,
44.7031250000,5,-0.3350754082,,,
44.7187500000,5,-0.0950164795,,,
44.7343750000,5,-0.1192397997,,,
44.7500000000,5,-0.3333205879,,,
44.7656250000,5,-0.5881652832,,,
44.7812500000,5,-0.7414398193,,,
44.7968750000,5,-0.7288283706,,,
44.8125000000,5,-0.5885391235,,,
44.8281250000,5,-0.4220809937,,,
44.8437500000,5,-0.3234024048,,,
44.8593750000,5,-0.3206405938,,,
44.8750000000,5,-0.3725357056,,,
44.8906250000,5,-0.3830414116,,,
44.9062500000,5,-0.2650375068,,,
44.9218750000,5,0.0025177000,,,
44.9375000000,5,0.3845596015,,,
44.9531250000,5,0.7962570190,,,
44.9687500000,5,1.1286389828,,,
44.9843750000,5,1.3124469519,,,
45.0000000000,5,1.2984770536,,,
45.0156250000,5,1.0868380070,,,
45.0312500000,5,0.7111129761,,,
45.0468750000,5,0.2348937988,,,
45.0625000000,5,-0.2702560127,,,
45.0781250000,5,-0.7278214097,,,
45.0937500000,5,-1.0837780237,,,
45.1093750000,5,-1.3213809729,,,
45.1250000000,5,-1.4586789608,,,
45.1406250000,5,-1.5461499691,,,
45.1562500000,5,-1.6128309965,,,
45.1718750000,5,-1.6559220552,,,
45.1875000000,5,-1.6277539730,,,
45.2031250000,5,-1.4776920080,,,
45.2187500000,5,-1.1919629574,,,
45.2343750000,5,-0.8102036119,,,
45.2500000000,5,-0.4249573052,,,
45.2656250000,5,-0.1254044026,,,
45.2812500000,5,0.0601959191,,,
45.2968750000,5,0.1637192070,,,
45.3125000000,5,0.2793883979,,,
45.3281250000,5,0.4817428887,,,
45.3437500000,5,0.7745742798,,,
45.3593750000,5,1.0878909826,,,
45.3750000000,5,1.3036500216,,,
45.3906250000,5,1.3307499886,,,
45.4062500000,5,1.1828689575,,,
45.4218750000,5,0.9557189941,,,
45.4375000000,5,0.7807158828,,,
45.4531250000,5,0.7316436768,,,
45.4687500000,5,0.7767258286,,,
45.4843750000,5,0.8138123155,,,
45.5000000000,5,0.7415236831,,,
45.5156250000,5,0.5445404053,,,
45.5312500000,5,0.2933044136,,,
45.5468750000,5,0.1051712036,,,
45.5625000000,5,0.0265884399,,,
45.5781250000,5,0.0180206299,,,
45.5937500000,5,-0.0329208411,,,
45.6093750000,5,-0.2218627930,,,
45.6250000000,5,-0.5235748291,,,
45.6406250000,5,-0.7808989882,,,
45.6562500000,5,-0.7945023179,,,
45.6718750000,5,-0.4673691094,,,
45.6875000000,5,0.1185379028,,,
45.7031250000,5,0.7172470093,,,
45.7187500000,5,1.0487899780,,,
45.7343750000,5,0.9730911255,,,
45.7500000000,5,0.5443801880,,,
45.7656250000,5,-0.0395889282,,,
45.7812500000,5,-0.5499343872,,,
45.7968750000,5,-0.8755875230,,,
45.8125000000,5,-1.0358810425,,,
45.8281250000,5,-1.1145780087,,,
45.8437500000,5,-1.1919169426,,,
45.8593750000,5,-1.2726900578,,,
45.8750000000,5,-1.3066639900,,,
45.8906250000,5,-1.2694469690,,,
45.9062500000,5,-1.1956180334,,,
45.9218750000,5,-1.1512830257,,,
45.9375000000,5,-1.1829450130,,,
45.9531250000,5,-1.2552870512,,,
45.9687500000,5,-1.2557979822,,,
45.9843750000,5,-1.0676419735,,,
46.0000000000,5,-0.6747894287,,,
46.0156250000,5,-0.1724548042,,,
46.0312500000,5,0.2753601074,,,
46.0468750000,5,0.5498198867,,,
46.0625000000,5,0.6301574707,,,
46.0781250000,5,0.5967789292,,,
46.0937500000,5,0.5671691895,,,
46.1093750000,5,0.5963057876,,,
46.1250000000,5,0.6645812988,,,
46.1406250000,5,0.6951522827,,,
46.1562500000,5,0.6249694824,,,
46.1718750000,5,0.4579390883,,,
46.1875000000,5,0.2744064033,,,
46.2031250000,5,0.1712799072,,,
46.2187500000,5,0.2064438015,,,
46.2343750000,5,0.3616257012,,,
46.2500000000,5,0.5674666762,,,
46.2656250000,5,0.7308806777,,,
46.2812500000,5,0.8063582778,,,
46.2968750000,5,0.7982559204,,,
46.3125000000,5,0.7314605713,,,
46.3281250000,5,0.6333007813,,,
46.3437500000,5,0.5196762085,,,
46.3593750000,5,0.3857421875,,,
46.3750000000,5,0.2542952895,,,
46.3906250000,5,0.1603394002,,,
46.4062500000,5,0.1150742024,,,
46.4218750000,5,0.1017227024,,,
46.4375000000,5,0.0620422401,,,
46.4531250000,5,-0.0843963623,,,
46.4687500000,5,-0.3651505113,,,
46.4843750000,5,-0.7302932739,,,
46.5000000000,5,-1.0553970337,,,
46.5156250000,5,-1.2027510405,,,
46.5312500000,5,-1.1083450317,,,
46.5468750000,5,-0.8169403076,,,
46.5625000000,5,-0.4601669014,,,
46.5781250000,5,-0.1749801934,,,
46.5937500000,5,-0.0247650109,,,
46.6093750000,5,0.0157470703,,,
46.6250000000,5,0.0309829693,,,
46.6406250000,5,0.0911941528,,,
46.6562500000,5,0.1993636936,,,
46.6718750000,5,0.3141402900,,,
46.6875000000,5,0.3804092109,,,
46.7031250000,5,0.3897095025,,,
46.7187500000,5,0.3819198906,,,
46.7343750000,5,0.4064407051,,,
46.7500000000,5,0.5101013184,,,
46.7656250000,5,0.6663054824,,,
46.7812500000,5,0.8098754883,,,
46.7968750000,5,0.8683776855,,,
46.8125000000,5,0.8039627075,,,
46.8281250000,5,0.6104354858,,,
46.8437500000,5,0.3342896104,,,
46.8593750000,5,0.0161972009,,,
46.8750000000,5,-0.2870255113,,,
46.8906250000,5,-0.5257874131,,,
46.9062500000,5,-0.6694564819,,,
46.9218750000,5,-0.7129287720,,,
46.9375000000,5,-0.6817244887,,,
46.9531250000,5,-0.6467742920,,,
46.9687500000,5,-0.6673278809,,,
46.9843750000,5,-0.7607650757,,,
47.0000000000,5,-0.8773345947,,,
47.0156250000,5,-0.9277191162,,,
47.0312500000,5,-0.8309555054,,,
47.0468750000,5,-0.5707855225,,,
47.0625000000,5,-0.2125014961,,,
47.0781250000,5,0.1446304023,,,
47.0937500000,5,0.4182128906,,,
47.1093750000,5,0.6037216187,,,
47.1250000000,5,0.7725142837,,,
47.1406250000,5,0.9967116714,,,
47.1562500000,5,1.2837599516,,,
47.1718750000,5,1.5510790348,,,
47.1875000000,5,1.6544719934,,,
47.2031250000,5,1.4766390324,,,
47.2187500000,5,0.9991301894,,,
47.2343750000,5,0.3445357978,,,
47.2500000000,5,-0.2819289863,,,
47.2656250000,5,-0.6955261230,,,
47.2812500000,5,-0.8129730225,,,
47.2968750000,5,-0.6795654297,,,
47.3125000000,5,-0.4219284058,,,
47.3281250000,5,-0.1731414944,,,
47.3437500000,5,0.0091934204,,,
47.3593750000,5,0.1299743950,,,
47.3750000000,5,0.2311096042,,,
47.3906250000,5,0.3197174072,,,
47.4062500000,5,0.3489075005,,,
47.4218750000,5,0.2438354045,,,
47.4375000000,5,-0.0199050903,,,
47.4531250000,5,-0.3843002021,,,
47.4687500000,5,-0.7319794297,,,
47.4843750000,5,-0.9396666884,,,
47.5000000000,5,-0.9601135254,,,
47.5156250000,5,-0.8541945815,,,
47.5312500000,5,-0.7601624131,,,
47.5468750000,5,-0.7813568115,,,
47.5625000000,5,-0.9272155762,,,
47.5781250000,5,-1.0890580416,,,
47.5937500000,5,-1.1115419865,,,
47.6093750000,5,-0.8952103257,,,
47.6250000000,5,-0.4497374892,,,
47.6406250000,5,0.0986557007,,,
47.6562500000,5,0.5755310059,,,
47.6718750000,5,0.8523483276,,,
47.6875000000,5,0.8984984756,,,
47.7031250000,5,0.7768784165,,,
47.7187500000,5,0.5892028809,,,
47.7343750000,5,0.4189682007,,,
47.7500000000,5,0.3021469116,,,
47.7656250000,5,0.2382277995,,,
47.7812500000,5,0.2096405029,,,
47.7968750000,5,0.2094040066,,,
47.8125000000,5,0.2268829048,,,
47.8281250000,5,0.2480010986,,,
47.8437500000,5,0.2377014011,,,
47.8593750000,5,0.1410064995,,,
47.8750000000,5,-0.0807342529,,,
47.8906250000,5,-0.4256896973,,,
47.9062500000,5,-0.8372650146,,,
47.9218750000,5,-1.2186429501,,,
47.9375000000,5,-1.4698640108,,,
47.9531250000,5,-1.5178829432,,,
47.9687500000,5,-1.3719409704,,,
47.9843750000,5,-1.1081310511,,,
48.0000000000,6,-0.8412703872,,,
48.0156250000,6,-0.6668853760,,,
48.0312500000,6,-0.6109008789,,,
48.0468750000,6,-0.6050261855,,,
48.0625000000,6,-0.5339127183,,,
48.0781250000,6,-0.3044128120,,,
48.0937500000,6,0.0810546875,,,
48.1093750000,6,0.5200424194,,,
48.1250000000,6,0.8664932251,,,
48.1406250000,6,1.0202100277,,,
48.1562500000,6,0.9967194200,,,
48.1718750000,6,0.9232407212,,,
48.1875000000,6,0.9244614244,,,
48.2031250000,6,1.0641330481,,,
48.2187500000,6,1.2847599983,,,
48.2343750000,6,1.4553380013,,,
48.2500000000,6,1.4542160034,,,
48.2656250000,6,1.2489169836,,,
48.2812500000,6,0.9000548720,,,
48.2968750000,6,0.5172271729,,,
48.3125000000,6,0.1755980998,,,
48.3281250000,6,-0.0993881226,,,
48.3437500000,6,-0.3182983100,,,
48.3593750000,6,-0.4788284004,,,
48.3750000000,6,-0.5608901978,,,
48.3906250000,6,-0.5366057754,,,
48.4062500000,6,-0.4160461128,,,
48.4218750000,6,-0.2585372925,,,
48.4375000000,6,-0.1503982991,,,
48.4531250000,6,-0.1356354058,,,
48.4687500000,6,-0.1828918010,,,
48.4843750000,6,-0.2057418972,,,
48.5000000000,6,-0.1054840013,,,
48.5156250000,6,0.1457366943,,,
48.5312500000,6,0.4920273125,,,
48.5468750000,6,0.8222274780,,,
48.5625000000,6,1.0297390223,,,
48.5781250000,6,1.0615619421,,,
48.5937500000,6,0.9173430800,,,
48.6093750000,6,0.6550980210,,,
48.6250000000,6,0.3512572944,,,
48.6406250000,6,0.0917282104,,,
48.6562500000,6,-0.0466613807,,,
48.6718750000,6,-0.0103988601,,,
48.6875000000,6,0.1831589043,,,
48.7031250000,6,0.4471969903,,,
48.7187500000,6,0.6513823867,,,
48.7343750000,6,0.6833878160,,,
48.7500000000,6,0.4953232110,,,
48.7656250000,6,0.1376419067,,,
48.7812500000,6,-0.2734070122,,,
48.7968750000,6,-0.6116408706,,,
48.8125000000,6,-0.8138961792,,,
48.8281250000,6,-0.8751450181,,,
48.8437500000,6,-0.8438187242,,,
48.8593750000,6,-0.7793198228,,,
48.8750000000,6,-0.7313690186,,,
48.8906250000,6,-0.7368010879,,,
48.9062500000,6,-0.8141707778,,,
48.9218750000,6,-0.9527434707,,,
48.9375000000,6,-1.1174470186,,,
48.9531250000,6,-1.2175370455,,,
48.9687500000,6,-1.1685559750,,,
48.9843750000,6,-0.9362946153,,,
49.0000000000,6,-0.5807800293,,,
49.0156250000,6,-0.2411575019,,,
49.0312500000,6,-0.0594329797,,,
49.0468750000,6,-0.1199112013,,,
49.0625000000,6,-0.3807449043,,,
49.0781250000,6,-0.7011566162,,,
49.0937500000,6,-0.9285889268,,,
49.1093750000,6,-0.9713593125,,,
49.1250000000,6,-0.8270797729,,,
49.1406250000,6,-0.5677490234,,,
49.1562500000,6,-0.2750701904,,,
49.1718750000,6,-0.0084075928,,,
49.1875000000,6,0.2240982056,,,
49.2031250000,6,0.4304885864,,,
49.2187500000,6,0.6173477173,,,
49.2343750000,6,0.7818222046,,,
49.2500000000,6,0.9017333984,,,
49.2656250000,6,0.9490662217,,,
49.2812500000,6,0.8859786987,,,
49.2968750000,6,0.7085266113,,,
49.3125000000,6,0.4534760118,,,
49.3281250000,6,0.2199860066,,,
49.3437500000,6,0.1282805949,,,
49.3593750000,6,0.2789764106,,,
49.3750000000,6,0.6550521851,,,
49.3906250000,6,1.1191250086,,,
49.4062500000,6,1.4603199959,,,
49.4218750000,6,1.5153199434,,,
49.4375000000,6,1.2632449865,,,
49.4531250000,6,0.8560028076,,,
49.4687500000,6,0.5283660889,,,
49.4843750000,6,0.4724273980,,,
49.5000000000,6,0.7367935181,,,
49.5156250000,6,1.2019269466,,,
49.5312500000,6,1.6790390015,,,
49.5468750000,6,1.9861680269,,,
49.5625000000,6,2.0240020752,,,
49.5781250000,6,1.7980799675,,,
49.5937500000,6,1.3854449987,,,
49.6093750000,6,0.8917694092,,,
49.6250000000,6,0.4276047051,,,
49.6406250000,6,0.0859680176,,,
49.6562500000,6,-0.0967712402,,,
49.6718750000,6,-0.1369019002,,,
49.6875000000,6,-0.1049041972,,,
49.7031250000,6,-0.0975646973,,,
49.7187500000,6,-0.1663666070,,,
49.7343750000,6,-0.3036499023,,,
49.7500000000,6,-0.4369659126,,,
49.7656250000,6,-0.4761047065,,,
49.7812500000,6,-0.3820953071,,,
49.7968750000,6,-0.1973343045,,,
49.8125000000,6,-0.0263748206,,,
49.8281250000,6,0.0358657800,,,
49.8437500000,6,-0.0631561279,,,
49.8593750000,6,-0.2636719048,,,
49.8750000000,6,-0.4624862969,,,
49.8906250000,6,-0.5241547227,,,
49.9062500000,6,-0.3610306084,,,
49.9218750000,6,0.0395126306,,,
49.9375000000,6,0.6067047119,,,
49.9531250000,6,1.2208629847,,,
49.9687500000,6,1.7616200447,,,
49.9843750000,6,2.1288530827,,,
50.0000000000,6,2.2967679501,,,
50.0156250000,6,2.2857890129,,,
50.0312500000,6,2.1307299137,,,
50.0468750000,6,1.8605120182,,,
50.0625000000,6,1.4821850061,,,
50.0781250000,6,0.9792175293,,,
50.0937500000,6,0.3604660034,,,
50.1093750000,6,-0.3240203857,,,
50.1250000000,6,-0.9987564087,,,
50.1406250000,6,-1.5604319572,,,
50.1562500000,6,-1.9596710205,,,
50.1718750000,6,-2.2019960880,,,
50.1875000000,6,-2.3264999390,,,
50.2031250000,6,-2.3915939331,,,
50.2187500000,6,-2.4144589901,,,
50.2343750000,6,-2.3824770451,,,
50.2500000000,6,-2.2813339233,,,
50.2656250000,6,-2.1411969662,,,
50.2812500000,6,-2.0176389217,,,
50.2968750000,6,-1.9630739689,,,
50.3125000000,6,-1.9744869471,,,
50.3281250000,6,-1.9556579590,,,
50.3437500000,6,-1.7932970524,,,
50.3593750000,6,-1.4157409668,,,
50.3750000000,6,-0.8684235215,,,
50.3906250000,6,-0.2897338867,,,
50.4062500000,6,0.1417769939,,,
50.4218750000,6,0.3219757080,,,
50.4375000000,6,0.2533111870,,,
50.4531250000,6,0.0423126183,,,
50.4687500000,6,-0.1609954983,,,
50.4843750000,6,-0.2491531074,,,
50.5000000000,6,-0.1964340061,,,
50.5156250000,6,-0.0444488488,,,
50.5312500000,6,0.1251831055,,,
50.5468750000,6,0.2374268025,,,
50.5625000000,6,0.2827301025,,,
50.5781250000,6,0.2889938056,,,
50.5937500000,6,0.3117752075,,,
50.6093750000,6,0.3985367119,,,
50.6250000000,6,0.5448226929,,,
50.6406250000,6,0.7078552246,,,
50.6562500000,6,0.7942047119,,,
50.6718750000,6,0.7021636963,,,
50.6875000000,6,0.3842009902,,,
50.7031250000,6,-0.1258697957,,,
50.7187500000,6,-0.7080687881,,,
50.7343750000,6,-1.2058869600,,,
50.7500000000,6,-1.4741059542,,,
50.7656250000,6,-1.4653400183,,,
50.7812500000,6,-1.2144550085,,,
50.7968750000,6,-0.8308640122,,,
50.8125000000,6,-0.4507445991,,,
50.8281250000,6,-0.1703491062,,,
50.8437500000,6,-0.0249176007,,,
50.8593750000,6,0.0063476558,,,
50.8750000000,6,-0.0265121497,,,
50.8906250000,6,-0.0705795288,,,
50.9062500000,6,-0.1061324999,,,
50.9218750000,6,-0.1200103983,,,
50.9375000000,6,-0.0914459229,,,
50.9531250000,6,0.0079498291,,,
50.9687500000,6,0.1985016018,,,
50.9843750000,6,0.4699172974,,,
51.0000000000,6,0.7471541762,,,
51.0156250000,6,0.9155501723,,,
51.0312500000,6,0.8891677856,,,
51.0468750000,6,0.6315689087,,,
51.0625000000,6,0.2061844021,,,
51.0781250000,6,-0.2630692124,,,
51.0937500000,6,-0.6333084106,,,
51.1093750000,6,-0.8073806763,,,
51.1250000000,6,-0.7720947266,,,
51.1406250000,6,-0.5743483901,,,
51.1562500000,6,-0.3113707900,,,
51.1718750000,6,-0.0634307936,,,
51.1875000000,6,0.1164245978,,,
51.2031250000,6,0.2166519016,,,
51.2187500000,6,0.2422256023,,,
51.2343750000,6,0.2072754055,,,
51.2500000000,6,0.1277312934,,,
51.2656250000,6,0.0243682899,,,
51.2812500000,6,-0.0702743530,,,
51.2968750000,6,-0.1429900974,,,
51.3125000000,6,-0.1910019070,,,
51.3281250000,6,-0.2271499932,,,
51.3437500000,6,-0.2455292046,,,
51.3593750000,6,-0.2328110039,,,
51.3750000000,6,-0.1552886963,,,
51.3906250000,6,0.0179824792,,,
51.4062500000,6,0.2682037055,,,
51.4218750000,6,0.5346527100,,,
51.4375000000,6,0.7392807007,,,
51.4531250000,6,0.8242645264,,,
51.4687500000,6,0.7744445801,,,
51.4843750000,6,0.6417847276,,,
51.5000000000,6,0.4909363091,,,
51.5156250000,6,0.3773651123,,,
51.5312500000,6,0.3152008057,,,
51.5468750000,6,0.2839584053,,,
51.5625000000,6,0.2524108887,,,
51.5781250000,6,0.1934127957,,,
51.5937500000,6,0.0942230225,,,
51.6093750000,6,-0.0589981116,,,
51.6250000000,6,-0.2652206123,,,
51.6406250000,6,-0.4968796074,,,
51.6562500000,6,-0.6977080703,,,
51.6718750000,6,-0.7879791260,,,
51.6875000000,6,-0.6888427734,,,
51.7031250000,6,-0.3762435913,,,
51.7187500000,6,0.1037978977,,,
51.7343750000,6,0.6383666992,,,
51.7500000000,6,1.0797200203,,,
51.7656250000,6,1.3034360409,,,
51.7812500000,6,1.2648769617,,,
51.7968750000,6,0.9892730713,,,
51.8125000000,6,0.5739899278,,,
51.8281250000,6,0.1522216946,,,
51.8437500000,6,-0.1511002034,,,
51.8593750000,6,-0.2653197944,,,
51.8750000000,6,-0.1991652995,,,
51.8906250000,6,-0.0227966309,,,
51.9062500000,6,0.1508713067,,,
51.9218750000,6,0.2360763997,,,
51.9375000000,6,0.2211685032,,,
51.9531250000,6,0.1577147990,,,
51.9687500000,6,0.1405258030,,,
51.9843750000,6,0.2361450046,,,
52.0000000000,6,0.4341812134,,,
52.0156250000,6,0.6464232802,,,
52.0312500000,6,0.7502136230,,,
52.0468750000,6,0.6619338989,,,
52.0625000000,6,0.3654021919,,,
52.0781250000,6,-0.0626144409,,,
52.0937500000,6,-0.5137023926,,,
52.1093750000,6,-0.8770676255,,,
52.1250000000,6,-1.0778499842,,,
52.1406250000,6,-1.1018830538,,,
52.1562500000,6,-0.9824982285,,,
52.1718750000,6,-0.7849196792,,,
52.1875000000,6,-0.5579453111,,,
52.2031250000,6,-0.3344497979,,,
52.2187500000,6,-0.0748443604,,,
52.2343750000,6,0.2690964043,,,
52.2500000000,6,0.7370529175,,,
52.2656250000,6,1.2972409725,,,
52.2812500000,6,1.8486020565,,,
52.2968750000,6,2.2421259880,,,
52.3125000000,6,2.3685760498,,,
52.3281250000,6,2.2087020874,,,
52.3437500000,6,1.8424530029,,,
52.3593750000,6,1.3801569939,,,
52.3750000000,6,0.9167098999,,,
52.3906250000,6,0.4936676025,,,
52.4062500000,6,0.1162796021,,,
52.4218750000,6,-0.2103424072,,,
52.4375000000,6,-0.4629288018,,,
52.4531250000,6,-0.6201400757,,,
52.4687500000,6,-0.6932219863,,,
52.4843750000,6,-0.7335051894,,,
52.5000000000,6,-0.7881392837,,,
52.5156250000,6,-0.8596724868,,,
52.5312500000,6,-0.9098129272,,,
52.5468750000,6,-0.8740767837,,,
52.5625000000,6,-0.7311859131,,,
52.5781250000,6,-0.5345535278,,,
52.5937500000,6,-0.4077301025,,,
52.6093750000,6,-0.4561995864,,,
52.6250000000,6,-0.6836853027,,,
52.6406250000,6,-0.9867172241,,,
52.6562500000,6,-1.1994169950,,,
52.6718750000,6,-1.2062989473,,,
52.6875000000,6,-1.0128400326,,,
52.7031250000,6,-0.7511215210,,,
52.7187500000,6,-0.5715637207,,,
52.7343750000,6,-0.5670089722,,,
52.7500000000,6,-0.6986464858,,,
52.7656250000,6,-0.8275070190,,,
52.7812500000,6,-0.7976456285,,,
52.7968750000,6,-0.5397490859,,,
52.8125000000,6,-0.1017837971,,,
52.8281250000,6,0.3555450141,,,
52.8437500000,6,0.6634368896,,,
52.8593750000,6,0.7173767090,,,
52.8750000000,6,0.5234603882,,,
52.8906250000,6,0.1962585002,,,
52.9062500000,6,-0.1285858005,,,
52.9218750000,6,-0.3337172866,,,
52.9375000000,6,-0.3686523139,,,
52.9531250000,6,-0.2515487969,,,
52.9687500000,6,-0.0560531616,,,
52.9843750000,6,0.1260756999,,,
53.0000000000,6,0.1990738064,,,
53.0156250000,6,0.1279602051,,,
53.0312500000,6,-0.0704193115,,,
53.0468750000,6,-0.3347549140,,,
53.0625000000,6,-0.5825194716,,,
53.0781250000,6,-0.7494965196,,,
53.0937500000,6,-0.8107147217,,,
53.1093750000,6,-0.7757645249,,,
53.1250000000,6,-0.6834334731,,,
53.1406250000,6,-0.5787200928,,,
53.1562500000,6,-0.4901123047,,,
53.1718750000,6,-0.4033890069,,,
53.1875000000,6,-0.2845611870,,,
53.2031250000,6,-0.0672073364,,,
53.2187500000,6,0.2824248970,,,
53.2343750000,6,0.7338562012,,,
53.2500000000,6,1.2012250423,,,
53.2656250000,6,1.5612560511,,,
53.2812500000,6,1.7177890539,,,
53.2968750000,6,1.6308820248,,,
53.3125000000,6,1.3528749943,,,
53.3281250000,6,0.9955673218,,,
53.3437500000,6,0.6682587266,,,
53.3593750000,6,0.4505997002,,,
53.3750000000,6,0.3568877876,,,
53.3906250000,6,0.3791809082,,,
53.4062500000,6,0.4699401855,,,
53.4218750000,6,0.5884398818,,,
53.4375000000,6,0.7010726929,,,
53.4531250000,6,0.7675781250,,,
53.4687500000,6,0.7442092896,,,
53.4843750000,6,0.6190872192,,,
53.5000000000,6,0.4001846015,,,
53.5156250000,6,0.1251067966,,,
53.5312500000,6,-0.1430511028,,,
53.5468750000,6,-0.3253631890,,,
53.5625000000,6,-0.3508529961,,,
53.5781250000,6,-0.1923903972,,,
53.5937500000,6,0.1027756035,,,
53.6093750000,6,0.4383316040,,,
53.6250000000,6,0.6790924072,,,
53.6406250000,6,0.7319335938,,,
53.6562500000,6,0.5705718994,,,
53.6718750000,6,0.2603988945,,,
53.6875000000,6,-0.1176453009,,,
53.7031250000,6,-0.5029602051,,,
53.7187500000,6,-0.8972702026,,,
53.7343750000,6,-1.3343119621,,,
53.7500000000,6,-1.8303220272,,,
53.7656250000,6,-2.3366780281,,,
53.7812500000,6,-2.7343440056,,,
53.7968750000,6,-2.9131469727,,,
53.8125000000,6,-2.8171689510,,,
53.8281250000,6,-2.4580841064,,,
53.8437500000,6,-1.9303439856,,,
53.8593750000,6,-1.3425290585,,,
53.8750000000,6,-0.7873383164,,,
53.8906250000,6,-0.3167191148,,,
53.9062500000,6,0.0374908410,,,
53.9218750000,6,0.2717360854,,,
53.9375000000,6,0.3983306885,,,
53.9531250000,6,0.4543839097,,,
53.9687500000,6,0.4818038940,,,
53.9843750000,6,0.5276030898,,,
54.0000000000,6,0.6164398193,,,
54.0156250000,6,0.7421494126,,,
54.0312500000,6,0.8616486192,,,
54.0468750000,6,0.9163054824,,,
54.0625000000,6,0.8660430908,,,
54.0781250000,6,0.7051162720,,,
54.0937500000,6,0.4783324897,,,
54.1093750000,6,0.2873382866,,,
54.1250000000,6,0.2269286960,,,
54.1406250000,6,0.3678207099,,,
54.1562500000,6,0.6874771118,,,
54.1718750000,6,1.0759960413,,,
54.1875000000,6,1.3641970158,,,
54.2031250000,6,1.4102710485,,,
54.2187500000,6,1.1542359591,,,
54.2343750000,6,0.6742783189,,,
54.2500000000,6,0.1362380981,,,
54.2656250000,6,-0.2964630127,,,
54.2812500000,6,-0.5228499770,,,
54.2968750000,6,-0.5618286133,,,
54.3125000000,6,-0.5109406114,,,
54.3281250000,6,-0.4870682061,,,
54.3437500000,6,-0.5503463745,,,
54.3593750000,6,-0.6774826050,,,
54.3750000000,6,-0.7690505981,,,
54.3906250000,6,-0.7299423218,,,
54.4062500000,6,-0.5339508057,,,
54.4218750000,6,-0.2277985066,,,
54.4375000000,6,0.0599594116,,,
54.4531250000,6,0.2120056003,,,
54.4687500000,6,0.1578979045,,,
54.4843750000,6,-0.0699996874,,,
54.5000000000,6,-0.3714675903,,,
54.5156250000,6,-0.6126328111,,,
54.5312500000,6,-0.7068939209,,,
54.5468750000,6,-0.6529464722,,,
54.5625000000,6,-0.5241469741,,,
54.5781250000,6,-0.4287872016,,,
54.5937500000,6,-0.4352264106,,,
54.6093750000,6,-0.5257033706,,,
54.6250000000,6,-0.6108322144,,,
54.6406250000,6,-0.5867310166,,,
54.6562500000,6,-0.4121932983,,,
54.6718750000,6,-0.1124114990,,,
54.6875000000,6,0.2107543945,,,
54.7031250000,6,0.4716263115,,,
54.7187500000,6,0.6133118272,,,
54.7343750000,6,0.6423187256,,,
54.7500000000,6,0.5902404785,,,
54.7656250000,6,0.4881438911,,,
54.7812500000,6,0.3354034126,,,
54.7968750000,6,0.1483688056,,,
54.8125000000,6,-0.0477218591,,,
54.8281250000,6,-0.1962738037,,,
54.8437500000,6,-0.2388686985,,,
54.8593750000,6,-0.1638641059,,,
54.8750000000,6,0.0137252798,,,
54.8906250000,6,0.2327194065,,,
54.9062500000,6,0.4282302856,,,
54.9218750000,6,0.5574799180,,,
54.9375000000,6,0.5993499756,,,
54.9531250000,6,0.5587310791,,,
54.9687500000,6,0.4628905952,,,
54.9843750000,6,0.3569031060,,,
55.0000000000,6,0.2939147949,,,
55.0156250000,6,0.3006668091,,,
55.0312500000,6,0.3533858955,,,
55.0468750000,6,0.3829041123,,,
55.0625000000,6,0.3094100952,,,
55.0781250000,6,0.1115417033,,,
55.0937500000,6,-0.1451186985,,,
55.1093750000,6,-0.3293761909,,,
55.1250000000,6,-0.3224563897,,,
55.1406250000,6,-0.0991821289,,,
55.1562500000,6,0.2357407063,,,
55.1718750000,6,0.5154572129,,,
55.1875000000,6,0.5850905776,,,
55.2031250000,6,0.3994750977,,,
55.2187500000,6,0.0257568397,,,
55.2343750000,6,-0.3791351020,,,
55.2500000000,6,-0.6517639160,,,
55.2656250000,6,-0.6837006211,,,
55.2812500000,6,-0.4945068061,,,
55.2968750000,6,-0.1705245972,,,
55.3125000000,6,0.1318054050,,,
55.3281250000,6,0.2760162055,,,
55.3437500000,6,0.1975249946,,,
55.3593750000,6,-0.0689086914,,,
55.3750000000,6,-0.3907242119,,,
55.3906250000,6,-0.6086884141,,,
55.4062500000,6,-0.6011505127,,,
55.4218750000,6,-0.3502807915,,,
55.4375000000,6,0.0400619507,,,
55.4531250000,6,0.4098281860,,,
55.4687500000,6,0.6319733262,,,
55.4843750000,6,0.6786652207,,,
55.5000000000,6,0.6536788940,,,
55.5156250000,6,0.7180557251,,,
55.5312500000,6,0.9946823120,,,
55.5468750000,6,1.4849090576,,,
55.5625000000,6,2.0352249146,,,
55.5781250000,6,2.4159700871,,,
55.5937500000,6,2.4201970100,,,
55.6093750000,6,1.9821319580,,,
55.6250000000,6,1.2340849638,,,
55.6406250000,6,0.4430770874,,,
55.6562500000,6,-0.1060103998,,,
55.6718750000,6,-0.2605515122,,,
55.6875000000,6,-0.0681075975,,,
55.7031250000,6,0.2778930962,,,
55.7187500000,6,0.5460358262,,,
55.7343750000,6,0.5958861709,,,
55.7500000000,6,0.4131317139,,,
55.7656250000,6,0.1164856032,,,
55.7812500000,6,-0.1775359958,,,
55.7968750000,6,-0.3869552910,,,
55.8125000000,6,-0.5180283189,,,
55.8281250000,6,-0.6175919175,,,
55.8437500000,6,-0.7405548096,,,
55.8593750000,6,-0.9042587280,,,
55.8750000000,6,-1.0958939791,,,
55.8906250000,6,-1.2845460176,,,
55.9062500000,6,-1.4206310511,,,
55.9218750000,6,-1.4576419592,,,
55.9375000000,6,-1.3456120491,,,
55.9531250000,6,-1.0678180456,,,
55.9687500000,6,-0.6433640122,,,
55.9843750000,6,-0.1654815972,,,
56.0000000000,7,0.2488860935,,,
56.0156250000,7,0.4995116889,,,
56.0312500000,7,0.5510025024,,,
56.0468750000,7,0.4530257881,,,
56.0625000000,7,0.2925185859,,,
56.0781250000,7,0.1652144939,,,
56.0937500000,7,0.1179198995,,,
56.1093750000,7,0.1280746013,,,
56.1250000000,7,0.1262512058,,,
56.1406250000,7,0.0273742694,,,
56.1562500000,7,-0.2191085964,,,
56.1718750000,7,-0.5979537964,,,
56.1875000000,7,-1.0163270235,,,
