Time:64Hz,Epoch,Channel 1,Event Id,Event Date,Event Duration
0.0000000000,0,1.0993189812,,,
0.0156250000,0,1.0936579704,,,
0.0312500000,0,1.0682979822,,,
0.0468750000,0,1.0260310173,,,
0.0625000000,0,0.9407805800,,,
0.0781250000,0,0.7753906250,,,
0.0937500000,0,0.5089722276,,,
0.1093750000,0,0.1693114936,,,
0.1250000000,0,-0.1912689060,,,
0.1406250000,0,-0.4860228896,,,
0.1562500000,0,-0.6603394151,,,
0.1718750000,0,-0.6853638291,,,
0.1875000000,0,-0.6004027724,,,
0.2031250000,0,-0.4833526909,,,
0.2187500000,0,-0.4224700928,,,
0.2343750000,0,-0.4563598931,,,
0.2500000000,0,-0.5531920791,,,
0.2656250000,0,-0.6030120850,,,
0.2812500000,0,-0.4957732856,,,
0.2968750000,0,-0.1961212009,,,
0.3125000000,0,0.2326201946,,,
0.3281250000,0,0.6544036865,,,
0.3437500000,0,0.9469451904,,,
0.3593750000,0,1.0673370361,,,
0.3750000000,0,1.0426330566,,,
0.3906250000,0,0.9132080078,,,
0.4062500000,0,0.7566832900,,,
0.4218750000,0,0.6001433730,,,
0.4375000000,0,0.4932861030,,,
0.4531250000,0,0.4930573106,,,
0.4687500000,0,0.6438292861,,,
0.4843750000,0,0.9503632188,,,
0.5000000000,0,1.3274079561,,,
0.5156250000,0,1.6138310432,,,
0.5312500000,0,1.6497039795,,,
0.5468750000,0,1.3262020350,,,
0.5625000000,0,0.6651610732,,,
0.5781250000,0,-0.1972960979,,,
0.5937500000,0,-1.0649869442,,,
0.6093750000,0,-1.7862399817,,,
0.6250000000,0,-2.3019709587,,,
0.6406250000,0,-2.6324310303,,,
0.6562500000,0,-2.8476409912,,,
0.6718750000,0,-2.9539339542,,,
0.6875000000,0,-2.9173278809,,,
0.7031250000,0,-2.6295320988,,,
0.7187500000,0,-2.0432128906,,,
0.7343750000,0,-1.2039489746,,,
0.7500000000,0,-0.2956542969,,,
0.7656250000,0,0.4520263970,,,
0.7812500000,0,0.8541718125,,,
0.7968750000,0,0.8779602051,,,
0.8125000000,0,0.6902008057,,,
0.8281250000,0,0.5267333984,,,
0.8437500000,0,0.5981903076,,,
0.8593750000,0,0.9660645127,,,
0.8750000000,0,1.5165859461,,,
0.8906250000,0,2.0324249268,,,
0.9062500000,0,2.3270869255,,,
0.9218750000,0,2.3433990479,,,
0.9375000000,0,2.1513209343,,,
0.9531250000,0,1.9062500000,,,
0.9687500000,0,1.7288969755,,,
0.9843750000,0,1.6295319796,,,
1.0000000000,0,1.5399630070,,,
1.0156250000,0,1.3221739531,,,
1.0312500000,0,0.9398499131,,,
1.0468750000,0,0.4537658989,,,
1.0625000000,0,0.0243377704,,,
1.0781250000,0,-0.2023925930,,,
1.0937500000,0,-0.1706389934,,,
1.1093750000,0,-0.0258789100,,,
1.1250000000,0,0.0101470901,,,
1.1406250000,0,-0.2247619927,,,
1.1562500000,0,-0.7290955186,,,
1.1718750000,0,-1.3075870275,,,
1.1875000000,0,-1.6962740421,,,
1.2031250000,0,-1.6884460449,,,
1.2187500000,0,-1.2980350256,,,
1.2343750000,0,-0.6753693223,,,
1.2500000000,0,-0.0580749512,,,
1.2656250000,0,0.3988800049,,,
1.2812500000,0,0.6196442246,,,
1.2968750000,0,0.5678101182,,,
1.3125000000,0,0.2358092964,,,
1.3281250000,0,-0.3607940972,,,
1.3437500000,0,-1.1276700497,,,
1.3593750000,0,-1.8733060360,,,
1.3750000000,0,-2.3560938835,,,
1.3906250000,0,-2.4294741154,,,
1.4062500000,0,-2.1324770451,,,
1.4218750000,0,-1.6986689568,,,
1.4375000000,0,-1.4132839441,,,
1.4531250000,0,-1.4202729464,,,
1.4687500000,0,-1.6341860294,,,
1.4843750000,0,-1.7844090462,,,
1.5000000000,0,-1.6287380457,,,
1.5156250000,0,-1.1149599552,,,
1.5312500000,0,-0.3793182075,,,
1.5468750000,0,0.3154143989,,,
1.5625000000,0,0.8159484863,,,
1.5781250000,0,1.1104739904,,,
1.5937500000,0,1.3415219784,,,
1.6093750000,0,1.6252590418,,,
1.6250000000,0,1.9563449621,,,
1.6406250000,0,2.1842501163,,,
1.6562500000,0,2.1418910027,,,
1.6718750000,0,1.7379000187,,,
1.6875000000,0,1.0471500158,,,
1.7031250000,0,0.2559508979,,,
1.7187500000,0,-0.4229584038,,,
1.7343750000,0,-0.8510437012,,,
1.7500000000,0,-1.0144040585,,,
1.7656250000,0,-0.9682465196,,,
1.7812500000,0,-0.8117827773,,,
1.7968750000,0,-0.6229094863,,,
1.8125000000,0,-0.4761353135,,,
1.8281250000,0,-0.3831939995,,,
1.8437500000,0,-0.3566283882,,,
1.8593750000,0,-0.3528594971,,,
1.8750000000,0,-0.3318634033,,,
1.8906250000,0,-0.2352447957,,,
1.9062500000,0,-0.0375366211,,,
1.9218750000,0,0.2321320027,,,
1.9375000000,0,0.5164337158,,,
1.9531250000,0,0.7502440810,,,
1.9687500000,0,0.8931732178,,,
1.9843750000,0,0.9684600830,,,
2.0000000000,0,1.0492249727,,,
2.0156250000,0,1.1774899960,,,
2.0312500000,0,1.3742979765,,,
2.0468750000,0,1.5642240047,,,
2.0625000000,0,1.6775050163,,,
2.0781250000,0,1.6873320341,,,
2.0937500000,0,1.6323089600,,,
2.1093750000,0,1.5962979794,,,
2.1250000000,0,1.6426539421,,,
2.1406250000,0,1.7281490564,,,
2.1562500000,0,1.7376559973,,,
2.1718750000,0,1.5177149773,,,
2.1875000000,0,0.9876708984,,,
2.2031250000,0,0.2094268948,,,
2.2187500000,0,-0.6366729736,,,
2.2343750000,0,-1.3223270178,,,
2.2500000000,0,-1.6846619844,,,
2.2656250000,0,-1.7101750374,,,
2.2812500000,0,-1.5400539637,,,
2.2968750000,0,-1.3175660372,,,
2.3125000000,0,-1.1494450569,,,
2.3281250000,0,-1.0027470589,,,
2.3437500000,0,-0.7503356934,,,
2.3593750000,0,-0.2875213921,,,
2.3750000000,0,0.3397980034,,,
2.3906250000,0,0.9939270020,,,
2.4062500000,0,1.4446719885,,,
2.4218750000,0,1.5177919865,,,
2.4375000000,0,1.1802669764,,,
2.4531250000,0,0.5678864121,,,
2.4687500000,0,-0.1250458062,,,
2.4843750000,0,-0.6911315918,,,
2.5000000000,0,-1.0387879610,,,
2.5156250000,0,-1.1687159538,,,
2.5312500000,0,-1.1331789494,,,
2.5468750000,0,-0.9970244765,,,
2.5625000000,0,-0.7828978896,,,
2.5781250000,0,-0.4794006050,,,
2.5937500000,0,-0.0819091797,,,
2.6093750000,0,0.3161163032,,,
2.6250000000,0,0.6172637939,,,
2.6406250000,0,0.6670380235,,,
2.6562500000,0,0.4001922905,,,
2.6718750000,0,-0.1218414009,,,
2.6875000000,0,-0.7238616943,,,
2.7031250000,0,-1.1746519804,,,
2.7187500000,0,-1.3224179745,,,
2.7343750000,0,-1.1471710205,,,
2.7500000000,0,-0.8139495850,,,
2.7656250000,0,-0.5762938857,,,
2.7812500000,0,-0.6633300781,,,
2.7968750000,0,-1.1288599968,,,
2.8125000000,0,-1.8230589628,,,
2.8281250000,0,-2.4582819939,,,
2.8437500000,0,-2.7620539665,,,
2.8593750000,0,-2.6081540585,,,
2.8750000000,0,-2.0814819336,,,
2.8906250000,0,-1.3842929602,,,
2.9062500000,0,-0.7321929932,,,
2.9218750000,0,-0.2210541070,,,
2.9375000000,0,0.1750487983,,,
2.9531250000,0,0.5702362061,,,
2.9687500000,0,1.0089260340,,,
2.9843750000,0,1.4352719784,,,
3.0000000000,0,1.6637120247,,,
3.0156250000,0,1.5510250330,,,
3.0312500000,0,1.0789949894,,,
3.0468750000,0,0.4514159858,,,
3.0625000000,0,-0.0177917499,,,
3.0781250000,0,-0.0564422607,,,
3.0937500000,0,0.4235840142,,,
3.1093750000,0,1.2722469568,,,
3.1250000000,0,2.2331240177,,,
3.1406250000,0,3.0513310432,,,
3.1562500000,0,3.9829559326,,,
3.1718750000,0,4.1172790527,,,
3.1875000000,0,4.0144958496,,,
3.2031250000,0,3.6099851131,,,
3.2187500000,0,2.8586881161,,,
3.2343750000,0,1.8397220373,,,
3.2500000000,0,0.7449188232,,,
3.2656250000,0,-0.2077637017,,,
3.2812500000,0,-0.8759459853,,,
3.2968750000,0,-1.2789000273,,,
3.3125000000,0,-1.5002290010,,,
3.3281250000,0,-1.6470949650,,,
3.3437500000,0,-1.7476500273,,,
3.3593750000,0,-1.7781219482,,,
3.3750000000,0,-1.6894530058,,,
3.3906250000,0,-1.4877619743,,,
3.4062500000,0,-1.2449489832,,,
3.4218750000,0,-1.0278630257,,,
3.4375000000,0,-0.8625488281,,,
3.4531250000,0,-0.7256011963,,,
3.4687500000,0,-0.5667572021,,,
3.4843750000,0,-0.3604125977,,,
3.5000000000,0,-0.1271362007,,,
3.5156250000,0,0.0948181227,,,
3.5312500000,0,0.2896729112,,,
3.5468750000,0,0.4400481880,,,
3.5625000000,0,0.5462340713,,,
3.5781250000,0,0.5515747070,,,
3.5937500000,0,0.3904266059,,,
3.6093750000,0,0.0221710205,,,
3.6250000000,0,-0.5024719238,,,
3.6406250000,0,-1.0322270393,,,
3.6562500000,0,-1.3533780575,,,
3.6718750000,0,-1.3027039766,,,
3.6875000000,0,-0.8350524902,,,
3.7031250000,0,-0.0588378906,,,
3.7187500000,0,0.7915802002,,,
3.7343750000,0,1.4499510527,,,
3.7500000000,0,1.6979830265,,,
3.7656250000,0,1.4700319767,,,
3.7812500000,0,0.8638458252,,,
3.7968750000,0,0.0735931396,,,
3.8125000000,0,-0.6575316787,,,
3.8281250000,0,-1.1550290585,,,
3.8437500000,0,-1.3653719425,,,
3.8593750000,0,-1.3231350183,,,
3.8750000000,0,-1.1123809814,,,
3.8906250000,0,-0.8029174805,,,
3.9062500000,0,-0.3918609917,,,
3.9218750000,0,0.1271820068,,,
3.9375000000,0,0.7636566162,,,
3.9531250000,0,1.4210510254,,,
3.9687500000,0,1.9397890568,,,
3.9843750000,0,2.1462399960,,,
4.0000000000,0,1.9673160315,,,
4.0156250000,0,1.4525599480,,,
4.0312500000,0,0.7831879258,,,
4.0468750000,0,0.1750793010,,,
4.0625000000,0,-0.2377472073,,,
4.0781250000,0,-0.4610596001,,,
4.0937500000,0,-0.6106262207,,,
4.1093750000,0,-0.8271790147,,,
4.1250000000,0,-1.1822509766,,,
4.1406250000,0,-1.5987850428,,,
4.1562500000,0,-1.8999019861,,,
4.1718750000,0,-1.9113010168,,,
4.1875000000,0,-1.5518189669,,,
4.2031250000,0,-0.8655853271,,,
4.2187500000,0,-0.0147094699,,,
4.2343750000,0,0.8168792725,,,
4.2500000000,0,1.4777070284,,,
4.2656250000,0,1.8693239689,,,
4.2812500000,0,1.9860529900,,,
4.2968750000,0,1.8529360294,,,
4.3125000000,0,1.5513759851,,,
4.3281250000,0,1.1901860237,,,
4.3437500000,0,0.8468322754,,,
4.3593750000,0,0.5858154297,,,
4.3750000000,0,0.4211120903,,,
4.3906250000,0,0.3224182129,,,
4.4062500000,0,0.2476195991,,,
4.4218750000,0,0.1741179973,,,
4.4375000000,0,0.0795898363,,,
4.4531250000,0,-0.0620574988,,,
4.4687500000,0,-0.2540893853,,,
4.4843750000,0,-0.4803924859,,,
4.5000000000,0,-0.6237183213,,,
4.5156250000,0,-0.5360413194,,,
4.5312500000,0,-0.1397552043,,,
4.5468750000,0,0.4793854058,,,
4.5625000000,0,1.0436550379,,,
4.5781250000,0,1.1919709444,,,
4.5937500000,0,0.6902313232,,,
4.6093750000,0,-0.3855285943,,,
4.6250000000,0,-1.6598360538,,,
4.6406250000,0,-2.6212010384,,,
4.6562500000,0,-2.9232640266,,,
4.6718750000,0,-2.5345609188,,,
4.6875000000,0,-1.7306369543,,,
4.7031250000,0,-0.8996124268,,,
4.7187500000,0,-0.3098145127,,,
4.7343750000,0,-0.0148467999,,,
4.7500000000,0,0.0999908373,,,
4.7656250000,0,0.1810608059,,,
4.7812500000,0,0.2722320855,,,
4.7968750000,0,0.3560180962,,,
4.8125000000,0,0.3607940972,,,
4.8281250000,0,0.2914124131,,,
4.8437500000,0,0.1809082031,,,
4.8593750000,0,0.0746765137,,,
4.8750000000,0,-0.0531158410,,,
4.8906250000,0,-0.2271728963,,,
4.9062500000,0,-0.4765472114,,,
4.9218750000,0,-0.7537537217,,,
4.9375000000,0,-0.9540863037,,,
4.9531250000,0,-0.9887694716,,,
4.9687500000,0,-0.8357086182,,,
4.9843750000,0,-0.5796967149,,,
5.0000000000,0,-0.3340758979,,,
5.0156250000,0,-0.1762084961,,,
5.0312500000,0,-0.0777435303,,,
5.0468750000,0,0.0550994910,,,
5.0625000000,0,0.3265686035,,,
5.0781250000,0,0.7384033203,,,
5.0937500000,0,1.1490019560,,,
5.1093750000,0,1.3565520048,,,
5.1250000000,0,1.1784820557,,,
5.1406250000,0,0.5526428223,,,
5.1562500000,0,-0.3997344971,,,
5.1718750000,0,-1.4322199821,,,
5.1875000000,0,-2.2572479248,,,
5.2031250000,0,-2.6441500187,,,
5.2187500000,0,-2.5087740421,,,
5.2343750000,0,-1.9217070341,,,
5.2500000000,0,-1.0820009708,,,
5.2656250000,0,-0.2138977051,,,
5.2812500000,0,0.4957732856,,,
5.2968750000,0,0.9924622178,,,
5.3125000000,0,1.3253329992,,,
5.3281250000,0,1.5819239616,,,
5.3437500000,0,1.8303220272,,,
5.3593750000,0,2.0571138859,,,
5.3750000000,0,2.1739499569,,,
5.3906250000,0,2.0721280575,,,
5.4062500000,0,1.6896209717,,,
5.4218750000,0,1.0316309929,,,
5.4375000000,0,0.2044373006,,,
5.4531250000,0,-0.6206818223,,,
5.4687500000,0,-1.2904360294,,,
5.4843750000,0,-1.6736600399,,,
5.5000000000,0,-1.6865999699,,,
5.5156250000,0,-1.3489689827,,,
5.5312500000,0,-0.7002716064,,,
5.5468750000,0,0.1209869012,,,
5.5625000000,0,0.9862670898,,,
5.5781250000,0,1.7490080595,,,
5.5937500000,0,2.3124690056,,,
5.6093750000,0,2.5987849236,,,
5.6250000000,0,2.5823059082,,,
5.6406250000,0,2.2660679817,,,
5.6562500000,0,1.7130279541,,,
5.6718750000,0,0.9812163711,,,
5.6875000000,0,0.2115478963,,,
5.7031250000,0,-0.4420624077,,,
5.7187500000,0,-0.8466187119,,,
5.7343750000,0,-0.9297028184,,,
5.7500000000,0,-0.7223358154,,,
5.7656250000,0,-0.3366088867,,,
5.7812500000,0,0.0676269531,,,
5.7968750000,0,0.3971709907,,,
5.8125000000,0,0.6163024902,,,
5.8281250000,0,0.7454680800,,,
5.8437500000,0,0.8019257188,,,
5.8593750000,0,0.7545928955,,,
5.8750000000,0,0.5462036133,,,
5.8906250000,0,0.1229401007,,,
5.9062500000,0,-0.5050200820,,,
5.9218750000,0,-1.2465519905,,,
5.9375000000,0,-1.9720309973,,,
5.9531250000,0,-2.5616300106,,,
5.9687500000,0,-2.9240419865,,,
5.9843750000,0,-3.0356600285,,,
6.0000000000,0,-2.8812260628,,,
6.0156250000,0,-2.4672389030,,,
6.0312500000,0,-1.8311159611,,,
6.0468750000,0,-1.0498960018,,,
6.0625000000,0,-0.2564392090,,,
6.0781250000,0,0.4092864990,,,
6.0937500000,0,0.8522644043,,,
6.1093750000,0,1.0612339973,,,
6.1250000000,0,1.0847779512,,,
6.1406250000,0,0.9908905029,,,
6.1562500000,0,0.8364105225,,,
6.1718750000,0,0.6309509277,,,
6.1875000000,0,0.4217224121,,,
6.2031250000,0,0.2597961128,,,
6.2187500000,0,0.2202910930,,,
6.2343750000,0,0.3164978027,,,
6.2500000000,0,0.4886474907,,,
6.2656250000,0,0.6001281738,,,
6.2812500000,0,0.5512390137,,,
6.2968750000,0,0.3389892876,,,
6.3125000000,0,0.0930938721,,,
6.3281250000,0,0.0262451209,,,
6.3437500000,0,0.2671355903,,,
6.3593750000,0,0.8172302246,,,
6.3750000000,0,1.4913179874,,,
6.3906250000,0,2.0490570068,,,
6.4062500000,0,2.2866818905,,,
6.4218750000,0,2.1669158936,,,
6.4375000000,0,1.7727359533,,,
6.4531250000,0,1.2384339571,,,
6.4687500000,0,0.6756134033,,,
6.4843750000,0,0.1046447977,,,
6.5000000000,0,-0.4822083116,,,
6.5156250000,0,-1.0866090059,,,
6.5312500000,0,-1.6735990047,,,
6.5468750000,0,-2.1746830940,,,
6.5625000000,0,-2.5410161018,,,
6.5781250000,0,-2.7553710938,,,
6.5937500000,0,-2.8061978817,,,
6.6093750000,0,-2.6934049129,,,
6.6250000000,0,-2.3807830811,,,
6.6406250000,0,-1.8582149744,,,
6.6562500000,0,-1.1970829964,,,
6.6718750000,0,-0.5332642198,,,
6.6875000000,0,-0.0127868699,,,
6.7031250000,0,0.2850646973,,,
6.7187500000,0,0.4091033936,,,
6.7343750000,0,0.4767302871,,,
6.7500000000,0,0.5767058730,,,
6.7656250000,0,0.6775513291,,,
6.7812500000,0,0.6785430908,,,
6.7968750000,0,0.4975585938,,,
6.8125000000,0,0.1687774956,,,
6.8281250000,0,-0.0920410231,,,
6.8437500000,0,-0.0422821008,,,
6.8593750000,0,0.4734343886,,,
6.8750000000,0,1.3706359863,,,
6.8906250000,0,2.3950810432,,,
6.9062500000,0,3.2052760124,,,
6.9218750000,0,3.5846099854,,,
6.9375000000,0,3.4779510498,,,
6.9531250000,0,3.0108640194,,,
6.9687500000,0,2.3748168945,,,
6.9843750000,0,1.7041629553,,,
7.0000000000,0,1.0671230555,,,
7.0156250000,0,0.4766541123,,,
7.0312500000,0,-0.0779113770,,,
7.0468750000,0,-0.5884398818,,,
7.0625000000,0,-1.0131839514,,,
7.0781250000,0,-1.3155210018,,,
7.0937500000,0,-1.5075229406,,,
7.1093750000,0,-1.6621400118,,,
7.1250000000,0,-1.8743900061,,,
7.1406250000,0,-2.2106170654,,,
7.1562500000,0,-2.6215519905,,,
7.1718750000,0,-2.9470520020,,,
7.1875000000,0,-2.9608759880,,,
7.2031250000,0,-2.5063629150,,,
7.2187500000,0,-1.6131130457,,,
7.2343750000,0,-0.5092468262,,,
7.2500000000,0,0.4586181939,,,
7.2656250000,0,0.9890747070,,,
7.2812500000,0,0.9772644043,,,
7.2968750000,0,0.5648345947,,,
7.3125000000,0,0.0058288570,,,
7.3281250000,0,-0.3959960938,,,
7.3437500000,0,-0.4848479927,,,
7.3593750000,0,-0.2505187988,,,
7.3750000000,0,0.2038116008,,,
7.3906250000,0,0.7265167236,,,
7.4062500000,0,1.1713260412,,,
7.4218750000,0,1.4630279541,,,
7.4375000000,0,1.5369110107,,,
7.4531250000,0,1.3950350285,,,
7.4687500000,0,1.1053769588,,,
7.4843750000,0,0.7308502197,,,
7.5000000000,0,0.3473205864,,,
7.5156250000,0,0.0239257794,,,
7.5312500000,0,-0.2120971978,,,
7.5468750000,0,-0.3582611084,,,
7.5625000000,0,-0.4107361138,,,
7.5781250000,0,-0.3636780083,,,
7.5937500000,0,-0.2245178074,,,
7.6093750000,0,-0.0371398889,,,
7.6250000000,0,0.1393433064,,,
7.6406250000,0,0.1920166016,,,
7.6562500000,0,0.0686035231,,,
7.6718750000,0,-0.2492371053,,,
7.6875000000,0,-0.6428223252,,,
7.7031250000,0,-0.9315338135,,,
7.7187500000,0,-0.9615325928,,,
7.7343750000,0,-0.6977844238,,,
7.7500000000,0,-0.2501221001,,,
7.7656250000,0,0.1533050984,,,
7.7812500000,0,0.2961578071,,,
7.7968750000,0,0.1012725979,,,
7.8125000000,0,-0.3244934082,,,
7.8281250000,0,-0.7614746094,,,
7.8437500000,0,-0.9752045274,,,
7.8593750000,0,-0.8373107910,,,
7.8750000000,0,-0.3729552925,,,
7.8906250000,0,0.3115540147,,,
7.9062500000,0,1.0499110222,,,
7.9218750000,0,1.7171169519,,,
7.9375000000,0,2.2310030460,,,
7.9531250000,0,2.5370790958,,,
7.9687500000,0,2.5859220028,,,
7.9843750000,0,2.3488459587,,,
8.0000000000,1,1.8256529570,,,
8.0156250000,1,1.0594329834,,,
8.0312500000,1,0.1380767971,,,
8.0468750000,1,-0.8190308213,,,
8.0625000000,1,-1.7069549561,,,
8.0781250000,1,-2.4142758846,,,
8.0937500000,1,-2.8541259766,,,
8.1093750000,1,-2.9869229794,,,
8.1250000000,1,-2.7927401066,,,
8.1406250000,1,-2.3691101074,,,
8.1562500000,1,-1.8022609949,,,
8.1718750000,1,-1.2115019560,,,
8.1875000000,1,-0.6379547119,,,
8.2031250000,1,-0.0686035231,,,
8.2187500000,1,0.5164337158,,,
8.2343750000,1,1.0797729492,,,
8.2500000000,1,1.5316159725,,,
8.2656250000,1,1.7545169592,,,
8.2812500000,1,1.6859439611,,,
8.2968750000,1,1.3952640295,,,
8.3125000000,1,1.0439449549,,,
8.3281250000,1,0.7948914170,,,
8.3437500000,1,0.7464141846,,,
8.3593750000,1,0.8693236709,,,
8.3750000000,1,1.0331120491,,,
8.3906250000,1,1.1032259464,,,
8.4062500000,1,1.0382080078,,,
8.4218750000,1,0.8967589736,,,
8.4375000000,1,0.8030853271,,,
8.4531250000,1,0.8135222793,,,
8.4687500000,1,0.8890228271,,,
8.4843750000,1,0.8892211914,,,
8.5000000000,1,0.6914672852,,,
8.5156250000,1,0.2910461128,,,
8.5312500000,1,-0.1814880073,,,
8.5468750000,1,-0.5146942139,,,
8.5625000000,1,-0.5786132813,,,
8.5781250000,1,-0.3694458008,,,
8.5937500000,1,-0.0108032199,,,
8.6093750000,1,0.3311919868,,,
8.6250000000,1,0.5480651855,,,
8.6406250000,1,0.6123809814,,,
8.6562500000,1,0.5662537217,,,
8.6718750000,1,0.4299010932,,,
8.6875000000,1,0.1999206990,,,
8.7031250000,1,-0.1401977986,,,
8.7187500000,1,-0.5347443223,,,
8.7343750000,1,-0.8675537109,,,
8.7500000000,1,-0.9824982285,,,
8.7656250000,1,-0.7901763916,,,
8.7812500000,1,-0.3460999131,,,
8.7968750000,1,0.1727904975,,,
8.8125000000,1,0.5448455811,,,
8.8281250000,1,0.6418457031,,,
8.8437500000,1,0.4891357124,,,
8.8593750000,1,0.2606812119,,,
8.8750000000,1,0.1582794040,,,
8.8906250000,1,0.2989807129,,,
8.9062500000,1,0.6487885118,,,
8.9218750000,1,1.0321199894,,,
8.9375000000,1,1.2741550207,,,
8.9531250000,1,1.2879940271,,,
8.9687500000,1,1.1073609591,,,
8.9843750000,1,0.8596038818,,,
9.0000000000,1,0.6186981201,,,
9.0156250000,1,0.3881683052,,,
9.0312500000,1,0.0800933763,,,
9.0468750000,1,-0.3591460884,,,
9.0625000000,1,-0.8999176025,,,
9.0781250000,1,-1.3985600471,,,
9.0937500000,1,-1.7172390223,,,
9.1093750000,1,-1.7936710119,,,
9.1250000000,1,-1.7009279728,,,
9.1406250000,1,-1.5974580050,,,
9.1562500000,1,-1.5605469942,,,
9.1718750000,1,-1.5687869787,,,
9.1875000000,1,-1.4919739962,,,
9.2031250000,1,-1.2493900061,,,
9.2187500000,1,-0.8421326280,,,
9.2343750000,1,-0.4102782905,,,
9.2500000000,1,-0.0974426270,,,
9.2656250000,1,-0.0027160640,,,
9.2812500000,1,-0.0746765137,,,
9.2968750000,1,-0.1898345947,,,
9.3125000000,1,-0.2302855998,,,
9.3281250000,1,-0.1403656006,,,
9.3437500000,1,0.0242309608,,,
9.3593750000,1,0.1699219048,,,
9.3750000000,1,0.1941222996,,,
9.3906250000,1,0.0575256310,,,
9.4062500000,1,-0.2207489014,,,
9.4218750000,1,-0.5659484863,,,
9.4375000000,1,-0.8918762207,,,
9.4531250000,1,-1.1070710421,,,
9.4687500000,1,-1.1495209932,,,
9.4843750000,1,-0.9744719863,,,
9.5000000000,1,-0.6103363037,,,
9.5156250000,1,-0.1068726033,,,
9.5312500000,1,0.4467621148,,,
9.5468750000,1,0.9655761719,,,
9.5625000000,1,1.3619539738,,,
9.5781250000,1,1.6050870419,,,
9.5937500000,1,1.6937259436,,,
9.6093750000,1,1.6959689856,,,
9.6250000000,1,1.6950989962,,,
9.6406250000,1,1.7248380184,,,
9.6562500000,1,1.7400670052,,,
9.6718750000,1,1.6283869743,,,
9.6875000000,1,1.2982939482,,,
9.7031250000,1,0.7521361709,,,
9.7187500000,1,0.1135405973,,,
9.7343750000,1,-0.4210357964,,,
9.7500000000,1,-0.6590576172,,,
9.7656250000,1,-0.5611876845,,,
9.7812500000,1,-0.2034149021,,,
9.7968750000,1,0.2417908013,,,
9.8125000000,1,0.6316986084,,,
9.8281250000,1,0.9192504883,,,
9.8437500000,1,1.1490629911,,,
9.8593750000,1,1.3637850285,,,
9.8750000000,1,1.5526889563,,,
9.8906250000,1,1.6396180391,,,
9.9062500000,1,1.5156250000,,,
9.9218750000,1,1.1530610323,,,
9.9375000000,1,0.6101378798,,,
9.9531250000,1,0.0271453895,,,
9.9687500000,1,-0.4878692925,,,
9.9843750000,1,-0.8609923720,,,
10.0000000000,1,-1.1074069738,,,
10.0156250000,1,-1.2604370117,,,
10.0312500000,1,-1.3378750086,,,
10.0468750000,1,-1.3159480095,,,
10.0625000000,1,-1.1642149687,,,
10.0781250000,1,-0.9062346816,,,
10.0937500000,1,-0.6258698106,,,
10.1093750000,1,-0.4550322890,,,
10.1250000000,1,-0.4860686958,,,
10.1406250000,1,-0.7542418838,,,
10.1562500000,1,-1.2002409697,,,
10.1718750000,1,-1.7125400305,,,
10.1875000000,1,-2.1770169735,,,
10.2031250000,1,-2.4924008846,,,
10.2187500000,1,-2.6033170223,,,
10.2343750000,1,-2.4556119442,,,
10.2500000000,1,-2.0400390625,,,
10.2656250000,1,-1.3930970430,,,
10.2812500000,1,-0.5745239258,,,
10.2968750000,1,0.3063507080,,,
10.3125000000,1,1.1655119658,,,
10.3281250000,1,1.8929749727,,,
10.3437500000,1,2.4174189568,,,
10.3593750000,1,2.6432800293,,,
10.3750000000,1,2.5250849724,,,
10.3906250000,1,2.1014709473,,,
10.4062500000,1,1.4958950281,,,
10.4218750000,1,0.8960419297,,,
10.4375000000,1,0.4771271050,,,
10.4531250000,1,0.3072968125,,,
10.4687500000,1,0.2883453071,,,
10.4843750000,1,0.2000274956,,,
10.5000000000,1,-0.1404114068,,,
10.5156250000,1,-0.7799835205,,,
10.5312500000,1,-1.5539250374,,,
10.5468750000,1,-2.1693270206,,,
10.5625000000,1,-2.3548738956,,,
10.5781250000,1,-2.0013430119,,,
10.5937500000,1,-1.2162170410,,,
10.6093750000,1,-0.2517699897,,,
10.6250000000,1,0.6001129150,,,
10.6406250000,1,1.1610720158,,,
10.6562500000,1,1.3655849695,,,
10.6718750000,1,1.3022769690,,,
10.6875000000,1,1.0911099911,,,
10.7031250000,1,0.8433989882,,,
10.7187500000,1,0.5871582031,,,
10.7343750000,1,0.3276672065,,,
10.7500000000,1,0.0324401893,,,
10.7656250000,1,-0.2896117866,,,
10.7812500000,1,-0.5889739990,,,
10.7968750000,1,-0.8077545166,,,
10.8125000000,1,-0.8842772841,,,
10.8281250000,1,-0.8397675157,,,
10.8437500000,1,-0.7154694200,,,
10.8593750000,1,-0.6175231934,,,
10.8750000000,1,-0.5882874131,,,
10.8906250000,1,-0.6187592149,,,
10.9062500000,1,-0.5994567871,,,
10.9218750000,1,-0.4240722954,,,
10.9375000000,1,-0.0380859412,,,
10.9531250000,1,0.4737701118,,,
10.9687500000,1,0.9199523926,,,
10.9843750000,1,1.0858310461,,,
11.0000000000,1,0.8408355713,,,
11.0156250000,1,0.2133331001,,,
11.0312500000,1,-0.5824279785,,,
11.0468750000,1,-1.2880710363,,,
11.0625000000,1,-1.6571960449,,,
11.0781250000,1,-1.5874789953,,,
11.0937500000,1,-1.1596369743,,,
11.1093750000,1,-0.5331420898,,,
11.1250000000,1,0.0896453932,,,
11.1406250000,1,0.6026154160,,,
11.1562500000,1,0.9594268799,,,
11.1718750000,1,1.1996920109,,,
11.1875000000,1,1.3567960262,,,
11.2031250000,1,1.4800260067,,,
11.2187500000,1,1.5404050350,,,
11.2343750000,1,1.5214840174,,,
11.2500000000,1,1.3783110380,,,
11.2656250000,1,1.1141819954,,,
11.2812500000,1,0.7735900879,,,
11.2968750000,1,0.4182586968,,,
11.3125000000,1,0.1352081001,,,
11.3281250000,1,-0.0428466797,,,
11.3437500000,1,-0.0954437330,,,
11.3593750000,1,-0.0706634521,,,
11.3750000000,1,0.0106964102,,,
11.3906250000,1,0.1234131008,,,
11.4062500000,1,0.3128510118,,,
11.4218750000,1,0.5914763808,,,
11.4375000000,1,0.9488831162,,,
11.4531250000,1,1.3041690588,,,
11.4687500000,1,1.5301059484,,,
11.4843750000,1,1.5302729607,,,
11.5000000000,1,1.2693790197,,,
11.5156250000,1,0.7981566787,,,
11.5312500000,1,0.2191772014,,,
11.5468750000,1,-0.4129638970,,,
11.5625000000,1,-1.0738979578,,,
11.5781250000,1,-1.7451779842,,,
11.5937500000,1,-2.3724210262,,,
11.6093750000,1,-2.8324279785,,,
11.6250000000,1,-2.9864809513,,,
11.6406250000,1,-2.7629849911,,,
11.6562500000,1,-2.2553410530,,,
11.6718750000,1,-1.6175080538,,,
11.6875000000,1,-1.0277249813,,,
11.7031250000,1,-0.5435181260,,,
11.7187500000,1,-0.1502075046,,,
11.7343750000,1,0.2138824016,,,
11.7500000000,1,0.5467224121,,,
11.7656250000,1,0.7609406114,,,
11.7812500000,1,0.7032470703,,,
11.7968750000,1,0.3014220893,,,
11.8125000000,1,-0.3890227973,,,
11.8281250000,1,-1.1676939726,,,
11.8437500000,1,-1.8134460449,,,
11.8593750000,1,-2.1388089657,,,
11.8750000000,1,-2.0914149284,,,
11.8906250000,1,-1.7510069609,,,
11.9062500000,1,-1.2345119715,,,
11.9218750000,1,-0.6693726182,,,
11.9375000000,1,-0.1321258992,,,
11.9531250000,1,0.3307495117,,,
11.9687500000,1,0.7508087158,,,
11.9843750000,1,1.1554570198,,,
12.0000000000,1,1.6142729521,,,
12.0156250000,1,2.1281280518,,,
12.0312500000,1,2.6566469669,,,
12.0468750000,1,3.0885469913,,,
12.0625000000,1,3.2906188965,,,
12.0781250000,1,3.1731719971,,,
12.0937500000,1,2.7607419491,,,
12.1093750000,1,2.1632230282,,,
12.1250000000,1,1.5169219971,,,
12.1406250000,1,0.9899445176,,,
12.1562500000,1,0.6550446153,,,
12.1718750000,1,0.5258178711,,,
12.1875000000,1,0.5769196153,,,
12.2031250000,1,0.7716063857,,,
12.2187500000,1,1.0648499727,,,
12.2343750000,1,1.3957519531,,,
12.2500000000,1,1.6949310303,,,
12.2656250000,1,1.8947600126,,,
12.2812500000,1,1.9260250330,,,
12.2968750000,1,1.7373050451,,,
12.3125000000,1,1.3280030489,,,
12.3281250000,1,0.7599791884,,,
12.3437500000,1,0.1390533000,,,
12.3593750000,1,-0.4085541070,,,
12.3750000000,1,-0.7829132080,,,
12.3906250000,1,-0.9677581787,,,
12.4062500000,1,-1.0284119844,,,
12.4218750000,1,-1.0828549862,,,
12.4375000000,1,-1.2029110193,,,
12.4531250000,1,-1.4150240421,,,
12.4687500000,1,-1.6266779900,,,
12.4843750000,1,-1.7802729607,,,
12.5000000000,1,-1.8053280115,,,
12.5156250000,1,-1.7400050163,,,
12.5312500000,1,-1.6425319910,,,
12.5468750000,1,-1.5711209774,,,
12.5625000000,1,-1.5187380314,,,
12.5781250000,1,-1.4510190487,,,
12.5937500000,1,-1.3193049431,,,
12.6093750000,1,-1.1423189640,,,
12.6250000000,1,-1.0191960335,,,
12.6406250000,1,-1.0315250158,,,
12.6562500000,1,-1.2051240206,,,
12.6718750000,1,-1.4528050423,,,
12.6875000000,1,-1.5888370275,,,
12.7031250000,1,-1.4560090303,,,
12.7187500000,1,-0.9924011230,,,
12.7343750000,1,-0.2659302056,,,
12.7500000000,1,0.5449523926,,,
12.7656250000,1,1.2525939941,,,
12.7812500000,1,1.7325739861,,,
12.7968750000,1,1.9858700037,,,
12.8125000000,1,2.0519869328,,,
12.8281250000,1,2.0098879337,,,
12.8437500000,1,1.8852839470,,,
12.8593750000,1,1.6549839973,,,
12.8750000000,1,1.3066099882,,,
12.8906250000,1,0.8603057861,,,
12.9062500000,1,0.4163208008,,,
12.9218750000,1,0.0599822998,,,
12.9375000000,1,-0.1636810005,,,
12.9531250000,1,-0.2923125923,,,
12.9687500000,1,-0.3828735054,,,
12.9843750000,1,-0.4688872993,,,
13.0000000000,1,-0.4752807915,,,
13.0156250000,1,-0.2841643989,,,
13.0312500000,1,0.1876067966,,,
13.0468750000,1,0.8858643174,,,
13.0625000000,1,1.6145319939,,,
13.0781250000,1,2.0736079216,,,
13.0937500000,1,2.0583341122,,,
13.1093750000,1,1.5455169678,,,
13.1250000000,1,0.7217102051,,,
13.1406250000,1,-0.1303863972,,,
13.1562500000,1,-0.7623444200,,,
13.1718750000,1,-1.1115720272,,,
13.1875000000,1,-1.2686920166,,,
13.2031250000,1,-1.3851170540,,,
13.2187500000,1,-1.5726469755,,,
13.2343750000,1,-1.8156739473,,,
13.2500000000,1,-2.0135650635,,,
13.2656250000,1,-2.0681300163,,,
13.2812500000,1,-1.9409790039,,,
13.2968750000,1,-1.6576540470,,,
13.3125000000,1,-1.2988430262,,,
13.3281250000,1,-0.9007567763,,,
13.3437500000,1,-0.4860228896,,,
13.3593750000,1,-0.0454254188,,,
13.3750000000,1,0.3823547065,,,
13.3906250000,1,0.7337493896,,,
13.4062500000,1,0.9370574951,,,
13.4218750000,1,0.9636383057,,,
13.4375000000,1,0.8348999023,,,
13.4531250000,1,0.6239624023,,,
13.4687500000,1,0.3863525093,,,
13.4843750000,1,0.1423798054,,,
13.5000000000,1,-0.1261139065,,,
13.5156250000,1,-0.4104767144,,,
13.5312500000,1,-0.6351470947,,,
13.5468750000,1,-0.7174683213,,,
13.5625000000,1,-0.5638732910,,,
13.5781250000,1,-0.1882476956,,,
13.5937500000,1,0.3183288872,,,
13.6093750000,1,0.8113098145,,,
13.6250000000,1,1.1907039881,,,
13.6406250000,1,1.4237979650,,,
13.6562500000,1,1.5138549805,,,
13.6718750000,1,1.4629210234,,,
13.6875000000,1,1.2334589958,,,
13.7031250000,1,0.7794036865,,,
13.7187500000,1,0.1165618971,,,
13.7343750000,1,-0.6322631836,,,
13.7500000000,1,-1.2433929443,,,
13.7656250000,1,-1.4949949980,,,
13.7812500000,1,-1.2855219841,,,
13.7968750000,1,-0.6883850098,,,
13.8125000000,1,0.0464019813,,,
13.8281250000,1,0.6666411757,,,
13.8437500000,1,0.9919738770,,,
13.8593750000,1,1.0246729851,,,
13.8750000000,1,0.9172363281,,,
13.8906250000,1,0.8290253282,,,
13.9062500000,1,0.8539428711,,,
13.9218750000,1,0.9525299072,,,
13.9375000000,1,0.9907073975,,,
13.9531250000,1,0.8467711806,,,
13.9687500000,1,0.4628905952,,,
13.9843750000,1,-0.0874328613,,,
14.0000000000,1,-0.6838378906,,,
14.0156250000,1,-1.2092289925,,,
14.0312500000,1,-1.5970920324,,,
14.0468750000,1,-1.8450469971,,,
14.0625000000,1,-1.9317170382,,,
14.0781250000,1,-1.8340450525,,,
14.0937500000,1,-1.4988249540,,,
14.1093750000,1,-0.9279633164,,,
14.1250000000,1,-0.2124022990,,,
14.1406250000,1,0.4767914116,,,
14.1562500000,1,0.9668427110,,,
14.1718750000,1,1.1375579834,,,
14.1875000000,1,1.0143280029,,,
14.2031250000,1,0.7246398926,,,
14.2187500000,1,0.4466857910,,,
14.2343750000,1,0.3106688857,,,
14.2500000000,1,0.3443756104,,,
14.2656250000,1,0.4718933105,,,
14.2812500000,1,0.5824431777,,,
14.2968750000,1,0.6401215196,,,
14.3125000000,1,0.6696624756,,,
14.3281250000,1,0.7849884033,,,
14.3437500000,1,1.0694730282,,,
14.3593750000,1,1.5222469568,,,
14.3750000000,1,2.0100250244,,,
14.3906250000,1,2.3443760872,,,
14.4062500000,1,2.3332979679,,,
14.4218750000,1,1.8866879940,,,
14.4375000000,1,1.0724949837,,,
14.4531250000,1,0.0564575195,,,
14.4687500000,1,-0.9233397841,,,
14.4843750000,1,-1.6661070585,,,
14.5000000000,1,-2.0467379093,,,
14.5156250000,1,-2.0659790039,,,
14.5312500000,1,-1.8036799431,,,
14.5468750000,1,-1.3863220215,,,
14.5625000000,1,-0.9292296767,,,
14.5781250000,1,-0.4951781929,,,
14.5937500000,1,-0.1015930027,,,
14.6093750000,1,0.2579041123,,,
14.6250000000,1,0.5764464736,,,
14.6406250000,1,0.7940673828,,,
14.6562500000,1,0.8626708984,,,
14.6718750000,1,0.7499542236,,,
14.6875000000,1,0.5092772841,,,
14.7031250000,1,0.2435912937,,,
14.7187500000,1,0.0586852990,,,
14.7343750000,1,0.0021667480,,,
14.7500000000,1,0.0589141808,,,
14.7656250000,1,0.1403656006,,,
14.7812500000,1,0.1816864014,,,
14.7968750000,1,0.1743468940,,,
14.8125000000,1,0.1581878960,,,
14.8281250000,1,0.1583556980,,,
14.8437500000,1,0.1773529053,,,
14.8593750000,1,0.1980590969,,,
14.8750000000,1,0.1734160930,,,
14.8906250000,1,0.1000977010,,,
14.9062500000,1,-0.0446472205,,,
14.9218750000,1,-0.2712860107,,,
14.9375000000,1,-0.5983428955,,,
14.9531250000,1,-1.0266269445,,,
14.9687500000,1,-1.5223079920,,,
14.9843750000,1,-1.9972989559,,,
15.0000000000,1,-2.3748168945,,,
15.0156250000,1,-2.6179499626,,,
15.0312500000,1,-2.7544100285,,,
15.0468750000,1,-2.8273470402,,,
15.0625000000,1,-2.8378911018,,,
15.0781250000,1,-2.7477869987,,,
15.0937500000,1,-2.4523470402,,,
15.1093750000,1,-1.9171910286,,,
15.1250000000,1,-1.1567989588,,,
15.1406250000,1,-0.3225708008,,,
15.1562500000,1,0.4336394966,,,
15.1718750000,1,0.9915313721,,,
15.1875000000,1,1.3365169764,,,
15.2031250000,1,1.5364530087,,,
15.2187500000,1,1.6886600256,,,
15.2343750000,1,1.8291319609,,,
15.2500000000,1,1.9246979952,,,
15.2656250000,1,1.8852839470,,,
15.2812500000,1,1.6238100529,,,
15.2968750000,1,1.1297149658,,,
15.3125000000,1,0.5047913194,,,
15.3281250000,1,-0.0662078932,,,
15.3437500000,1,-0.3666228950,,,
15.3593750000,1,-0.2045135051,,,
15.3750000000,1,0.4621886909,,,
15.3906250000,1,1.5019229650,,,
15.4062500000,1,2.6034998894,,,
15.4218750000,1,3.4274749756,,,
15.4375000000,1,3.7137300968,,,
15.4531250000,1,3.4055020809,,,
15.4687500000,1,2.6650850773,,,
15.4843750000,1,1.7474670410,,,
15.5000000000,1,0.8887023926,,,
15.5156250000,1,0.2012787014,,,
15.5312500000,1,-0.3322753906,,,
15.5468750000,1,-0.7679901123,,,
15.5625000000,1,-1.1158289909,,,
15.5781250000,1,-1.3409420252,,,
15.5937500000,1,-1.3813320398,,,
15.6093750000,1,-1.2554630041,,,
15.6250000000,1,-1.0479279757,,,
15.6406250000,1,-0.9013367295,,,
15.6562500000,1,-0.8814086914,,,
15.6718750000,1,-0.9562224746,,,
15.6875000000,1,-0.9863892198,,,
15.7031250000,1,-0.8816986084,,,
15.7187500000,1,-0.6405181885,,,
15.7343750000,1,-0.3849791884,,,
15.7500000000,1,-0.2855834961,,,
15.7656250000,1,-0.4447326958,,,
15.7812500000,1,-0.8210601807,,,
15.7968750000,1,-1.2885589600,,,
15.8125000000,1,-1.7035679817,,,
15.8281250000,1,-1.9600369930,,,
15.8437500000,1,-2.0163269043,,,
15.8593750000,1,-1.8594670296,,,
15.8750000000,1,-1.4858859777,,,
15.8906250000,1,-0.8878479004,,,
15.9062500000,1,-0.1319579929,,,
15.9218750000,1,0.6474761963,,,
15.9375000000,1,1.2432099581,,,
15.9531250000,1,1.4749449492,,,
15.9687500000,1,1.2781219482,,,
15.9843750000,1,0.7566071153,,,
16.0000000000,2,0.1230620965,,,
16.0156250000,2,-0.3900909126,,,
16.0312500000,2,-0.6600800157,,,
16.0468750000,2,-0.6789246202,,,
16.0625000000,2,-0.5584259033,,,
16.0781250000,2,-0.4066010118,,,
16.0937500000,2,-0.2731476128,,,
16.1093750000,2,-0.1875000000,,,
16.1250000000,2,-0.1234588996,,,
16.1406250000,2,-0.0887908936,,,
16.1562500000,2,-0.0515747108,,,
16.1718750000,2,-0.0041656489,,,
16.1875000000,2,0.1262053996,,,
16.2031250000,2,0.3741913140,,,
16.2187500000,2,0.7408905029,,,
16.2343750000,2,1.1300660372,,,
16.2500000000,2,1.3917080164,,,
16.2656250000,2,1.3899379969,,,
16.2812500000,2,1.0840610266,,,
16.2968750000,2,0.5619354248,,,
16.3125000000,2,-0.0084381104,,,
16.3281250000,2,-0.4451141059,,,
16.3437500000,2,-0.6855773926,,,
16.3593750000,2,-0.7556304932,,,
16.3750000000,2,-0.7515106201,,,
16.3906250000,2,-0.7305145264,,,
16.4062500000,2,-0.6567993164,,,
16.4218750000,2,-0.4465942085,,,
16.4375000000,2,-0.0214538593,,,
16.4531250000,2,0.5971221924,,,
16.4687500000,2,1.2731479406,,,
16.4843750000,2,1.8072199821,,,
16.5000000000,2,2.0183410645,,,
16.5156250000,2,1.8309940100,,,
16.5312500000,2,1.2821660042,,,
16.5468750000,2,0.5363922119,,,
16.5625000000,2,-0.2047881931,,,
16.5781250000,2,-0.7376251221,,,
16.5937500000,2,-0.9655303955,,,
16.6093750000,2,-0.8586273193,,,
16.6250000000,2,-0.5019683838,,,
16.6406250000,2,-0.0304717999,,,
16.6562500000,2,0.4227448106,,,
16.6718750000,2,0.7490233779,,,
16.6875000000,2,0.9377440810,,,
16.7031250000,2,1.0031889677,,,
16.7187500000,2,1.0018010139,,,
16.7343750000,2,0.9429932237,,,
16.7500000000,2,0.8329315186,,,
16.7656250000,2,0.6602020264,,,
16.7812500000,2,0.4428864121,,,
16.7968750000,2,0.2222290039,,,
16.8125000000,2,0.0300598107,,,
16.8281250000,2,-0.1327209026,,,
16.8437500000,2,-0.3274078071,,,
16.8593750000,2,-0.6080170274,,,
16.8750000000,2,-1.0056459904,,,
16.8906250000,2,-1.4390259981,,,
16.9062500000,2,-1.7599949837,,,
16.9218750000,2,-1.7755429745,,,
16.9375000000,2,-1.3789370060,,,
16.9531250000,2,-0.6285399795,,,
16.9687500000,2,0.3014984131,,,
16.9843750000,2,1.1667629480,,,
17.0000000000,2,1.7916259766,,,
17.0156250000,2,2.1345980167,,,
17.0312500000,2,2.2516019344,,,
17.0468750000,2,2.2086939812,,,
17.0625000000,2,2.0101931095,,,
17.0781250000,2,1.5731810331,,,
17.0937500000,2,0.8153380752,,,
17.1093750000,2,-0.2145691067,,,
17.1250000000,2,-1.3293759823,,,
17.1406250000,2,-2.2265930176,,,
17.1562500000,2,-2.6300048828,,,
17.1718750000,2,-2.4295649529,,,
17.1875000000,2,-1.7328799963,,,
17.2031250000,2,-0.8144683838,,,
17.2187500000,2,0.0306854192,,,
17.2343750000,2,0.5926666260,,,
17.2500000000,2,0.8464661241,,,
17.2656250000,2,0.8833159804,,,
17.2812500000,2,0.8182830811,,,
17.2968750000,2,0.6983184814,,,
17.3125000000,2,0.4856261909,,,
17.3281250000,2,0.1216735989,,,
17.3437500000,2,-0.4177094102,,,
17.3593750000,2,-1.0742490292,,,
17.3750000000,2,-1.7129820585,,,
17.3906250000,2,-2.1657559872,,,
17.4062500000,2,-2.3422999382,,,
17.4218750000,2,-2.2478330135,,,
17.4375000000,2,-1.9769899845,,,
17.4531250000,2,-1.6588129997,,,
17.4687500000,2,-1.3797299862,,,
17.4843750000,2,-1.1543270350,,,
17.5000000000,2,-0.9421843886,,,
17.5156250000,2,-0.7052764893,,,
17.5312500000,2,-0.4160766900,,,
17.5468750000,2,-0.0849456787,,,
17.5625000000,2,0.2695922852,,,
17.5781250000,2,0.6420288086,,,
17.5937500000,2,1.0235290527,,,
17.6093750000,2,1.4036870003,,,
17.6250000000,2,1.7544250488,,,
17.6406250000,2,2.0447080135,,,
17.6562500000,2,2.2643740177,,,
17.6718750000,2,2.4166560173,,,
17.6875000000,2,2.5452580452,,,
17.7031250000,2,2.6938021183,,,
17.7187500000,2,2.9114069939,,,
17.7343750000,2,3.2028501034,,,
17.7500000000,2,3.5209960938,,,
17.7656250000,2,3.7553861141,,,
17.7812500000,2,3.7982330322,,,
17.7968750000,2,3.5682981014,,,
17.8125000000,2,3.0672450066,,,
17.8281250000,2,2.3742520809,,,
17.8437500000,2,1.6366729736,,,
17.8593750000,2,0.9832764268,,,
17.8750000000,2,0.4934844971,,,
17.8906250000,2,0.1627350003,,,
17.9062500000,2,-0.0922393799,,,
17.9218750000,2,-0.3416900933,,,
17.9375000000,2,-0.6551055908,,,
17.9531250000,2,-1.0318909883,,,
17.9687500000,2,-1.4250030518,,,
17.9843750000,2,-1.7841490507,,,
18.0000000000,2,-2.0704190731,,,
18.0156250000,2,-2.2874450684,,,
18.0312500000,2,-2.4333651066,,,
18.0468750000,2,-2.5173649788,,,
18.0625000000,2,-2.5095670223,,,
18.0781250000,2,-2.3664090633,,,
18.0937500000,2,-2.1030879021,,,
18.1093750000,2,-1.7858430147,,,
18.1250000000,2,-1.5303959846,,,
18.1406250000,2,-1.4758909941,,,
18.1562500000,2,-1.6661829948,,,
18.1718750000,2,-2.0260620117,,,
18.1875000000,2,-2.3451080322,,,
18.2031250000,2,-2.3931879997,,,
18.2187500000,2,-2.0352780819,,,
18.2343750000,2,-1.2822719812,,,
18.2500000000,2,-0.3047333062,,,
18.2656250000,2,0.6580963135,,,
18.2812500000,2,1.4006650448,,,
18.2968750000,2,1.8238530159,,,
18.3125000000,2,1.9197540283,,,
18.3281250000,2,1.7616879940,,,
18.3437500000,2,1.4476469755,,,
18.3593750000,2,1.0739899874,,,
18.3750000000,2,0.7274169922,,,
18.3906250000,2,0.4610900879,,,
18.4062500000,2,0.2947083116,,,
18.4218750000,2,0.1990814060,,,
18.4375000000,2,0.1323395073,,,
18.4531250000,2,0.0976104736,,,
18.4687500000,2,0.1038360968,,,
18.4843750000,2,0.2066497952,,,
18.5000000000,2,0.4224700928,,,
18.5156250000,2,0.7517852783,,,
18.5312500000,2,1.1355129480,,,
18.5468750000,2,1.4936679602,,,
18.5625000000,2,1.7344670296,,,
18.5781250000,2,1.8015439510,,,
18.5937500000,2,1.6658329964,,,
18.6093750000,2,1.3455660343,,,
18.6250000000,2,0.9207305908,,,
18.6406250000,2,0.4586791992,,,
18.6562500000,2,0.0112152100,,,
18.6718750000,2,-0.4263305962,,,
18.6875000000,2,-0.8664246202,,,
18.7031250000,2,-1.2858279943,,,
18.7187500000,2,-1.5748139620,,,
18.7343750000,2,-1.5899809599,,,
18.7500000000,2,-1.2294620275,,,
18.7656250000,2,-0.5659180284,,,
18.7812500000,2,0.1645050049,,,
18.7968750000,2,0.6504821777,,,
18.8125000000,2,0.6925507188,,,
18.8281250000,2,0.3261871040,,,
18.8437500000,2,-0.1983031929,,,
18.8593750000,2,-0.5617675781,,,
18.8750000000,2,-0.5829619765,,,
18.8906250000,2,-0.3341369927,,,
18.9062500000,2,-0.0671234131,,,
18.9218750000,2,-0.0236663800,,,
18.9375000000,2,-0.3164978027,,,
18.9531250000,2,-0.8335266113,,,
18.9687500000,2,-1.3953399658,,,
18.9843750000,2,-1.8171080351,,,
19.0000000000,2,-2.0442960262,,,
19.0156250000,2,-2.0885009766,,,
19.0312500000,2,-1.9989470243,,,
19.0468750000,2,-1.7849730253,,,
19.0625000000,2,-1.4411009550,,,
19.0781250000,2,-0.9664154053,,,
19.0937500000,2,-0.4386444092,,,
19.1093750000,2,0.0224609394,,,
19.1250000000,2,0.2933807075,,,
19.1406250000,2,0.3036499023,,,
19.1562500000,2,0.0834808275,,,
19.1718750000,2,-0.2549895942,,,
19.1875000000,2,-0.6146392822,,,
19.2031250000,2,-0.9173737168,,,
19.2187500000,2,-1.1308749914,,,
19.2343750000,2,-1.2732700109,,,
19.2500000000,2,-1.3186949492,,,
19.2656250000,2,-1.2233890295,,,
19.2812500000,2,-0.9080504775,,,
19.2968750000,2,-0.3621216118,,,
19.3125000000,2,0.3543395996,,,
19.3281250000,2,1.0781860352,,,
19.3437500000,2,1.6008449793,,,
19.3593750000,2,1.7561490536,,,
19.3750000000,2,1.4988100529,,,
19.3906250000,2,0.9482880235,,,
19.4062500000,2,0.3092957139,,,
19.4218750000,2,-0.2091064006,,,
19.4375000000,2,-0.4884949028,,,
19.4531250000,2,-0.5008544922,,,
19.4687500000,2,-0.2977600098,,,
19.4843750000,2,0.0575103797,,,
19.5000000000,2,0.5080872178,,,
19.5156250000,2,1.0000460148,,,
19.5312500000,2,1.4693909883,,,
19.5468750000,2,1.8421629667,,,
19.5625000000,2,2.0731809139,,,
19.5781250000,2,2.1733698845,,,
19.5937500000,2,2.2223050594,,,
19.6093750000,2,2.3032379150,,,
19.6250000000,2,2.4521789551,,,
19.6406250000,2,2.5909581184,,,
19.6562500000,2,2.5697329044,,,
19.6718750000,2,2.2871859074,,,
19.6875000000,2,1.7216800451,,,
19.7031250000,2,0.9958344102,,,
19.7187500000,2,0.3001708984,,,
19.7343750000,2,-0.2301024944,,,
19.7500000000,2,-0.5575255752,,,
19.7656250000,2,-0.7430573106,,,
19.7812500000,2,-0.8598784804,,,
19.7968750000,2,-0.9608765244,,,
19.8125000000,2,-1.0163420439,,,
19.8281250000,2,-0.9892426133,,,
19.8437500000,2,-0.8746948242,,,
19.8593750000,2,-0.7278594971,,,
19.8750000000,2,-0.6418762207,,,
19.8906250000,2,-0.7004241943,,,
19.9062500000,2,-0.9027252197,,,
19.9218750000,2,-1.2121119499,,,
19.9375000000,2,-1.5297089815,,,
19.9531250000,2,-1.7758330107,,,
19.9687500000,2,-1.8869169950,,,
19.9843750000,2,-1.8199310303,,,
20.0000000000,2,-1.5625309944,,,
20.0156250000,2,-1.1005250216,,,
20.0312500000,2,-0.4977416992,,,
20.0468750000,2,0.1407317966,,,
20.0625000000,2,0.6641845703,,,
20.0781250000,2,0.9324799180,,,
20.0937500000,2,0.8665161133,,,
20.1093750000,2,0.4952087104,,,
20.1250000000,2,-0.0461425819,,,
20.1406250000,2,-0.5339202881,,,
20.1562500000,2,-0.7402191162,,,
20.1718750000,2,-0.5348052979,,,
20.1875000000,2,0.0594635010,,,
20.2031250000,2,0.8563994765,,,
20.2187500000,2,1.5878449678,,,
20.2343750000,2,2.0168149471,,,
20.2500000000,2,2.0462489128,,,
20.2656250000,2,1.7325739861,,,
20.2812500000,2,1.2653959990,,,
20.2968750000,2,0.8379973769,,,
20.3125000000,2,0.5657042861,,,
20.3281250000,2,0.4801482856,,,
20.3437500000,2,0.5460662842,,,
20.3593750000,2,0.7252960205,,,
20.3750000000,2,0.9916992188,,,
20.3906250000,2,1.3102869987,,,
20.4062500000,2,1.5896610022,,,
20.4218750000,2,1.6965329647,,,
20.4375000000,2,1.5036319494,,,
20.4531250000,2,0.9405670166,,,
20.4687500000,2,0.0781097412,,,
20.4843750000,2,-0.8867188096,,,
20.5000000000,2,-1.7058720589,,,
20.5156250000,2,-2.1363220215,,,
20.5312500000,2,-2.0928039551,,,
20.5468750000,2,-1.6292109489,,,
20.5625000000,2,-0.9546051025,,,
20.5781250000,2,-0.3148651123,,,
20.5937500000,2,0.0849609375,,,
20.6093750000,2,0.1899109036,,,
20.6250000000,2,0.0449066199,,,
20.6406250000,2,-0.2414703071,,,
20.6562500000,2,-0.5968170166,,,
20.6718750000,2,-1.0080410242,,,
20.6875000000,2,-1.4860689640,,,
20.7031250000,2,-1.9810030460,,,
20.7187500000,2,-2.3656010628,,,
20.7343750000,2,-2.4517669678,,,
20.7500000000,2,-2.1240839958,,,
20.7656250000,2,-1.4456020594,,,
20.7812500000,2,-0.6518250108,,,
20.7968750000,2,-0.0422058105,,,
20.8125000000,2,0.2098845989,,,
20.8281250000,2,0.1469116062,,,
20.8437500000,2,0.0110320998,,,
20.8593750000,2,0.0694274902,,,
20.8750000000,2,0.4594573975,,,
20.8906250000,2,1.0773619413,,,
20.9062500000,2,1.6619570255,,,
20.9218750000,2,1.9488220215,,,
20.9375000000,2,1.8147890568,,,
20.9531250000,2,1.3330689669,,,
20.9687500000,2,0.7097321153,,,
20.9843750000,2,0.1382904053,,,
21.0000000000,2,-0.2497252971,,,
21.0156250000,2,-0.4372406006,,,
21.0312500000,2,-0.4845581055,,,
21.0468750000,2,-0.4290770888,,,
21.0625000000,2,-0.3072052002,,,
21.0781250000,2,-0.0952911377,,,
21.0937500000,2,0.1960906982,,,
21.1093750000,2,0.5502930284,,,
21.1250000000,2,0.9068756104,,,
21.1406250000,2,1.1800689697,,,
21.1562500000,2,1.3089289665,,,
21.1718750000,2,1.2273410559,,,
21.1875000000,2,0.9137268066,,,
21.2031250000,2,0.3988037109,,,
21.2187500000,2,-0.2427673042,,,
21.2343750000,2,-0.8475341797,,,
21.2500000000,2,-1.2655639648,,,
21.2656250000,2,-1.3986209631,,,
21.2812500000,2,-1.2486569881,,,
21.2968750000,2,-0.9248046875,,,
21.3125000000,2,-0.5557860732,,,
21.3281250000,2,-0.2398376018,,,
21.3437500000,2,0.0172119103,,,
21.3593750000,2,0.2522583008,,,
21.3750000000,2,0.5265045166,,,
21.3906250000,2,0.8152313232,,,
21.4062500000,2,1.0121150017,,,
21.4218750000,2,0.9972229004,,,
21.4375000000,2,0.7103118896,,,
21.4531250000,2,0.1856537014,,,
21.4687500000,2,-0.4468230903,,,
21.4843750000,2,-1.0444639921,,,
21.5000000000,2,-1.5053100586,,,
21.5156250000,2,-1.8014680147,,,
21.5312500000,2,-1.9439849854,,,
21.5468750000,2,-1.9334410429,,,
21.5625000000,2,-1.7604980469,,,
21.5781250000,2,-1.3886569738,,,
21.5937500000,2,-0.8359221816,,,
21.6093750000,2,-0.1359862983,,,
21.6250000000,2,0.6117095947,,,
21.6406250000,2,1.3019410372,,,
21.6562500000,2,1.8505710363,,,
21.6718750000,2,2.2088930607,,,
21.6875000000,2,2.3539431095,,,
21.7031250000,2,2.2737429142,,,
21.7187500000,2,1.9616999626,,,
21.7343750000,2,1.4196469784,,,
21.7500000000,2,0.7216187119,,,
21.7656250000,2,-0.0169525109,,,
21.7812500000,2,-0.6176605225,,,
21.7968750000,2,-0.9303588867,,,
21.8125000000,2,-0.8825073242,,,
21.8281250000,2,-0.5163574219,,,
21.8437500000,2,0.0266418494,,,
21.8593750000,2,0.5042114258,,,
21.8750000000,2,0.7299500108,,,
21.8906250000,2,0.6382598877,,,
21.9062500000,2,0.3254547119,,,
21.9218750000,2,-0.0025329590,,,
21.9375000000,2,-0.1539001018,,,
21.9531250000,2,-0.0351257287,,,
21.9687500000,2,0.2969360054,,,
21.9843750000,2,0.6573181152,,,
22.0000000000,2,0.8216248155,,,
22.0156250000,2,0.6600341797,,,
22.0312500000,2,0.1779326946,,,
22.0468750000,2,-0.4736633003,,,
22.0625000000,2,-1.0851900578,,,
22.0781250000,2,-1.4812159538,,,
22.0937500000,2,-1.5941929817,,,
22.1093750000,2,-1.4559170008,,,
22.1250000000,2,-1.1656340361,,,
22.1406250000,2,-0.8272551894,,,
22.1562500000,2,-0.5103607178,,,
22.1718750000,2,-0.2512511909,,,
22.1875000000,2,-0.0783081129,,,
22.2031250000,2,0.0086975098,,,
22.2187500000,2,-0.0000152588,,,
22.2343750000,2,-0.0906829834,,,
22.2500000000,2,-0.2327881008,,,
22.2656250000,2,-0.3872832954,,,
22.2812500000,2,-0.4968109131,,,
22.2968750000,2,-0.5378875732,,,
22.3125000000,2,-0.5136107802,,,
22.3281250000,2,-0.4685058892,,,
22.3437500000,2,-0.4336853027,,,
22.3593750000,2,-0.4132995903,,,
22.3750000000,2,-0.3339844048,,,
22.3906250000,2,-0.1293945014,,,
22.4062500000,2,0.2913208008,,,
22.4218750000,2,0.9167327881,,,
22.4375000000,2,1.6835019588,,,
22.4531250000,2,2.4378809929,,,
22.4687500000,2,3.0349431038,,,
22.4843750000,2,3.3897399902,,,
22.5000000000,2,3.4882509708,,,
22.5156250000,2,3.3712010384,,,
22.5312500000,2,3.0684809685,,,
22.5468750000,2,2.5135190487,,,
22.5625000000,2,1.6268620491,,,
22.5781250000,2,0.4032135010,,,
22.5937500000,2,-1.0200810432,,,
22.6093750000,2,-2.3040010929,,,
22.6250000000,2,-3.0407259464,,,
22.6406250000,2,-2.9436190128,,,
22.6562500000,2,-1.9906460047,,,
22.6718750000,2,-0.4793548882,,,
22.6875000000,2,1.0401149988,,,
22.7031250000,2,2.0229189396,,,
22.7187500000,2,2.1179049015,,,
22.7343750000,2,1.3173220158,,,
22.7500000000,2,-0.0741119385,,,
22.7656250000,2,-1.5661009550,,,
22.7812500000,2,-2.7365109921,,,
22.7968750000,2,-3.3416140079,,,
22.8125000000,2,-3.4014430046,,,
22.8281250000,2,-3.0942840576,,,
22.8437500000,2,-2.6761469841,,,
22.8593750000,2,-2.3524930477,,,
22.8750000000,2,-2.1907649040,,,
22.8906250000,2,-2.1953430176,,,
22.9062500000,2,-2.2695620060,,,
22.9218750000,2,-2.3753359318,,,
22.9375000000,2,-2.4291989803,,,
22.9531250000,2,-2.3752589226,,,
22.9687500000,2,-2.1292109489,,,
22.9843750000,2,-1.6111149788,,,
23.0000000000,2,-0.8181915283,,,
23.0156250000,2,0.1418914944,,,
23.0312500000,2,1.0688630342,,,
23.0468750000,2,1.7261199951,,,
23.0625000000,2,1.9791409969,,,
23.0781250000,2,1.8450620174,,,
23.0937500000,2,1.4736020565,,,
23.1093750000,2,1.0895999670,,,
23.1250000000,2,0.8561553955,,,
23.1406250000,2,0.8262329102,,,
23.1562500000,2,0.9343413711,,,
23.1718750000,2,1.0748900175,,,
23.1875000000,2,1.1559300423,,,
23.2031250000,2,1.1700129509,,,
23.2187500000,2,1.1413120031,,,
23.2343750000,2,1.1010890007,,,
23.2500000000,2,1.0428470373,,,
23.2656250000,2,0.9643250108,,,
23.2812500000,2,0.8557280898,,,
23.2968750000,2,0.7278289795,,,
23.3125000000,2,0.5663452148,,,
23.3281250000,2,0.3478088081,,,
23.3437500000,2,0.0377807617,,,
23.3593750000,2,-0.3560486138,,,
23.3750000000,2,-0.7315521240,,,
23.3906250000,2,-0.9433135986,,,
23.4062500000,2,-0.8415526748,,,
23.4218750000,2,-0.3948517144,,,
23.4375000000,2,0.3041687012,,,
23.4531250000,2,1.0604250431,,,
23.4687500000,2,1.6956020594,,,
23.4843750000,2,2.1343688965,,,
23.5000000000,2,2.3802950382,,,
23.5156250000,2,2.5183560848,,,
23.5312500000,2,2.5877690315,,,
23.5468750000,2,2.5524749756,,,
23.5625000000,2,2.3826289177,,,
23.5781250000,2,2.0574340820,,,
23.5937500000,2,1.6488339901,,,
23.6093750000,2,1.2568819523,,,
23.6250000000,2,0.9640045166,,,
23.6406250000,2,0.7837982178,,,
23.6562500000,2,0.6443024278,,,
23.6718750000,2,0.5051574707,,,
23.6875000000,2,0.3349303901,,,
23.7031250000,2,0.1829223931,,,
23.7187500000,2,0.0958404467,,,
23.7343750000,2,0.0848693773,,,
23.7500000000,2,0.0838012695,,,
23.7656250000,2,0.0169067401,,,
23.7812500000,2,-0.1638641059,,,
23.7968750000,2,-0.4162903130,,,
23.8125000000,2,-0.6644744873,,,
23.8281250000,2,-0.8617553711,,,
23.8437500000,2,-0.9972229004,,,
23.8593750000,2,-1.1189119816,,,
23.8750000000,2,-1.2507170439,,,
23.8906250000,2,-1.3672330379,,,
23.9062500000,2,-1.3691250086,,,
23.9218750000,2,-1.2199549675,,,
23.9375000000,2,-0.9265900254,,,
23.9531250000,2,-0.6041718125,,,
23.9687500000,2,-0.3804473877,,,
23.9843750000,2,-0.3336029053,,,
24.0000000000,3,-0.4505920112,,,
24.0156250000,3,-0.6578369141,,,
24.0312500000,3,-0.8589171767,,,
24.0468750000,3,-1.0230870247,,,
24.0625000000,3,-1.1432800293,,,
24.0781250000,3,-1.2321469784,,,
24.0937500000,3,-1.2385859489,,,
24.1093750000,3,-1.1227109432,,,
24.1250000000,3,-0.8307647705,,,
24.1406250000,3,-0.4307250977,,,
24.1562500000,3,-0.0494384803,,,
24.1718750000,3,0.1727904975,,,
24.1875000000,3,0.1457519978,,,
24.2031250000,3,-0.1101989970,,,
24.2187500000,3,-0.5096436143,,,
24.2343750000,3,-0.9433135986,,,
24.2500000000,3,-1.3655090332,,,
24.2656250000,3,-1.7380369902,,,
24.2812500000,3,-2.0230710506,,,
24.2968750000,3,-2.1424870491,,,
24.3125000000,3,-2.0176539421,,,
24.3281250000,3,-1.6110839844,,,
24.3437500000,3,-0.9848175049,,,
24.3593750000,3,-0.3056488037,,,
24.3750000000,3,0.2417602986,,,
24.3906250000,3,0.5046082139,,,
24.4062500000,3,0.5075684190,,,
24.4218750000,3,0.3797455132,,,
24.4375000000,3,0.3224945068,,,
24.4531250000,3,0.4718781114,,,
24.4687500000,3,0.8592224121,,,
24.4843750000,3,1.3569179773,,,
24.5000000000,3,1.7983249426,,,
24.5156250000,3,2.0466001034,,,
24.5312500000,3,2.0590360165,,,
24.5468750000,3,1.8845829964,,,
24.5625000000,3,1.6280059814,,,
24.5781250000,3,1.3494420052,,,
24.5937500000,3,1.0889589787,,,
24.6093750000,3,0.8171538711,,,
24.6250000000,3,0.5195159912,,,
24.6406250000,3,0.2120361030,,,
24.6562500000,3,-0.0161285400,,,
24.6718750000,3,-0.0537262000,,,
24.6875000000,3,0.1720581055,,,
24.7031250000,3,0.6437531114,,,
24.7187500000,3,1.2221829891,,,
24.7343750000,3,1.7194210291,,,
24.7500000000,3,1.9448549747,,,
24.7656250000,3,1.8210749626,,,
24.7812500000,3,1.3738100529,,,
24.7968750000,3,0.7379456162,,,
24.8125000000,3,0.0782623291,,,
24.8281250000,3,-0.4784241021,,,
24.8437500000,3,-0.8683624268,,,
24.8593750000,3,-1.1025700569,,,
24.8750000000,3,-1.2142180204,,,
24.8906250000,3,-1.2298580408,,,
24.9062500000,3,-1.1613620520,,,
24.9218750000,3,-1.0124050379,,,
24.9375000000,3,-0.7753906250,,,
24.9531250000,3,-0.4982604980,,,
24.9687500000,3,-0.1933289021,,,
24.9843750000,3,0.1417846978,,,
25.0000000000,3,0.5121154785,,,
25.0156250000,3,0.9295654297,,,
25.0312500000,3,1.3538210392,,,
25.0468750000,3,1.6897280216,,,
25.0625000000,3,1.8294219971,,,
25.0781250000,3,1.6943360567,,,
25.0937500000,3,1.2725520134,,,
25.1093750000,3,0.6251677871,,,
25.1250000000,3,-0.1363068074,,,
25.1406250000,3,-0.9089661241,,,
25.1562500000,3,-1.6055599451,,,
25.1718750000,3,-2.1837010384,,,
25.1875000000,3,-2.6145479679,,,
25.2031250000,3,-2.8804469109,,,
25.2187500000,3,-2.9557039738,,,
25.2343750000,3,-2.8207859993,,,
25.2500000000,3,-2.5001220703,,,
25.2656250000,3,-2.0393829346,,,
25.2812500000,3,-1.5214999914,,,
25.2968750000,3,-0.9984436035,,,
25.3125000000,3,-0.5207061768,,,
25.3281250000,3,-0.0940093994,,,
25.3437500000,3,0.2550506890,,,
25.3593750000,3,0.4775848091,,,
25.3750000000,3,0.4934692085,,,
25.3906250000,3,0.2533263862,,,
25.4062500000,3,-0.1724396050,,,
25.4218750000,3,-0.6558989882,,,
25.4375000000,3,-0.9442902207,,,
25.4531250000,3,-0.8743743896,,,
25.4687500000,3,-0.4145354927,,,
25.4843750000,3,0.2885589898,,,
25.5000000000,3,1.0114140511,,,
25.5156250000,3,1.5431059599,,,
25.5312500000,3,1.8173979521,,,
25.5468750000,3,1.8994450569,,,
25.5625000000,3,1.8748929501,,,
25.5781250000,3,1.8196409941,,,
25.5937500000,3,1.7095639706,,,
25.6093750000,3,1.4723969698,,,
25.6250000000,3,1.0782469511,,,
25.6406250000,3,0.5773773193,,,
25.6562500000,3,0.0906372070,,,
25.6718750000,3,-0.2359160930,,,
25.6875000000,3,-0.2962799072,,,
25.7031250000,3,-0.0823822021,,,
25.7187500000,3,0.3154602051,,,
25.7343750000,3,0.7414702773,,,
25.7500000000,3,1.0354000330,,,
25.7656250000,3,1.0838929415,,,
25.7812500000,3,0.8798828125,,,
25.7968750000,3,0.5331267715,,,
25.8125000000,3,0.1905364990,,,
25.8281250000,3,-0.0416717492,,,
25.8437500000,3,-0.1601714939,,,
25.8593750000,3,-0.2608948052,,,
25.8750000000,3,-0.4870758057,,,
25.8906250000,3,-0.9078978896,,,
25.9062500000,3,-1.4492800236,,,
25.9218750000,3,-1.9324649572,,,
25.9375000000,3,-2.1559300423,,,
25.9531250000,3,-2.0182340145,,,
25.9687500000,3,-1.5471500158,,,
25.9843750000,3,-0.9068909287,,,
26.0000000000,3,-0.2760620117,,,
26.0156250000,3,0.1977843940,,,
26.0312500000,3,0.4545440972,,,
26.0468750000,3,0.5078278184,,,
26.0625000000,3,0.4132384956,,,
26.0781250000,3,0.2302093953,,,
26.0937500000,3,0.0329437293,,,
26.1093750000,3,-0.1403197944,,,
26.1250000000,3,-0.2463988960,,,
26.1406250000,3,-0.2639313042,,,
26.1562500000,3,-0.1916351020,,,
26.1718750000,3,-0.0491180383,,,
26.1875000000,3,0.1463318020,,,
26.2031250000,3,0.3788452148,,,
26.2187500000,3,0.6330261230,,,
26.2343750000,3,0.8871154785,,,
26.2500000000,3,1.0919040442,,,
26.2656250000,3,1.1927800179,,,
26.2812500000,3,1.1353909969,,,
26.2968750000,3,0.9167633057,,,
26.3125000000,3,0.5885772705,,,
26.3281250000,3,0.2498778999,,,
26.3437500000,3,-0.0022430420,,,
26.3593750000,3,-0.1032562032,,,
26.3750000000,3,-0.0837097168,,,
26.3906250000,3,-0.0299835205,,,
26.4062500000,3,-0.0870971680,,,
26.4218750000,3,-0.3692626953,,,
26.4375000000,3,-0.8857117295,,,
26.4531250000,3,-1.5217289925,,,
26.4687500000,3,-2.0551300049,,,
26.4843750000,3,-2.2989499569,,,
26.5000000000,3,-2.1348879337,,,
26.5156250000,3,-1.6431119442,,,
26.5312500000,3,-0.9842224121,,,
26.5468750000,3,-0.3458710015,,,
26.5625000000,3,0.1608123928,,,
26.5781250000,3,0.5066375732,,,
26.5937500000,3,0.7469177246,,,
26.6093750000,3,0.9041594863,,,
26.6250000000,3,0.9721832275,,,
26.6406250000,3,0.9338225722,,,
26.6562500000,3,0.8073577881,,,
26.6718750000,3,0.6832733154,,,
26.6875000000,3,0.6774597168,,,
26.7031250000,3,0.8494567871,,,
26.7187500000,3,1.1452939510,,,
26.7343750000,3,1.4536130428,,,
26.7500000000,3,1.6065369844,,,
26.7656250000,3,1.5621030331,,,
26.7812500000,3,1.3732759953,,,
26.7968750000,3,1.1797490120,,,
26.8125000000,3,1.1027220488,,,
26.8281250000,3,1.1944119930,,,
26.8437500000,3,1.3721469641,,,
26.8593750000,3,1.4950560331,,,
26.8750000000,3,1.4195250273,,,
26.8906250000,3,1.0754389763,,,
26.9062500000,3,0.5018615723,,,
26.9218750000,3,-0.2115478963,,,
26.9375000000,3,-0.9320526123,,,
26.9531250000,3,-1.5602420568,,,
26.9687500000,3,-2.0408020020,,,
26.9843750000,3,-2.3289639950,,,
27.0000000000,3,-2.3667449951,,,
27.0156250000,3,-2.1288909912,,,
27.0312500000,3,-1.6304930449,,,
27.0468750000,3,-0.9955291748,,,
27.0625000000,3,-0.3868407905,,,
27.0781250000,3,0.0358886681,,,
27.0937500000,3,0.2548370063,,,
27.1093750000,3,0.3965148926,,,
27.1250000000,3,0.6636353135,,,
27.1406250000,3,1.1718750000,,,
27.1562500000,3,1.8608859777,,,
27.1718750000,3,2.4325408936,,,
27.1875000000,3,2.5781400204,,,
27.2031250000,3,2.1270899773,,,
27.2187500000,3,1.1661219597,,,
27.2343750000,3,0.0232696496,,,
27.2500000000,3,-0.9498444200,,,
27.2656250000,3,-1.5098110437,,,
27.2812500000,3,-1.6587519646,,,
27.2968750000,3,-1.5359950066,,,
27.3125000000,3,-1.3527679443,,,
27.3281250000,3,-1.1770019531,,,
27.3437500000,3,-1.0376739502,,,
27.3593750000,3,-0.9149016738,,,
27.3750000000,3,-0.8386229873,,,
27.3906250000,3,-0.8971862793,,,
27.4062500000,3,-1.1602779627,,,
27.4218750000,3,-1.6409610510,,,
27.4375000000,3,-2.2046511173,,,
27.4531250000,3,-2.6442260742,,,
27.4687500000,3,-2.7463231087,,,
27.4843750000,3,-2.4315800667,,,
27.5000000000,3,-1.7640080452,,,
27.5156250000,3,-0.9296721816,,,
27.5312500000,3,-0.1307982951,,,
27.5468750000,3,0.4763489068,,,
27.5625000000,3,0.8587188721,,,
27.5781250000,3,1.0825959444,,,
27.5937500000,3,1.2569730282,,,
27.6093750000,3,1.4620820284,,,
27.6250000000,3,1.7036130428,,,
27.6406250000,3,1.9499210119,,,
27.6562500000,3,2.1347498894,,,
27.6718750000,3,2.1917419434,,,
27.6875000000,3,2.1008450985,,,
27.7031250000,3,1.8673709631,,,
27.7187500000,3,1.5337070227,,,
27.7343750000,3,1.1606750488,,,
27.7500000000,3,0.8052216172,,,
27.7656250000,3,0.5312805176,,,
27.7812500000,3,0.3603821099,,,
27.7968750000,3,0.2907409966,,,
27.8125000000,3,0.2910461128,,,
27.8281250000,3,0.3333281875,,,
27.8437500000,3,0.3838196099,,,
27.8593750000,3,0.4744567871,,,
27.8750000000,3,0.6313933730,,,
27.8906250000,3,0.8447113037,,,
27.9062500000,3,1.0695949793,,,
27.9218750000,3,1.1913599968,,,
27.9375000000,3,1.0887759924,,,
27.9531250000,3,0.7238922119,,,
27.9687500000,3,0.1728820950,,,
27.9843750000,3,-0.3879851997,,,
28.0000000000,3,-0.7854003906,,,
28.0156250000,3,-0.9372711182,,,
28.0312500000,3,-0.8577576280,,,
28.0468750000,3,-0.6433563232,,,
28.0625000000,3,-0.3513031006,,,
28.0781250000,3,-0.0318145789,,,
28.0937500000,3,0.3379822075,,,
28.1093750000,3,0.7411652207,,,
28.1250000000,3,1.1036070585,,,
28.1406250000,3,1.3264770508,,,
28.1562500000,3,1.3168179989,,,
28.1718750000,3,1.0592349768,,,
28.1875000000,3,0.6149291992,,,
28.2031250000,3,0.1183167025,,,
28.2187500000,3,-0.2660827935,,,
28.2343750000,3,-0.3953093886,,,
28.2500000000,3,-0.2071074992,,,
28.2656250000,3,0.2600249946,,,
28.2812500000,3,0.8521575928,,,
28.2968750000,3,1.3665920496,,,
28.3125000000,3,1.5816040039,,,
28.3281250000,3,1.3823239803,,,
28.3437500000,3,0.7869719863,,,
28.3593750000,3,-0.0481109582,,,
28.3750000000,3,-0.8687592149,,,
28.3906250000,3,-1.4639739990,,,
28.4062500000,3,-1.7321009636,,,
28.4218750000,3,-1.7278900146,,,
28.4375000000,3,-1.5983580351,,,
28.4531250000,3,-1.5312960148,,,
28.4687500000,3,-1.6068120003,,,
28.4843750000,3,-1.8138580322,,,
28.5000000000,3,-2.0399320126,,,
28.5156250000,3,-2.1483919621,,,
28.5312500000,3,-2.0291440487,,,
28.5468750000,3,-1.7014919519,,,
28.5625000000,3,-1.2698210478,,,
28.5781250000,3,-0.9209899902,,,
28.5937500000,3,-0.7733306885,,,
28.6093750000,3,-0.8306273818,,,
28.6250000000,3,-0.9281157851,,,
28.6406250000,3,-0.8662415147,,,
28.6562500000,3,-0.4690552056,,,
28.6718750000,3,0.2549285889,,,
28.6875000000,3,1.1427309513,,,
28.7031250000,3,1.9155579805,,,
28.7187500000,3,2.3073880672,,,
28.7343750000,3,2.1628880501,,,
28.7500000000,3,1.5003050566,,,
28.7656250000,3,0.4755707085,,,
28.7812500000,3,-0.6484375000,,,
28.7968750000,3,-1.5938719511,,,
28.8125000000,3,-2.1708829403,,,
28.8281250000,3,-2.2833099365,,,
28.8437500000,3,-1.9550019503,,,
28.8593750000,3,-1.2984620333,,,
28.8750000000,3,-0.4877929986,,,
28.8906250000,3,0.3029784858,,,
28.9062500000,3,0.9185028076,,,
28.9218750000,3,1.2595980167,,,
28.9375000000,3,1.2971800566,,,
28.9531250000,3,1.0255130529,,,
28.9687500000,3,0.5176239014,,,
28.9843750000,3,-0.1296539009,,,
29.0000000000,3,-0.8095397949,,,
29.0156250000,3,-1.3942569494,,,
29.0312500000,3,-1.7983700037,,,
29.0468750000,3,-1.9590760469,,,
29.0625000000,3,-1.8826899529,,,
29.0781250000,3,-1.6544489861,,,
29.0937500000,3,-1.4103089571,,,
29.1093750000,3,-1.3064730167,,,
29.1250000000,3,-1.4100949764,,,
29.1406250000,3,-1.6468659639,,,
29.1562500000,3,-1.7679599524,,,
29.1718750000,3,-1.5033719540,,,
29.1875000000,3,-0.6578063965,,,
29.2031250000,3,0.6911162734,,,
29.2187500000,3,2.2087860107,,,
29.2343750000,3,3.4208068848,,,
29.2500000000,3,3.9511411190,,,
29.2656250000,3,3.6595759392,,,
29.2812500000,3,2.7603149414,,,
29.2968750000,3,1.6574250460,,,
29.3125000000,3,0.7535095215,,,
29.3281250000,3,0.2901459038,,,
29.3437500000,3,0.2837829888,,,
29.3593750000,3,0.6152343750,,,
29.3750000000,3,1.0987550020,,,
29.3906250000,3,1.6074370146,,,
29.4062500000,3,2.0672910213,,,
29.4218750000,3,2.4804229736,,,
29.4375000000,3,2.8336939812,,,
29.4531250000,3,3.0721280575,,,
29.4687500000,3,3.1059570313,,,
29.4843750000,3,2.8242030144,,,
29.5000000000,3,2.1654210091,,,
29.5156250000,3,1.1805269718,,,
29.5312500000,3,0.0451049805,,,
29.5468750000,3,-0.9830780029,,,
29.5625000000,3,-1.6602020264,,,
29.5781250000,3,-1.8760830164,,,
29.5937500000,3,-1.6713709831,,,
29.6093750000,3,-1.2363430262,,,
29.6250000000,3,-0.7736815810,,,
29.6406250000,3,-0.4286346138,,,
29.6562500000,3,-0.2165222019,,,
29.6718750000,3,-0.0960540771,,,
29.6875000000,3,-0.0032501221,,,
29.7031250000,3,0.0349731408,,,
29.7187500000,3,-0.0624237098,,,
29.7343750000,3,-0.3462066948,,,
29.7500000000,3,-0.7895203233,,,
29.7656250000,3,-1.2879790068,,,
29.7812500000,3,-1.6995090246,,,
29.7968750000,3,-1.9235080481,,,
29.8125000000,3,-1.9547270536,,,
29.8281250000,3,-1.8916929960,,,
29.8437500000,3,-1.8565219641,,,
29.8593750000,3,-1.9204100370,,,
29.8750000000,3,-2.0500340462,,,
29.8906250000,3,-2.1166839600,,,
29.9062500000,3,-1.9651340246,,,
29.9218750000,3,-1.5106960535,,,
29.9375000000,3,-0.7899169922,,,
29.9531250000,3,0.0292205792,,,
29.9687500000,3,0.7246704102,,,
29.9843750000,3,1.1304470301,,,
30.0000000000,3,1.2072750330,,,
30.0156250000,3,1.0146330595,,,
30.0312500000,3,0.6719512939,,,
30.0468750000,3,0.3104706109,,,
30.0625000000,3,0.0058746338,,,
30.0781250000,3,-0.2188872993,,,
30.0937500000,3,-0.3449554145,,,
30.1093750000,3,-0.3517760932,,,
30.1250000000,3,-0.2249756008,,,
30.1406250000,3,0.0620117188,,,
30.1562500000,3,0.4847260118,,,
30.1718750000,3,0.9716033936,,,
30.1875000000,3,1.4484100342,,,
30.2031250000,3,1.8250119686,,,
30.2187500000,3,2.0420989990,,,
30.2343750000,3,2.0677950382,,,
30.2500000000,3,1.9290770292,,,
30.2656250000,3,1.7200930119,,,
30.2812500000,3,1.5675660372,,,
30.2968750000,3,1.5980830193,,,
30.3125000000,3,1.8235629797,,,
30.3281250000,3,2.1264190674,,,
30.3437500000,3,2.2685239315,,,
30.3593750000,3,2.0277249813,,,
30.3750000000,3,1.3103640079,,,
30.3906250000,3,0.2415466011,,,
30.4062500000,3,-0.9084929824,,,
30.4218750000,3,-1.8484189510,,,
30.4375000000,3,-2.3890080452,,,
30.4531250000,3,-2.4783630371,,,
30.4687500000,3,-2.2212979794,,,
30.4843750000,3,-1.7550959587,,,
30.5000000000,3,-1.2094880342,,,
30.5156250000,3,-0.6678466797,,,
30.5312500000,3,-0.1991882026,,,
30.5468750000,3,0.1607360989,,,
30.5625000000,3,0.3587799072,,,
30.5781250000,3,0.3914336860,,,
30.5937500000,3,0.2682648003,,,
30.6093750000,3,0.0386657715,,,
30.6250000000,3,-0.2559508979,,,
30.6406250000,3,-0.5707244873,,,
30.6562500000,3,-0.8328247070,,,
30.6718750000,3,-0.9787445068,,,
30.6875000000,3,-0.9318695068,,,
30.7031250000,3,-0.7319030762,,,
30.7187500000,3,-0.4809265137,,,
30.7343750000,3,-0.3660736084,,,
30.7500000000,3,-0.5181580186,,,
30.7656250000,3,-0.9304351807,,,
30.7812500000,3,-1.4485780001,,,
30.7968750000,3,-1.8395999670,,,
30.8125000000,3,-1.9307860136,,,
30.8281250000,3,-1.7342679501,,,
30.8437500000,3,-1.3950200081,,,
30.8593750000,3,-1.0857089758,,,
30.8750000000,3,-0.9046630859,,,
30.8906250000,3,-0.8180236816,,,
30.9062500000,3,-0.6986846924,,,
30.9218750000,3,-0.4454956055,,,
30.9375000000,3,-0.0317840613,,,
30.9531250000,3,0.4728851020,,,
30.9687500000,3,0.9496154785,,,
30.9843750000,3,1.3349460363,,,
31.0000000000,3,1.6306300163,,,
31.0156250000,3,1.8857419491,,,
31.0312500000,3,2.1506040096,,,
31.0468750000,3,2.4594728947,,,
31.0625000000,3,2.7682039738,,,
31.0781250000,3,2.9731140137,,,
31.0937500000,3,2.9331209660,,,
31.1093750000,3,2.5517730713,,,
31.1250000000,3,1.8540799618,,,
31.1406250000,3,1.0272829533,,,
31.1562500000,3,0.3577271104,,,
31.1718750000,3,0.0847778320,,,
31.1875000000,3,0.2680510879,,,
31.2031250000,3,0.6977385879,,,
31.2187500000,3,1.0384980440,,,
31.2343750000,3,1.0103299618,,,
31.2500000000,3,0.5458983779,,,
31.2656250000,3,-0.1651306003,,,
31.2812500000,3,-0.8252410889,,,
31.2968750000,3,-1.2116090059,,,
31.3125000000,3,-1.2878420353,,,
31.3281250000,3,-1.2011109591,,,
31.3437500000,3,-1.1659239531,,,
31.3593750000,3,-1.2801669836,,,
31.3750000000,3,-1.4991300106,,,
31.3906250000,3,-1.6631770134,,,
31.4062500000,3,-1.5980989933,,,
31.4218750000,3,-1.2423399687,,,
31.4375000000,3,-0.6885070801,,,
31.4531250000,3,-0.1091156006,,,
31.4687500000,3,0.3054809868,,,
31.4843750000,3,0.4411011040,,,
31.5000000000,3,0.3231048882,,,
31.5156250000,3,0.0923309326,,,
31.5312500000,3,-0.0949554369,,,
31.5468750000,3,-0.1234283000,,,
31.5625000000,3,-0.0346527100,,,
31.5781250000,3,0.0509643592,,,
31.5937500000,3,0.0085296631,,,
31.6093750000,3,-0.2034454048,,,
31.6250000000,3,-0.5084534287,,,
31.6406250000,3,-0.7850800157,,,
31.6562500000,3,-0.9701691270,,,
31.6718750000,3,-1.0588530302,,,
31.6875000000,3,-1.1186369658,,,
31.7031250000,3,-1.1821440458,,,
31.7187500000,3,-1.1789549589,,,
31.7343750000,3,-1.0039520264,,,
31.7500000000,3,-0.5720673203,,,
31.7656250000,3,0.0988769531,,,
31.7812500000,3,0.8786162734,,,
31.7968750000,3,1.6104739904,,,
31.8125000000,3,2.2133328915,,,
31.8281250000,3,2.6945950985,,,
31.8437500000,3,3.1059269905,,,
31.8593750000,3,3.4168848991,,,
31.8750000000,3,3.5139310360,,,
31.8906250000,3,3.2399289608,,,
31.9062500000,3,2.5076899529,,,
31.9218750000,3,1.4019780159,,,
31.9375000000,3,0.1608887017,,,
31.9531250000,3,-0.9328917861,,,
31.9687500000,3,-1.6822810173,,,
31.9843750000,3,-2.0258479118,,,
32.0000000000,4,-2.0692141056,,,
32.0156250000,4,-1.9183499813,,,
32.0312500000,4,-1.6710820198,,,
32.0468750000,4,-1.3719789982,,,
32.0625000000,4,-1.0289460421,,,
32.0781250000,4,-0.7048035264,,,
32.0937500000,4,-0.4879455864,,,
32.1093750000,4,-0.4801482856,,,
32.1250000000,4,-0.6784667969,,,
32.1406250000,4,-0.9859923720,,,
32.1562500000,4,-1.2303769588,,,
32.1718750000,4,-1.2338869572,,,
32.1875000000,4,-0.9747772217,,,
32.2031250000,4,-0.5355377197,,,
32.2187500000,4,-0.0827484131,,,
32.2343750000,4,0.2337189019,,,
32.2500000000,4,0.4299468994,,,
32.2656250000,4,0.6525878906,,,
32.2812500000,4,1.0768740177,,,
32.2968750000,4,1.7396240234,,,
32.3125000000,4,2.4522860050,,,
32.3281250000,4,2.8683319092,,,
32.3437500000,4,2.7366490364,,,
32.3593750000,4,2.0317990780,,,
32.3750000000,4,1.0454250574,,,
32.3906250000,4,0.2089996040,,,
32.4062500000,4,-0.1607055962,,,
32.4218750000,4,-0.0593414307,,,
32.4375000000,4,0.2595978081,,,
32.4531250000,4,0.4505462945,,,
32.4687500000,4,0.3315277100,,,
32.4843750000,4,-0.0238952599,,,
32.5000000000,4,-0.3980560005,,,
32.5156250000,4,-0.5954437256,,,
32.5312500000,4,-0.5922545791,,,
32.5468750000,4,-0.5353087783,,,
32.5625000000,4,-0.6116486192,,,
32.5781250000,4,-0.8645935059,,,
32.5937500000,4,-1.1754000187,,,
32.6093750000,4,-1.3431700468,,,
32.6250000000,4,-1.2303309441,,,
32.6406250000,4,-0.8758087158,,,
32.6562500000,4,-0.4730224907,,,
32.6718750000,4,-0.2397918999,,,
32.6875000000,4,-0.3294067085,,,
32.7031250000,4,-0.7358397841,,,
32.7187500000,4,-1.3117070198,,,
32.7343750000,4,-1.8361660242,,,
32.7500000000,4,-2.1080470085,,,
32.7656250000,4,-2.0050508976,,,
32.7812500000,4,-1.5357509851,,,
32.7968750000,4,-0.8165131211,,,
32.8125000000,4,-0.0359649695,,,
32.8281250000,4,0.6436005235,,,
32.8437500000,4,1.1594849825,,,
32.8593750000,4,1.5068659782,,,
32.8750000000,4,1.7371670008,,,
32.8906250000,4,1.8214110136,,,
32.9062500000,4,1.6914060116,,,
32.9218750000,4,1.2731930017,,,
32.9375000000,4,0.5816040039,,,
32.9531250000,4,-0.2580108941,,,
32.9687500000,4,-1.0070500374,,,
32.9843750000,4,-1.4370419979,,,
33.0000000000,4,-1.4424439669,,,
33.0156250000,4,-1.0744320154,,,
33.0312500000,4,-0.5214691162,,,
33.0468750000,4,0.0075988770,,,
33.0625000000,4,0.3229218125,,,
33.0781250000,4,0.3318938911,,,
33.0937500000,4,0.0153045701,,,
33.1093750000,4,-0.5585021973,,,
33.1250000000,4,-1.2451020479,,,
33.1406250000,4,-1.8337709904,,,
33.1562500000,4,-2.0875849724,,,
33.1718750000,4,-1.8432309628,,,
33.1875000000,4,-1.1062010527,,,
33.2031250000,4,-0.0684356689,,,
33.2187500000,4,0.9566497803,,,
33.2343750000,4,1.6734009981,,,
33.2500000000,4,1.9202270508,,,
33.2656250000,4,1.7265319824,,,
33.2812500000,4,1.2949980497,,,
33.2968750000,4,0.8907927871,,,
33.3125000000,4,0.7156677246,,,
33.3281250000,4,0.8729094863,,,
33.3437500000,4,1.3222049475,,,
33.3593750000,4,1.9115910530,,,
33.3750000000,4,2.4523010254,,,
33.3906250000,4,2.7763669491,,,
33.4062500000,4,2.7909998894,,,
33.4218750000,4,2.5009460449,,,
33.4375000000,4,1.9373170137,,,
33.4531250000,4,1.1285099983,,,
33.4687500000,4,0.1325531006,,,
33.4843750000,4,-0.9429779053,,,
33.5000000000,4,-1.9011989832,,,
33.5156250000,4,-2.5093228817,,,
33.5312500000,4,-2.5583190918,,,
33.5468750000,4,-1.9889830351,,,
33.5625000000,4,-0.9259796143,,,
33.5781250000,4,0.3833008111,,,
33.5937500000,4,1.6439360380,,,
33.6093750000,4,2.6461029053,,,
33.6250000000,4,3.2710421085,,,
33.6406250000,4,3.4776310921,,,
33.6562500000,4,3.2301030159,,,
33.6718750000,4,2.5570681095,,,
33.6875000000,4,1.5413670540,,,
33.7031250000,4,0.3553771973,,,
33.7187500000,4,-0.7566071153,,,
33.7343750000,4,-1.5698850155,,,
33.7500000000,4,-2.0050349236,,,
33.7656250000,4,-2.1615450382,,,
33.7812500000,4,-2.2485349178,,,
33.7968750000,4,-2.4253389835,,,
33.8125000000,4,-2.7178959846,,,
33.8281250000,4,-2.9801790714,,,
33.8437500000,4,-2.9938659668,,,
33.8593750000,4,-2.6075289249,,,
33.8750000000,4,-1.8271640539,,,
33.8906250000,4,-0.8526917100,,,
33.9062500000,4,0.0503692590,,,
33.9218750000,4,0.7061157227,,,
33.9375000000,4,1.0814510584,,,
33.9531250000,4,1.2864530087,,,
33.9687500000,4,1.4329220057,,,
33.9843750000,4,1.5151979923,,,
34.0000000000,4,1.4183650017,,,
34.0156250000,4,0.9450377822,,,
34.0312500000,4,0.0138244601,,,
34.0468750000,4,-1.1955569983,,,
34.0625000000,4,-2.3212280273,,,
34.0781250000,4,-2.9651789665,,,
34.0937500000,4,-2.8979489803,,,
34.1093750000,4,-2.1901090145,,,
34.1250000000,4,-1.1840970516,,,
34.1406250000,4,-0.2745361030,,,
34.1562500000,4,0.2773590088,,,
34.1718750000,4,0.4656066895,,,
34.1875000000,4,0.4418334961,,,
34.2031250000,4,0.3699950874,,,
34.2187500000,4,0.2899779975,,,
34.2343750000,4,0.1501006931,,,
34.2500000000,4,-0.1174468994,,,
34.2656250000,4,-0.5072174072,,,
34.2812500000,4,-0.8767241836,,,
34.2968750000,4,-1.0680999756,,,
34.3125000000,4,-0.9655609131,,,
34.3281250000,4,-0.5774077773,,,
34.3437500000,4,-0.0269470196,,,
34.3593750000,4,0.4846191108,,,
34.3750000000,4,0.8477020264,,,
34.3906250000,4,1.0488590002,,,
34.4062500000,4,1.1772769690,,,
34.4218750000,4,1.3853609562,,,
34.4375000000,4,1.7777559757,,,
34.4531250000,4,2.3447420597,,,
34.4687500000,4,2.9449009895,,,
34.4843750000,4,3.3703460693,,,
34.5000000000,4,3.4130709171,,,
34.5156250000,4,2.9690248966,,,
34.5312500000,4,2.0949099064,,,
34.5468750000,4,0.9668579102,,,
34.5625000000,4,-0.2032165974,,,
34.5781250000,4,-1.2664029598,,,
34.5937500000,4,-2.1444849968,,,
34.6093750000,4,-2.7954559326,,,
34.6250000000,4,-3.1464390755,,,
34.6406250000,4,-3.0911560059,,,
34.6562500000,4,-2.5432589054,,,
34.6718750000,4,-1.5322879553,,,
34.6875000000,4,-0.2570343018,,,
34.7031250000,4,0.9792479873,,,
34.7187500000,4,1.8481750488,,,
34.7343750000,4,2.1647338867,,,
34.7500000000,4,1.9126130342,,,
34.7656250000,4,1.2137759924,,,
34.7812500000,4,0.2739104927,,,
34.7968750000,4,-0.7124022841,,,
34.8125000000,4,-1.5886689425,,,
34.8281250000,4,-2.2266690731,,,
34.8437500000,4,-2.5204620361,,,
34.8593750000,4,-2.4257199764,,,
34.8750000000,4,-1.9577640295,,,
34.8906250000,4,-1.2288060188,,,
34.9062500000,4,-0.4101563096,,,
34.9218750000,4,0.3092803955,,,
34.9375000000,4,0.8299102783,,,
34.9531250000,4,1.1392819881,,,
34.9687500000,4,1.3135069609,,,
34.9843750000,4,1.4544370174,,,
35.0000000000,4,1.6382900476,,,
35.0156250000,4,1.8477629423,,,
35.0312500000,4,1.9925689697,,,
35.0468750000,4,1.9586789608,,,
35.0625000000,4,1.6616820097,,,
35.0781250000,4,1.1253050566,,,
35.0937500000,4,0.4352112114,,,
35.1093750000,4,-0.2748413086,,,
35.1250000000,4,-0.9218903184,,,
35.1406250000,4,-1.4774479866,,,
35.1562500000,4,-1.9458769560,,,
35.1718750000,4,-2.2873380184,,,
35.1875000000,4,-2.4176790714,,,
35.2031250000,4,-2.2428889275,,,
35.2187500000,4,-1.7366180420,,,
35.2343750000,4,-0.9617003798,,,
35.2500000000,4,-0.1138916016,,,
35.2656250000,4,0.5765991211,,,
35.2812500000,4,0.9551544189,,,
35.2968750000,4,0.9919738770,,,
35.3125000000,4,0.7888184190,,,
35.3281250000,4,0.4827880859,,,
35.3437500000,4,0.1815337986,,,
35.3593750000,4,-0.0669555664,,,
35.3750000000,4,-0.2489929050,,,
35.3906250000,4,-0.3630675972,,,
35.4062500000,4,-0.3599090874,,,
35.4218750000,4,-0.2236175984,,,
35.4375000000,4,0.0355987512,,,
35.4531250000,4,0.3364715874,,,
35.4687500000,4,0.5613861084,,,
35.4843750000,4,0.6218718886,,,
35.5000000000,4,0.5081176758,,,
35.5156250000,4,0.2886658013,,,
35.5312500000,4,0.1184998006,,,
35.5468750000,4,0.1427765042,,,
35.5625000000,4,0.4222412109,,,
35.5781250000,4,0.8854370117,,,
35.5937500000,4,1.3224639893,,,
35.6093750000,4,1.4960780144,,,
35.6250000000,4,1.2559360266,,,
35.6406250000,4,0.5962067246,,,
35.6562500000,4,-0.2915649116,,,
35.6718750000,4,-1.1286770105,,,
35.6875000000,4,-1.6633299589,,,
35.7031250000,4,-1.7884370089,,,
35.7187500000,4,-1.5653840303,,,
35.7343750000,4,-1.1580049992,,,
35.7500000000,4,-0.7123107910,,,
35.7656250000,4,-0.3179016113,,,
35.7812500000,4,0.0140991202,,,
35.7968750000,4,0.3083800972,,,
35.8125000000,4,0.5366516113,,,
35.8281250000,4,0.6210327148,,,
35.8437500000,4,0.4882507026,,,
35.8593750000,4,0.1255187988,,,
35.8750000000,4,-0.3792267144,,,
35.8906250000,4,-0.8944396973,,,
35.9062500000,4,-1.2532500029,,,
35.9218750000,4,-1.3618010283,,,
35.9375000000,4,-1.1821750402,,,
35.9531250000,4,-0.7726287842,,,
35.9687500000,4,-0.2181549072,,,
35.9843750000,4,0.3494567871,,,
36.0000000000,4,0.8264008164,,,
36.0156250000,4,1.1285099983,,,
36.0312500000,4,1.2499539852,,,
36.0468750000,4,1.2406159639,,,
36.0625000000,4,1.2249909639,,,
36.0781250000,4,1.3257449865,,,
36.0937500000,4,1.6181639433,,,
36.1093750000,4,2.0849759579,,,
36.1250000000,4,2.6030430794,,,
36.1406250000,4,2.9984738827,,,
36.1562500000,4,3.0821840763,,,
36.1718750000,4,2.8040471077,,,
36.1875000000,4,2.2144930363,,,
36.2031250000,4,1.4950560331,,,
36.2187500000,4,0.8439025879,,,
36.2343750000,4,0.4291228950,,,
36.2500000000,4,0.2915191948,,,
36.2656250000,4,0.3401336968,,,
36.2812500000,4,0.4362792969,,,
36.2968750000,4,0.4656066895,,,
36.3125000000,4,0.4145354927,,,
36.3281250000,4,0.3319855034,,,
36.3437500000,4,0.2861328125,,,
36.3593750000,4,0.3020172119,,,
36.3750000000,4,0.3129425049,,,
36.3906250000,4,0.2305908054,,,
36.4062500000,4,0.0004272461,,,
36.4218750000,4,-0.3556518853,,,
36.4375000000,4,-0.7673339844,,,
36.4531250000,4,-1.1912230253,,,
36.4687500000,4,-1.6125179529,,,
36.4843750000,4,-2.0614318848,,,
36.5000000000,4,-2.4973599911,,,
36.5156250000,4,-2.8228449821,,,
36.5312500000,4,-2.8874969482,,,
36.5468750000,4,-2.5995030403,,,
36.5625000000,4,-1.9774320126,,,
36.5781250000,4,-1.2054439783,,,
36.5937500000,4,-0.5199127197,,,
36.6093750000,4,-0.0635681227,,,
36.6250000000,4,0.1857758015,,,
36.6406250000,4,0.3461151123,,,
36.6562500000,4,0.5095366836,,,
36.6718750000,4,0.6236572266,,,
36.6875000000,4,0.5075988770,,,
36.7031250000,4,-0.0115508996,,,
36.7187500000,4,-0.9349517822,,,
36.7343750000,4,-2.0010380745,,,
36.7500000000,4,-2.8205258846,,,
36.7656250000,4,-3.0800929070,,,
36.7812500000,4,-2.7139430046,,,
36.7968750000,4,-1.9295810461,,,
36.8125000000,4,-1.0587619543,,,
36.8281250000,4,-0.3867340088,,,
36.8437500000,4,-0.0011596680,,,
36.8593750000,4,0.2131804973,,,
36.8750000000,4,0.4307250977,,,
36.8906250000,4,0.7511444092,,,
36.9062500000,4,1.1526949406,,,
36.9218750000,4,1.5211329460,,,
36.9375000000,4,1.7403719425,,,
36.9531250000,4,1.7824549675,,,
36.9687500000,4,1.6974790096,,,
36.9843750000,4,1.5248260498,,,
37.0000000000,4,1.3013149500,,,
37.0156250000,4,1.0078740120,,,
37.0312500000,4,0.6324921250,,,
37.0468750000,4,0.2110901028,,,
37.0625000000,4,-0.1366271973,,,
37.0781250000,4,-0.2887114882,,,
37.0937500000,4,-0.1370391995,,,
37.1093750000,4,0.2830505073,,,
37.1250000000,4,0.8465880752,,,
37.1406250000,4,1.3662409782,,,
37.1562500000,4,1.6705319881,,,
37.1718750000,4,1.6604160070,,,
37.1875000000,4,1.3524630070,,,
37.2031250000,4,0.8493499756,,,
37.2187500000,4,0.3068999946,,,
37.2343750000,4,-0.1042938009,,,
37.2500000000,4,-0.2814025879,,,
37.2656250000,4,-0.2207794040,,,
37.2812500000,4,-0.0058746338,,,
37.2968750000,4,0.2244873047,,,
37.3125000000,4,0.3416748047,,,
37.3281250000,4,0.3096312881,,,
37.3437500000,4,0.1725464016,,,
37.3593750000,4,0.0353851318,,,
37.3750000000,4,-0.0111389197,,,
37.3906250000,4,0.0407257117,,,
37.4062500000,4,0.1279449016,,,
37.4218750000,4,0.1794586033,,,
37.4375000000,4,0.1753387004,,,
37.4531250000,4,0.1291808933,,,
37.4687500000,4,0.1116333008,,,
37.4843750000,4,0.1360473931,,,
37.5000000000,4,0.1346741021,,,
37.5156250000,4,0.0004730225,,,
37.5312500000,4,-0.3118439019,,,
37.5468750000,4,-0.7669066787,,,
37.5625000000,4,-1.2455439568,,,
37.5781250000,4,-1.6662139893,,,
37.5937500000,4,-1.9968869686,,,
37.6093750000,4,-2.2774350643,,,
37.6250000000,4,-2.5353550911,,,
37.6406250000,4,-2.7189030647,,,
37.6562500000,4,-2.7030489445,,,
37.6718750000,4,-2.3970949650,,,
37.6875000000,4,-1.8125150204,,,
37.7031250000,4,-1.1430820227,,,
37.7187500000,4,-0.6425781250,,,
37.7343750000,4,-0.4965515137,,,
37.7500000000,4,-0.7068939209,,,
37.7656250000,4,-1.1157230139,,,
37.7812500000,4,-1.5183869600,,,
37.7968750000,4,-1.7714229822,,,
37.8125000000,4,-1.8470760584,,,
37.8281250000,4,-1.7682189941,,,
37.8437500000,4,-1.5258640051,,,
37.8593750000,4,-1.0305939913,,,
37.8750000000,4,-0.2244414985,,,
37.8906250000,4,0.8861083984,,,
37.9062500000,4,2.1233670712,,,
37.9218750000,4,3.2250061035,,,
37.9375000000,4,3.9391329288,,,
37.9531250000,4,4.1178278923,,,
37.9687500000,4,3.7580718994,,,
37.9843750000,4,2.9858400822,,,
38.0000000000,4,2.0056300163,,,
38.0156250000,4,1.0283509493,,,
38.0312500000,4,0.2357787937,,,
38.0468750000,4,-0.2864837945,,,
38.0625000000,4,-0.5255280137,,,
38.0781250000,4,-0.5983200073,,,
38.0937500000,4,-0.6250076294,,,
38.1093750000,4,-0.7291107178,,,
38.1250000000,4,-0.9178771973,,,
38.1406250000,4,-1.1391450167,,,
38.1562500000,4,-1.3107069731,,,
38.1718750000,4,-1.3643260002,,,
38.1875000000,4,-1.2691500187,,,
38.2031250000,4,-1.0084840059,,,
38.2187500000,4,-0.5886154175,,,
38.2343750000,4,-0.0309448205,,,
38.2500000000,4,0.5841599107,,,
38.2656250000,4,1.0975420475,,,
38.2812500000,4,1.3458019495,,,
38.2968750000,4,1.2340929508,,,
38.3125000000,4,0.8150405884,,,
38.3281250000,4,0.2423096001,,,
38.3437500000,4,-0.3373413086,,,
38.3593750000,4,-0.8479155898,,,
38.3750000000,4,-1.3133389950,,,
38.3906250000,4,-1.7603759766,,,
38.4062500000,4,-2.1387410164,,,
38.4218750000,4,-2.2832028866,,,
38.4375000000,4,-2.0373990536,,,
38.4531250000,4,-1.3356930017,,,
38.4687500000,4,-0.3595505059,,,
38.4843750000,4,0.5677260756,,,
38.5000000000,4,1.1341630220,,,
38.5156250000,4,1.2162929773,,,
38.5312500000,4,0.9320374131,,,
38.5468750000,4,0.5366591811,,,
38.5625000000,4,0.3384171128,,,
38.5781250000,4,0.4371033013,,,
38.5937500000,4,0.7970352173,,,
38.6093750000,4,1.2150800228,,,
38.6250000000,4,1.5098190308,,,
38.6406250000,4,1.6040420532,,,
38.6562500000,4,1.5705490112,,,
38.6718750000,4,1.5349880457,,,
38.6875000000,4,1.5989149809,,,
38.7031250000,4,1.7271120548,,,
38.7187500000,4,1.7670140266,,,
38.7343750000,4,1.5526429415,,,
38.7500000000,4,1.0675890446,,,
38.7656250000,4,0.4643935859,,,
38.7812500000,4,-0.0033645630,,,
38.7968750000,4,-0.1401443034,,,
38.8125000000,4,0.0561065711,,,
38.8281250000,4,0.3947983086,,,
38.8437500000,4,0.5833281875,,,
38.8593750000,4,0.4184189141,,,
38.8750000000,4,-0.0699310303,,,
38.8906250000,4,-0.6760941148,,,
38.9062500000,4,-1.1489410400,,,
38.9218750000,4,-1.3405460119,,,
38.9375000000,4,-1.2927320004,,,
38.9531250000,4,-1.1405559778,,,
38.9687500000,4,-0.9928436279,,,
38.9843750000,4,-0.8317719102,,,
39.0000000000,4,-0.5717391968,,,
39.0156250000,4,-0.1201782003,,,
39.0312500000,4,0.4848327935,,,
39.0468750000,4,1.0833359957,,,
39.0625000000,4,1.5024720430,,,
39.0781250000,4,1.6435090303,,,
39.0937500000,4,1.5201259851,,,
39.1093750000,4,1.2618329525,,,
39.1250000000,4,1.0172959566,,,
39.1406250000,4,0.8599014282,,,
39.1562500000,4,0.8367844224,,,
39.1718750000,4,0.9239655137,,,
39.1875000000,4,1.1309130192,,,
39.2031250000,4,1.4356379509,,,
39.2187500000,4,1.8168640137,,,
39.2343750000,4,2.1685709953,,,
39.2500000000,4,2.3269419670,,,
39.2656250000,4,2.1198270321,,,
39.2812500000,4,1.4668580294,,,
39.2968750000,4,0.4557648003,,,
39.3125000000,4,-0.6991348267,,,
39.3281250000,4,-1.7311860323,,,
39.3437500000,4,-2.4242320061,,,
39.3593750000,4,-2.7171549797,,,
39.3750000000,4,-2.6934199333,,,
39.3906250000,4,-2.4993209839,,,
39.4062500000,4,-2.2796399593,,,
39.4218750000,4,-2.0845720768,,,
39.4375000000,4,-1.8422319889,,,
39.4531250000,4,-1.4707570076,,,
39.4687500000,4,-0.9437789917,,,
39.4843750000,4,-0.3134383857,,,
39.5000000000,4,0.2510071099,,,
39.5156250000,4,0.5892105103,,,
39.5312500000,4,0.6383286119,,,
39.5468750000,4,0.4706878960,,,
39.5625000000,4,0.2469100952,,,
39.5781250000,4,0.1627044976,,,
39.5937500000,4,0.2949295044,,,
39.6093750000,4,0.5998535156,,,
39.6250000000,4,0.9205170274,,,
39.6406250000,4,1.0579220057,,,
39.6562500000,4,0.8904418945,,,
39.6718750000,4,0.4333344102,,,
39.6875000000,4,-0.1403732002,,,
39.7031250000,4,-0.6189041138,,,
39.7187500000,4,-0.8235703111,,,
39.7343750000,4,-0.7159119248,,,
39.7500000000,4,-0.4072495103,,,
39.7656250000,4,-0.0943450928,,,
39.7812500000,4,0.0432205200,,,
39.7968750000,4,-0.0279693604,,,
39.8125000000,4,-0.2288132012,,,
39.8281250000,4,-0.3948211968,,,
39.8437500000,4,-0.4078902900,,,
39.8593750000,4,-0.2622756958,,,
39.8750000000,4,-0.1033478007,,,
39.8906250000,4,-0.0803527832,,,
39.9062500000,4,-0.2736282051,,,
39.9218750000,4,-0.5910720825,,,
39.9375000000,4,-0.8205872178,,,
39.9531250000,4,-0.7323685288,,,
39.9687500000,4,-0.2544097900,,,
39.9843750000,4,0.5114212036,,,
40.0000000000,5,1.2928700447,,,
40.0156250000,5,1.7677079439,,,
40.0312500000,5,1.7262190580,,,
40.0468750000,5,1.1664199829,,,
40.0625000000,5,0.2747116089,,,
40.0781250000,5,-0.6264266968,,,
40.0937500000,5,-1.2719420195,,,
40.1093750000,5,-1.5439219475,,,
40.1250000000,5,-1.5293730497,,,
40.1406250000,5,-1.4415819645,,,
40.1562500000,5,-1.4690250158,,,
40.1718750000,5,-1.7009660006,,,
40.1875000000,5,-2.0141139030,,,
40.2031250000,5,-2.2311329842,,,
40.2187500000,5,-2.1376569271,,,
40.2343750000,5,-1.6804809570,,,
40.2500000000,5,-0.9215698242,,,
40.2656250000,5,-0.0205383301,,,
40.2812500000,5,0.8758087158,,,
40.2968750000,5,1.6818159819,,,
40.3125000000,5,2.3808588982,,,
40.3281250000,5,2.9630050659,,,
40.3437500000,5,3.3853609562,,,
40.3593750000,5,3.5369420052,,,
40.3750000000,5,3.3377079964,,,
40.3906250000,5,2.7803730965,,,
40.4062500000,5,1.9171450138,,,
40.4218750000,5,0.9517822266,,,
40.4375000000,5,0.1173859015,,,
40.4531250000,5,-0.3509520888,,,
40.4687500000,5,-0.3444823921,,,
40.4843750000,5,0.0834503174,,,
40.5000000000,5,0.7113190293,,,
40.5156250000,5,1.2284770012,,,
40.5312500000,5,1.3804169893,,,
40.5468750000,5,1.0830149651,,,
40.5625000000,5,0.4626770020,,,
40.5781250000,5,-0.1927413940,,,
40.5937500000,5,-0.6391754150,,,
40.6093750000,5,-0.7581710815,,,
40.6250000000,5,-0.6359481812,,,
40.6406250000,5,-0.4895401001,,,
40.6562500000,5,-0.5617218018,,,
40.6718750000,5,-0.9486846924,,,
40.6875000000,5,-1.6109919548,,,
40.7031250000,5,-2.3641510010,,,
40.7187500000,5,-2.9471740723,,,
40.7343750000,5,-3.1845700741,,,
40.7500000000,5,-2.9681699276,,,
40.7656250000,5,-2.3420789242,,,
40.7812500000,5,-1.4317630529,,,
40.7968750000,5,-0.4551619887,,,
40.8125000000,5,0.3828429878,,,
40.8281250000,5,0.9327697754,,,
40.8437500000,5,1.1544950008,,,
40.8593750000,5,1.0967860222,,,
40.8750000000,5,0.8959960938,,,
40.8906250000,5,0.6892548203,,,
40.9062500000,5,0.5723267198,,,
40.9218750000,5,0.5672225952,,,
40.9375000000,5,0.6291809082,,,
40.9531250000,5,0.6829605103,,,
40.9687500000,5,0.6338654160,,,
40.9843750000,5,0.4552460015,,,
41.0000000000,5,0.1675034016,,,
41.0156250000,5,-0.1318130046,,,
41.0312500000,5,-0.3263702095,,,
41.0468750000,5,-0.2906036079,,,
41.0625000000,5,0.0122757005,,,
41.0781250000,5,0.5433272719,,,
41.0937500000,5,1.1650160551,,,
41.1093750000,5,1.7099080086,,,
41.1250000000,5,2.0260009766,,,
41.1406250000,5,2.0458910465,,,
41.1562500000,5,1.7359009981,,,
41.1718750000,5,1.1334760189,,,
41.1875000000,5,0.3246689141,,,
41.2031250000,5,-0.5549622178,,,
41.2187500000,5,-1.3248900175,,,
41.2343750000,5,-1.8072659969,,,
41.2500000000,5,-1.8721239567,,,
41.2656250000,5,-1.5512470007,,,
41.2812500000,5,-0.9669724107,,,
41.2968750000,5,-0.3535614014,,,
41.3125000000,5,0.0959549025,,,
41.3281250000,5,0.3135604858,,,
41.3437500000,5,0.3557358086,,,
41.3593750000,5,0.3379059136,,,
41.3750000000,5,0.3856888115,,,
41.3906250000,5,0.4838333130,,,
41.4062500000,5,0.5356978774,,,
41.4218750000,5,0.4148406982,,,
41.4375000000,5,0.0868759230,,,
41.4531250000,5,-0.3659133911,,,
41.4687500000,5,-0.7699127197,,,
41.4843750000,5,-0.9680175781,,,
41.5000000000,5,-0.9261702895,,,
41.5156250000,5,-0.6954193115,,,
41.5312500000,5,-0.4365921021,,,
41.5468750000,5,-0.2667236030,,,
41.5625000000,5,-0.2302169949,,,
41.5781250000,5,-0.2543410957,,,
41.5937500000,5,-0.2765808105,,,
41.6093750000,5,-0.2406844944,,,
41.6250000000,5,-0.1520233005,,,
41.6406250000,5,-0.0535507202,,,
41.6562500000,5,0.0050048828,,,
41.6718750000,5,0.0033569341,,,
41.6875000000,5,-0.0988311768,,,
41.7031250000,5,-0.3415069878,,,
41.7187500000,5,-0.7744597793,,,
41.7343750000,5,-1.3688509464,,,
41.7500000000,5,-1.9749219418,,,
41.7656250000,5,-2.3633189201,,,
41.7812500000,5,-2.2942659855,,,
41.7968750000,5,-1.6610720158,,,
41.8125000000,5,-0.5627518296,,,
41.8281250000,5,0.6993026733,,,
41.8437500000,5,1.7986299992,,,
41.8593750000,5,2.4650568962,,,
41.8750000000,5,2.6389620304,,,
41.8906250000,5,2.4479370117,,,
41.9062500000,5,2.1440889835,,,
41.9218750000,5,1.9415659904,,,
41.9375000000,5,1.9485089779,,,
41.9531250000,5,2.1246950626,,,
41.9687500000,5,2.3156280518,,,
41.9843750000,5,2.3262479305,,,
42.0000000000,5,2.0135729313,,,
42.0156250000,5,1.3597719669,,,
42.0312500000,5,0.4729079902,,,
42.0468750000,5,-0.4652785957,,,
42.0625000000,5,-1.2736279964,,,
42.0781250000,5,-1.8026050329,,,
42.0937500000,5,-2.0041050911,,,
42.1093750000,5,-1.9122849703,,,
42.1250000000,5,-1.6168440580,,,
42.1406250000,5,-1.2093579769,,,
42.1562500000,5,-0.8157578111,,,
42.1718750000,5,-0.5221633911,,,
42.1875000000,5,-0.4123688042,,,
42.2031250000,5,-0.5278853774,,,
42.2187500000,5,-0.8441010118,,,
42.2343750000,5,-1.2552189827,,,
42.2500000000,5,-1.5984569788,,,
42.2656250000,5,-1.7257000208,,,
42.2812500000,5,-1.5886689425,,,
42.2968750000,5,-1.2406769991,,,
42.3125000000,5,-0.8229904175,,,
42.3281250000,5,-0.4940567017,,,
42.3437500000,5,-0.2943725884,,,
42.3593750000,5,-0.1778869927,,,
42.3750000000,5,-0.0335464515,,,
42.3906250000,5,0.2361374050,,,
42.4062500000,5,0.6241149902,,,
42.4218750000,5,1.0380480289,,,
42.4375000000,5,1.3418879509,,,
42.4531250000,5,1.4507520199,,,
42.4687500000,5,1.3675769567,,,
42.4843750000,5,1.1410059929,,,
42.5000000000,5,0.8436356187,,,
42.5156250000,5,0.4880599976,,,
42.5312500000,5,0.0561752282,,,
42.5468750000,5,-0.4442214966,,,
42.5625000000,5,-0.9502487183,,,
42.5781250000,5,-1.3307570219,,,
42.5937500000,5,-1.4542310238,,,
42.6093750000,5,-1.2653729916,,,
42.6250000000,5,-0.8741301894,,,
42.6406250000,5,-0.4466705024,,,
42.6562500000,5,-0.1824416965,,,
42.6718750000,5,-0.1447525024,,,
42.6875000000,5,-0.2604751885,,,
42.7031250000,5,-0.3828505874,,,
42.7187500000,5,-0.3858185112,,,
42.7343750000,5,-0.2421645969,,,
42.7500000000,5,-0.0397796594,,,
42.7656250000,5,0.1172484979,,,
42.7812500000,5,0.1829528958,,,
42.7968750000,5,0.2135467976,,,
42.8125000000,5,0.3337708116,,,
42.8281250000,5,0.6000518799,,,
42.8437500000,5,0.9691848755,,,
42.8593750000,5,1.2755969763,,,
42.8750000000,5,1.3558650017,,,
42.8906250000,5,1.1529619694,,,
42.9062500000,5,0.7749785781,,,
42.9218750000,5,0.4317626953,,,
42.9375000000,5,0.3241043091,,,
42.9531250000,5,0.5299149156,,,
42.9687500000,5,0.9648590088,,,
42.9843750000,5,1.4236600399,,,
43.0000000000,5,1.6918330193,,,
43.0156250000,5,1.6304860115,,,
43.0312500000,5,1.2686159611,,,
43.0468750000,5,0.7677764893,,,
43.0625000000,5,0.3478316963,,,
43.0781250000,5,0.1846466064,,,
43.0937500000,5,0.3006134033,,,
43.1093750000,5,0.5757750869,,,
43.1250000000,5,0.7892531753,,,
43.1406250000,5,0.7718964219,,,
43.1562500000,5,0.4600067139,,,
43.1718750000,5,-0.0789947510,,,
43.1875000000,5,-0.6841964722,,,
43.2031250000,5,-1.1803590059,,,
43.2187500000,5,-1.4795229435,,,
43.2343750000,5,-1.5377500057,,,
43.2500000000,5,-1.3690030575,,,
43.2656250000,5,-1.0134660006,,,
43.2812500000,5,-0.5596007705,,,
43.2968750000,5,-0.1148986965,,,
43.3125000000,5,0.1786040962,,,
43.3281250000,5,0.2312241048,,,
43.3437500000,5,0.0686416626,,,
43.3593750000,5,-0.1439743042,,,
43.3750000000,5,-0.1932830960,,,
43.3906250000,5,-0.0048599239,,,
43.4062500000,5,0.2937468886,,,
43.4218750000,5,0.4456099868,,,
43.4375000000,5,0.2155762017,,,
43.4531250000,5,-0.4008331001,,,
43.4687500000,5,-1.1436840296,,,
43.4843750000,5,-1.6417690516,,,
43.5000000000,5,-1.6633529663,,,
43.5156250000,5,-1.2656630278,,,
43.5312500000,5,-0.7688674927,,,
43.5468750000,5,-0.5445327759,,,
43.5625000000,5,-0.7584456801,,,
43.5781250000,5,-1.2729949951,,,
43.5937500000,5,-1.7400670052,,,
43.6093750000,5,-1.8218539953,,,
43.6250000000,5,-1.4091570377,,,
43.6406250000,5,-0.6257706285,,,
43.6562500000,5,0.2363128960,,,
43.6718750000,5,0.9482039809,,,
43.6875000000,5,1.4256210327,,,
43.7031250000,5,1.7188030481,,,
43.7187500000,5,1.9105529785,,,
43.7343750000,5,2.0374529362,,,
43.7500000000,5,2.0613019466,,,
43.7656250000,5,1.9140169621,,,
43.7812500000,5,1.5718460083,,,
43.7968750000,5,1.1019669771,,,
43.8125000000,5,0.6372299194,,,
43.8281250000,5,0.3465957940,,,
43.8437500000,5,0.3353270888,,,
43.8593750000,5,0.6401215196,,,
43.8750000000,5,1.1959919930,,,
43.8906250000,5,1.8610379696,,,
43.9062500000,5,2.4654390812,,,
43.9218750000,5,2.8682789803,,,
43.9375000000,5,3.0076448917,,,
43.9531250000,5,2.8833239079,,,
43.9687500000,5,2.5306398869,,,
43.9843750000,5,1.9519809484,,,
44.0000000000,5,1.1509929895,,,
44.0156250000,5,0.1464996040,,,
44.0312500000,5,-0.9210205078,,,
44.0468750000,5,-1.8649519682,,,
44.0625000000,5,-2.4507520199,,,
44.0781250000,5,-2.5543589592,,,
44.0937500000,5,-2.2391738892,,,
44.1093750000,5,-1.6820980310,,,
44.1250000000,5,-1.1331939697,,,
44.1406250000,5,-0.7082213759,,,
44.1562500000,5,-0.4625244141,,,
44.1718750000,5,-0.3583221138,,,
44.1875000000,5,-0.4108887017,,,
44.2031250000,5,-0.6336823106,,,
44.2187500000,5,-1.0337599516,,,
44.2343750000,5,-1.4985049963,,,
44.2500000000,5,-1.7861709595,,,
44.2656250000,5,-1.6807630062,,,
44.2812500000,5,-1.1057130098,,,
44.2968750000,5,-0.2526245117,,,
44.3125000000,5,0.5158920288,,,
44.3281250000,5,0.8698958755,,,
44.3437500000,5,0.7021561265,,,
44.3593750000,5,0.2039718926,,,
44.3750000000,5,-0.2257156074,,,
44.3906250000,5,-0.2492218018,,,
44.4062500000,5,0.2448195964,,,
44.4218750000,5,1.0980989933,,,
44.4375000000,5,1.9664380550,,,
44.4531250000,5,2.5209879875,,,
44.4687500000,5,2.5944290161,,,
44.4843750000,5,2.2023770809,,,
44.5000000000,5,1.5070339441,,,
44.5156250000,5,0.6617813110,,,
44.5312500000,5,-0.2097472996,,,
44.5468750000,5,-1.0705640316,,,
44.5625000000,5,-1.8550950289,,,
44.5781250000,5,-2.4949190617,,,
44.5937500000,5,-2.8674321175,,,
44.6093750000,5,-2.9189000130,,,
44.6250000000,5,-2.6579279900,,,
44.6406250000,5,-2.1961290836,,,
44.6562500000,5,-1.7136230469,,,
44.6718750000,5,-1.3397899866,,,
44.6875000000,5,-1.1442489624,,,
44.7031250000,5,-1.0768049955,,,
44.7187500000,5,-1.0656199455,,,
44.7343750000,5,-1.0847239494,,,
44.7500000000,5,-1.1640549898,,,
44.7656250000,5,-1.3365099430,,,
44.7812500000,5,-1.5945659876,,,
44.7968750000,5,-1.8281860352,,,
44.8125000000,5,-1.8781050444,,,
44.8281250000,5,-1.6419830322,,,
44.8437500000,5,-1.1115490198,,,
44.8593750000,5,-0.4083251953,,,
44.8750000000,5,0.3380126953,,,
44.8906250000,5,1.0444489717,,,
44.9062500000,5,1.7152709961,,,
44.9218750000,5,2.3739550114,,,
44.9375000000,5,2.9885179996,,,
44.9531250000,5,3.4513781071,,,
44.9687500000,5,3.5999369621,,,
44.9843750000,5,3.3188710213,,,
45.0000000000,5,2.6354219913,,,
45.0156250000,5,1.7180399895,,,
45.0312500000,5,0.8104323745,,,
45.0468750000,5,0.1274871975,,,
45.0625000000,5,-0.2415008992,,,
45.0781250000,5,-0.3547667861,,,
45.0937500000,5,-0.3142014146,,,
45.1093750000,5,-0.2353592068,,,
45.1250000000,5,-0.1765137017,,,
45.1406250000,5,-0.1113433987,,,
45.1562500000,5,0.0375671387,,,
45.1718750000,5,0.3305664063,,,
45.1875000000,5,0.7636489868,,,
45.2031250000,5,1.2680050135,,,
45.2187500000,5,1.6837769747,,,
45.2343750000,5,1.8871769905,,,
45.2500000000,5,1.7948679924,,,
45.2656250000,5,1.4306559563,,,
45.2812500000,5,0.8590698242,,,
45.2968750000,5,0.1699752957,,,
45.3125000000,5,-0.5981369019,,,
45.3281250000,5,-1.4024430513,,,
45.3437500000,5,-2.1698839664,,,
45.3593750000,5,-2.7466580868,,,
45.3750000000,5,-2.9514160156,,,
45.3906250000,5,-2.6617660522,,,
45.4062500000,5,-1.9121780396,,,
45.4218750000,5,-0.9394072890,,,
45.4375000000,5,-0.0296630897,,,
45.4531250000,5,0.5656052232,,,
45.4687500000,5,0.8092957139,,,
45.4843750000,5,0.8085175157,,,
45.5000000000,5,0.7480010986,,,
45.5156250000,5,0.7646865845,,,
45.5312500000,5,0.8476256728,,,
45.5468750000,5,0.8887938857,,,
45.5625000000,5,0.7762299180,,,
45.5781250000,5,0.4666442871,,,
45.5937500000,5,0.0387344398,,,
45.6093750000,5,-0.3686828911,,,
45.6250000000,5,-0.6386414170,,,
45.6406250000,5,-0.7551345825,,,
45.6562500000,5,-0.7646790147,,,
45.6718750000,5,-0.7576904297,,,
45.6875000000,5,-0.7933350205,,,
45.7031250000,5,-0.8558350205,,,
45.7187500000,5,-0.8917847276,,,
45.7343750000,5,-0.7980117798,,,
45.7500000000,5,-0.5633850098,,,
45.7656250000,5,-0.1993408054,,,
45.7812500000,5,0.2080077976,,,
45.7968750000,5,0.5482254028,,,
45.8125000000,5,0.7451934814,,,
45.8281250000,5,0.7791901231,,,
45.8437500000,5,0.6812285781,,,
45.8593750000,5,0.5108261108,,,
45.8750000000,5,0.3160094917,,,
45.8906250000,5,0.0944900513,,,
45.9062500000,5,-0.1533813030,,,
45.9218750000,5,-0.4227294922,,,
45.9375000000,5,-0.6183701158,,,
45.9531250000,5,-0.6403275132,,,
45.9687500000,5,-0.3673096001,,,
45.9843750000,5,0.1970901042,,,
46.0000000000,5,0.9614868164,,,
46.0156250000,5,1.6929930449,,,
46.0312500000,5,2.1467819214,,,
46.0468750000,5,2.1482539177,,,
46.0625000000,5,1.6985470057,,,
46.0781250000,5,0.9373168945,,,
46.0937500000,5,0.0916442871,,,
46.1093750000,5,-0.6350020766,,,
46.1250000000,5,-1.1255869865,,,
46.1406250000,5,-1.3754119873,,,
46.1562500000,5,-1.4109729528,,,
46.1718750000,5,-1.2808150053,,,
46.1875000000,5,-1.0364229679,,,
46.2031250000,5,-0.7416077256,,,
46.2187500000,5,-0.5210266113,,,
46.2343750000,5,-0.5159149170,,,
46.2500000000,5,-0.7990645766,,,
46.2656250000,5,-1.3084789515,,,
46.2812500000,5,-1.8367999792,,,
46.2968750000,5,-2.1517939568,,,
46.3125000000,5,-2.0647809505,,,
46.3281250000,5,-1.5915830135,,,
46.3437500000,5,-0.9366301894,,,
46.3593750000,5,-0.3763962090,,,
46.3750000000,5,-0.1296309978,,,
46.3906250000,5,-0.2332382053,,,
46.4062500000,5,-0.5695037842,,,
46.4218750000,5,-0.9440535903,,,
46.4375000000,5,-1.2156139612,,,
46.4531250000,5,-1.3330229521,,,
46.4687500000,5,-1.3057019711,,,
46.4843750000,5,-1.1752400398,,,
46.5000000000,5,-0.8831328750,,,
46.5156250000,5,-0.3859558105,,,
46.5312500000,5,0.3620682061,,,
46.5468750000,5,1.2707439661,,,
46.5625000000,5,2.1746900082,,,
46.5781250000,5,2.8514630795,,,
46.5937500000,5,3.1343309879,,,
46.6093750000,5,2.9957349300,,,
46.6250000000,5,2.5543060303,,,
46.6406250000,5,2.0174329281,,,
46.6562500000,5,1.5771330595,,,
46.6718750000,5,1.3379820585,,,
46.6875000000,5,1.2759480476,,,
46.7031250000,5,1.3005290031,,,
46.7187500000,5,1.3107379675,,,
46.7343750000,5,1.2705990076,,,
46.7500000000,5,1.2214659452,,,
46.7656250000,5,1.2354810238,,,
46.7812500000,5,1.3889540434,,,
46.7968750000,5,1.6770859957,,,
46.8125000000,5,2.0532610416,,,
46.8281250000,5,2.4025340080,,,
46.8437500000,5,2.6275179386,,,
46.8593750000,5,2.6296539307,,,
46.8750000000,5,2.3619689941,,,
46.8906250000,5,1.8215479851,,,
46.9062500000,5,1.0519640446,,,
46.9218750000,5,0.1560211033,,,
46.9375000000,5,-0.7188950181,,,
46.9531250000,5,-1.3947139978,,,
46.9687500000,5,-1.7803499699,,,
46.9843750000,5,-1.9112240076,,,
47.0000000000,5,-1.9248199463,,,
47.0156250000,5,-2.0049669743,,,
47.0312500000,5,-2.2340769768,,,
47.0468750000,5,-2.5572049618,,,
47.0625000000,5,-2.7727890015,,,
47.0781250000,5,-2.7146840096,,,
47.0937500000,5,-2.3432159424,,,
47.1093750000,5,-1.8145829439,,,
47.1250000000,5,-1.3834379911,,,
47.1406250000,5,-1.2770390511,,,
47.1562500000,5,-1.5146789551,,,
47.1718750000,5,-1.9224929810,,,
47.1875000000,5,-2.2137598991,,,
47.2031250000,5,-2.1691510677,,,
47.2187500000,5,-1.7641530037,,,
47.2343750000,5,-1.1483839750,,,
47.2500000000,5,-0.5739135742,,,
47.2656250000,5,-0.1930160969,,,
47.2812500000,5,-0.0212097205,,,
47.2968750000,5,0.0881729126,,,
47.3125000000,5,0.3021926880,,,
47.3281250000,5,0.7114716172,,,
47.3437500000,5,1.2569049597,,,
47.3593750000,5,1.7417069674,,,
47.3750000000,5,1.9778749943,,,
47.3906250000,5,1.8642499447,,,
47.4062500000,5,1.4956970215,,,
47.4218750000,5,1.0480580330,,,
47.4375000000,5,0.7533568740,,,
47.4531250000,5,0.7311019897,,,
47.4687500000,5,0.9759597778,,,
47.4843750000,5,1.3753889799,,,
47.5000000000,5,1.7902829647,,,
47.5156250000,5,2.1281509399,,,
47.5312500000,5,2.3525540829,,,
47.5468750000,5,2.4349670410,,,
47.5625000000,5,2.3411870003,,,
47.5781250000,5,2.0222239494,,,
47.5937500000,5,1.4563139677,,,
47.6093750000,5,0.6916962266,,,
47.6250000000,5,-0.1506728977,,,
47.6406250000,5,-0.9349060059,,,
47.6562500000,5,-1.5456620455,,,
47.6718750000,5,-1.9595409632,,,
47.6875000000,5,-2.1810529232,,,
47.7031250000,5,-2.2152400017,,,
47.7187500000,5,-2.0466079712,,,
47.7343750000,5,-1.6543730497,,,
47.7500000000,5,-1.0772249699,,,
47.7656250000,5,-0.4000701904,,,
47.7812500000,5,0.2071074992,,,
47.7968750000,5,0.6120758057,,,
47.8125000000,5,0.7382506728,,,
47.8281250000,5,0.6530150771,,,
47.8437500000,5,0.4864197075,,,
47.8593750000,5,0.3717193902,,,
47.8750000000,5,0.3750000000,,,
47.8906250000,5,0.4680634141,,,
47.9062500000,5,0.5670546889,,,
47.9218750000,5,0.5522614121,,,
47.9375000000,5,0.3383559883,,,
47.9531250000,5,-0.0920257568,,,
47.9687500000,5,-0.6558074951,,,
47.9843750000,5,-1.2261890173,,,
48.0000000000,6,-1.6168060303,,,
48.0156250000,6,-1.6868360043,,,
48.0312500000,6,-1.3347699642,,,
48.0468750000,6,-0.5944290161,,,
48.0625000000,6,0.4051055908,,,
48.0781250000,6,1.4532619715,,,
48.0937500000,6,2.2995760441,,,
48.1093750000,6,2.7343220711,,,
48.1250000000,6,2.6384739876,,,
48.1406250000,6,2.0453948975,,,
48.1562500000,6,1.1666179895,,,
48.1718750000,6,0.2623749077,,,
48.1875000000,6,-0.4311065972,,,
48.2031250000,6,-0.8385314941,,,
48.2187500000,6,-1.0731580257,,,
48.2343750000,6,-1.3117140532,,,
48.2500000000,6,-1.6823810339,,,
48.2656250000,6,-2.1591720581,,,
48.2812500000,6,-2.5510098934,,,
48.2968750000,6,-2.6120378971,,,
48.3125000000,6,-2.2503659725,,,
48.3281250000,6,-1.5438230038,,,
48.3437500000,6,-0.7675629258,,,
48.3593750000,6,-0.2231750041,,,
48.3750000000,6,-0.0974121094,,,
48.3906250000,6,-0.3565216064,,,
48.4062500000,6,-0.8029099107,,,
48.4218750000,6,-1.1622159481,,,
48.4375000000,6,-1.2685929537,,,
48.4531250000,6,-1.1119159460,,,
48.4687500000,6,-0.8152542114,,,
48.4843750000,6,-0.5625305176,,,
48.5000000000,6,-0.4502562881,,,
48.5156250000,6,-0.4743728936,,,
48.5312500000,6,-0.5051956177,,,
48.5468750000,6,-0.4200438857,,,
48.5625000000,6,-0.1289519966,,,
48.5781250000,6,0.3462677002,,,
48.5937500000,6,0.8966979980,,,
48.6093750000,6,1.3733830452,,,
48.6250000000,6,1.6953430176,,,
48.6406250000,6,1.8419950008,,,
48.6562500000,6,1.8306579590,,,
48.6718750000,6,1.6640089750,,,
48.6875000000,6,1.3042759895,,,
48.7031250000,6,0.7388687134,,,
48.7187500000,6,0.0286026001,,,
48.7343750000,6,-0.6861953735,,,
48.7500000000,6,-1.1694639921,,,
48.7656250000,6,-1.2377010584,,,
48.7812500000,6,-0.8473510742,,,
48.7968750000,6,-0.0950622633,,,
48.8125000000,6,0.7721785903,,,
48.8281250000,6,1.4885330200,,,
48.8437500000,6,1.8588639498,,,
48.8593750000,6,1.8302689791,,,
48.8750000000,6,1.4825969934,,,
48.8906250000,6,0.9665833116,,,
48.9062500000,6,0.4050216973,,,
48.9218750000,6,-0.1192092970,,,
48.9375000000,6,-0.5949326158,,,
48.9531250000,6,-1.0208820105,,,
48.9687500000,6,-1.3576810360,,,
48.9843750000,6,-1.5532909632,,,
49.0000000000,6,-1.5425189734,,,
49.0156250000,6,-1.3163830042,,,
49.0312500000,6,-0.9377365112,,,
49.0468750000,6,-0.5391387939,,,
49.0625000000,6,-0.2510680854,,,
49.0781250000,6,-0.1511764973,,,
49.0937500000,6,-0.1691665947,,,
49.1093750000,6,-0.1758498996,,,
49.1250000000,6,-0.0068588261,,,
49.1406250000,6,0.3914566040,,,
49.1562500000,6,0.9611588120,,,
49.1718750000,6,1.5533369780,,,
49.1875000000,6,2.0093688965,,,
49.2031250000,6,2.2413709164,,,
49.2187500000,6,2.2258219719,,,
49.2343750000,6,1.9641950130,,,
49.2500000000,6,1.4688639641,,,
49.2656250000,6,0.7739716172,,,
49.2812500000,6,-0.0273132306,,,
49.2968750000,6,-0.7431716919,,,
49.3125000000,6,-1.1670000553,,,
49.3281250000,6,-1.1654050350,,,
49.3437500000,6,-0.7684860229,,,
49.3593750000,6,-0.1635742038,,,
49.3750000000,6,0.3827514946,,,
49.3906250000,6,0.6733704209,,,
49.4062500000,6,0.6586380005,,,
49.4218750000,6,0.4191437066,,,
49.4375000000,6,0.0871505663,,,
49.4531250000,6,-0.2384795994,,,
49.4687500000,6,-0.5570374131,,,
49.4843750000,6,-0.8839340210,,,
49.5000000000,6,-1.2291719913,,,
49.5156250000,6,-1.5444790125,,,
49.5312500000,6,-1.7529909611,,,
49.5468750000,6,-1.7891390324,,,
49.5625000000,6,-1.6290889978,,,
49.5781250000,6,-1.3027110100,,,
49.5937500000,6,-0.8442382813,,,
49.6093750000,6,-0.2915115058,,,
49.6250000000,6,0.3243865967,,,
49.6406250000,6,0.9349213243,,,
49.6562500000,6,1.4924089909,,,
49.6718750000,6,1.9122920036,,,
49.6875000000,6,2.1447598934,,,
49.7031250000,6,2.1797409058,,,
49.7187500000,6,2.0188899040,,,
49.7343750000,6,1.6808170080,,,
49.7500000000,6,1.1960829496,,,
49.7656250000,6,0.5968399048,,,
49.7812500000,6,-0.0860290527,,,
49.7968750000,6,-0.7979202271,,,
49.8125000000,6,-1.4790949821,,,
49.8281250000,6,-2.0295259953,,,
49.8437500000,6,-2.3519060612,,,
49.8593750000,6,-2.3670959473,,,
49.8750000000,6,-2.0760190487,,,
49.8906250000,6,-1.5430300236,,,
49.9062500000,6,-0.9408112168,,,
49.9218750000,6,-0.4506607056,,,
49.9375000000,6,-0.2328795940,,,
49.9531250000,6,-0.3030014038,,,
49.9687500000,6,-0.5702896118,,,
49.9843750000,6,-0.8541411757,,,
50.0000000000,6,-0.9734191895,,,
50.0156250000,6,-0.8464431763,,,
50.0312500000,6,-0.5423583984,,,
50.0468750000,6,-0.2005767971,,,
50.0625000000,6,0.0030746460,,,
50.0781250000,6,-0.0026550291,,,
50.0937500000,6,-0.1545486003,,,
50.1093750000,6,-0.3068619072,,,
50.1250000000,6,-0.2809830010,,,
50.1406250000,6,-0.0045394902,,,
50.1562500000,6,0.4953765869,,,
50.1718750000,6,1.0732729435,,,
50.1875000000,6,1.5982589722,,,
50.2031250000,6,1.9942779541,,,
50.2187500000,6,2.2869639397,,,
50.2343750000,6,2.5288310051,,,
50.2500000000,6,2.7320790291,,,
50.2656250000,6,2.8270258904,,,
50.2812500000,6,2.7096180916,,,
50.2968750000,6,2.3249049187,,,
50.3125000000,6,1.7158279419,,,
50.3281250000,6,1.0208439827,,,
50.3437500000,6,0.4011001885,,,
50.3593750000,6,-0.0319366492,,,
50.3750000000,6,-0.2744903862,,,
50.3906250000,6,-0.3790054023,,,
50.4062500000,6,-0.4056625068,,,
50.4218750000,6,-0.3385314941,,,
50.4375000000,6,-0.1822586060,,,
50.4531250000,6,0.0638732910,,,
50.4687500000,6,0.3322143853,,,
50.4843750000,6,0.5110549927,,,
50.5000000000,6,0.4964142144,,,
50.5156250000,6,0.2650527954,,,
50.5312500000,6,-0.1503296047,,,
50.5468750000,6,-0.6850203872,,,
50.5625000000,6,-1.3119200468,,,
50.5781250000,6,-2.0364611149,,,
50.5937500000,6,-2.8165049553,,,
50.6093750000,6,-3.5267720222,,,
50.6250000000,6,-3.9547960758,,,
50.6406250000,6,-3.9050829411,,,
50.6562500000,6,-3.3041529655,,,
50.6718750000,6,-2.2920989990,,,
50.6875000000,6,-1.1384810209,,,
50.7031250000,6,-0.1796493977,,,
50.7187500000,6,0.3904494941,,,
50.7343750000,6,0.5518112183,,,
50.7500000000,6,0.4432067871,,,
50.7656250000,6,0.2443923950,,,
50.7812500000,6,0.0973739624,,,
50.7968750000,6,0.0267562903,,,
50.8125000000,6,-0.0131378202,,,
50.8281250000,6,-0.0916671827,,,
50.8437500000,6,-0.2337875068,,,
50.8593750000,6,-0.3947449028,,,
50.8750000000,6,-0.4955520928,,,
50.8906250000,6,-0.4394913018,,,
50.9062500000,6,-0.1865386963,,,
50.9218750000,6,0.2778396904,,,
50.9375000000,6,0.8487319946,,,
50.9531250000,6,1.4143300056,,,
50.9687500000,6,1.8349299431,,,
50.9843750000,6,2.0293729305,,,
51.0000000000,6,1.9925080538,,,
51.0156250000,6,1.7857279778,,,
51.0312500000,6,1.4997630119,,,
51.0468750000,6,1.2188340425,,,
51.0625000000,6,0.9980927110,,,
51.0781250000,6,0.8499832153,,,
51.0937500000,6,0.7596663833,,,
51.1093750000,6,0.6990280151,,,
51.1250000000,6,0.6301727295,,,
51.1406250000,6,0.5460968018,,,
51.1562500000,6,0.4820022881,,,
51.1718750000,6,0.4943313897,,,
51.1875000000,6,0.6412888169,,,
51.2031250000,6,0.9092102051,,,
51.2187500000,6,1.2266540527,,,
51.2343750000,6,1.4626690149,,,
51.2500000000,6,1.5117720366,,,
51.2656250000,6,1.3020780087,,,
51.2812500000,6,0.8591156006,,,
51.2968750000,6,0.2726134956,,,
51.3125000000,6,-0.3494873047,,,
51.3281250000,6,-0.9212570190,,,
51.3437500000,6,-1.3748170137,,,
51.3593750000,6,-1.6715240479,,,
51.3750000000,6,-1.7759170532,,,
51.3906250000,6,-1.6607129574,,,
51.4062500000,6,-1.3342740536,,,
51.4218750000,6,-0.8340377808,,,
51.4375000000,6,-0.2617034912,,,
51.4531250000,6,0.2952271104,,,
51.4687500000,6,0.7283782959,,,
51.4843750000,6,0.9898911119,,,
51.5000000000,6,1.0376820564,,,
51.5156250000,6,0.8692932129,,,
51.5312500000,6,0.5255203247,,,
51.5468750000,6,0.0931243896,,,
51.5625000000,6,-0.2975615859,,,
51.5781250000,6,-0.5024337769,,,
51.5937500000,6,-0.4240416884,,,
51.6093750000,6,-0.0876312330,,,
51.6250000000,6,0.3676070869,,,
51.6406250000,6,0.7444915771,,,
51.6562500000,6,0.9037322998,,,
51.6718750000,6,0.8247069716,,,
51.6875000000,6,0.6284255981,,,
51.7031250000,6,0.4894104004,,,
51.7187500000,6,0.5640488267,,,
51.7343750000,6,0.8425598145,,,
51.7500000000,6,1.2217329741,,,
51.7656250000,6,1.5070190430,,,
51.7812500000,6,1.5565719604,,,
51.7968750000,6,1.3475270271,,,
51.8125000000,6,0.9628983140,,,
51.8281250000,6,0.5399857163,,,
51.8437500000,6,0.1718596965,,,
51.8593750000,6,-0.1203155965,,,
51.8750000000,6,-0.3993453979,,,
51.8906250000,6,-0.7636185288,,,
51.9062500000,6,-1.2521820068,,,
51.9218750000,6,-1.8111879826,,,
51.9375000000,6,-2.3024899960,,,
51.9531250000,6,-2.5401918888,,,
51.9687500000,6,-2.4254989624,,,
51.9843750000,6,-1.9385989904,,,
52.0000000000,6,-1.2377699614,,,
52.0156250000,6,-0.5353469849,,,
52.0312500000,6,-0.0365524292,,,
52.0468750000,6,0.1845093071,,,
52.0625000000,6,0.1677550972,,,
52.0781250000,6,0.0549240112,,,
52.0937500000,6,-0.0222930908,,,
52.1093750000,6,-0.0087356567,,,
52.1250000000,6,0.0662841797,,,
52.1406250000,6,0.1536026001,,,
52.1562500000,6,0.2423096001,,,
52.1718750000,6,0.3575286865,,,
52.1875000000,6,0.5589218140,,,
52.2031250000,6,0.8397521973,,,
52.2187500000,6,1.1398090124,,,
52.2343750000,6,1.3122249842,,,
52.2500000000,6,1.2481839657,,,
52.2656250000,6,0.8946151733,,,
52.2812500000,6,0.3353042901,,,
52.2968750000,6,-0.2522124946,,,
52.3125000000,6,-0.6845778823,,,
52.3281250000,6,-0.8563994765,,,
52.3437500000,6,-0.8027114868,,,
52.3593750000,6,-0.6556777954,,,
52.3750000000,6,-0.5644989014,,,
52.3906250000,6,-0.6302947998,,,
52.4062500000,6,-0.8426666260,,,
52.4218750000,6,-1.1059880257,,,
52.4375000000,6,-1.2831120491,,,
52.4531250000,6,-1.2622300386,,,
52.4687500000,6,-1.0137859583,,,
52.4843750000,6,-0.5720595717,,,
52.5000000000,6,-0.0392227210,,,
52.5156250000,6,0.4930801094,,,
52.5312500000,6,0.9312819839,,,
52.5468750000,6,1.2186199427,,,
52.5625000000,6,1.3277050257,,,
52.5781250000,6,1.2599560022,,,
52.5937500000,6,1.0214920044,,,
52.6093750000,6,0.6524658203,,,
52.6250000000,6,0.1814499050,,,
52.6406250000,6,-0.3537827134,,,
52.6562500000,6,-0.9102935791,,,
52.6718750000,6,-1.4145050049,,,
52.6875000000,6,-1.7842099667,,,
52.7031250000,6,-1.9547270536,,,
52.7187500000,6,-1.8898849487,,,
52.7343750000,6,-1.6244050264,,,
52.7500000000,6,-1.2263180017,,,
52.7656250000,6,-0.7833480835,,,
52.7812500000,6,-0.3519211113,,,
52.7968750000,6,0.0167999305,,,
52.8125000000,6,0.2836304009,,,
52.8281250000,6,0.3945769966,,,
52.8437500000,6,0.3313140869,,,
52.8593750000,6,0.1175765991,,,
52.8750000000,6,-0.1612930000,,,
52.8906250000,6,-0.4067229927,,,
52.9062500000,6,-0.5685576797,,,
52.9218750000,6,-0.6621857285,,,
52.9375000000,6,-0.7585067749,,,
52.9531250000,6,-0.8835753798,,,
52.9687500000,6,-1.0187610388,,,
52.9843750000,6,-1.0406949520,,,
53.0000000000,6,-0.8642653823,,,
53.0156250000,6,-0.4781264961,,,
53.0312500000,6,0.0072402949,,,
53.0468750000,6,0.4333724976,,,
53.0625000000,6,0.6494522095,,,
53.0781250000,6,0.6206740737,,,
53.0937500000,6,0.3848418891,,,
53.1093750000,6,0.0421676598,,,
53.1250000000,6,-0.3179016113,,,
53.1406250000,6,-0.6309738159,,,
53.1562500000,6,-0.8648986816,,,
53.1718750000,6,-0.9752730727,,,
53.1875000000,6,-0.9521027207,,,
53.2031250000,6,-0.8149948120,,,
53.2187500000,6,-0.6223145127,,,
53.2343750000,6,-0.4536057115,,,
53.2500000000,6,-0.3155288994,,,
53.2656250000,6,-0.1723632962,,,
53.2812500000,6,0.0798797607,,,
53.2968750000,6,0.5069121718,,,
53.3125000000,6,1.1057430506,,,
53.3281250000,6,1.7672350407,,,
53.3437500000,6,2.3470690250,,,
53.3593750000,6,2.7088010311,,,
53.3750000000,6,2.7851939201,,,
53.3906250000,6,2.5614469051,,,
53.4062500000,6,2.0814900398,,,
53.4218750000,6,1.3978120089,,,
53.4375000000,6,0.5908203125,,,
53.4531250000,6,-0.2348479927,,,
53.4687500000,6,-0.9347838759,,,
53.4843750000,6,-1.3487629890,,,
53.5000000000,6,-1.3632659912,,,
53.5156250000,6,-0.9750595093,,,
53.5312500000,6,-0.3040390015,,,
53.5468750000,6,0.4584045112,,,
53.5625000000,6,1.1062769890,,,
53.5781250000,6,1.5134509802,,,
53.5937500000,6,1.6642529964,,,
53.6093750000,6,1.6524660587,,,
53.6250000000,6,1.5935820341,,,
53.6406250000,6,1.5631179810,,,
53.6562500000,6,1.5898360014,,,
53.6718750000,6,1.6360780001,,,
53.6875000000,6,1.6712570190,,,
53.7031250000,6,1.6669620275,,,
53.7187500000,6,1.6277240515,,,
53.7343750000,6,1.5339659452,,,
53.7500000000,6,1.3978199959,,,
53.7656250000,6,1.2148669958,,,
53.7812500000,6,1.0103909969,,,
53.7968750000,6,0.8283997178,,,
53.8125000000,6,0.7334746718,,,
53.8281250000,6,0.7600861192,,,
53.8437500000,6,0.9291992188,,,
53.8593750000,6,1.2235870361,,,
53.8750000000,6,1.5939869881,,,
53.8906250000,6,1.9689409733,,,
53.9062500000,6,2.2581629753,,,
53.9218750000,6,2.3632049561,,,
53.9375000000,6,2.1890490055,,,
53.9531250000,6,1.6892399788,,,
53.9687500000,6,0.9226531982,,,
53.9843750000,6,0.0172729492,,,
54.0000000000,6,-0.8495255113,,,
54.0156250000,6,-1.5650939941,,,
54.0312500000,6,-2.0984570980,,,
54.0468750000,6,-2.4845349789,,,
54.0625000000,6,-2.7973330021,,,
54.0781250000,6,-3.0444259644,,,
54.0937500000,6,-3.1847081184,,,
54.1093750000,6,-3.1410980225,,,
54.1250000000,6,-2.8742980957,,,
54.1406250000,6,-2.4327239990,,,
54.1562500000,6,-1.9438019991,,,
54.1718750000,6,-1.5443340540,,,
54.1875000000,6,-1.3228989840,,,
54.2031250000,6,-1.2811199427,,,
54.2187500000,6,-1.3467710018,,,
54.2343750000,6,-1.4370039701,,,
54.2500000000,6,-1.5207819939,,,
54.2656250000,6,-1.6115649939,,,
54.2812500000,6,-1.7331160307,,,
54.2968750000,6,-1.8523249626,,,
54.3125000000,6,-1.8630520105,,,
54.3281250000,6,-1.6384429932,,,
54.3437500000,6,-1.0964510441,,,
54.3593750000,6,-0.2817916870,,,
54.3750000000,6,0.6151046753,,,
54.3906250000,6,1.3342510462,,,
54.4062500000,6,1.6670000553,,,
54.4218750000,6,1.5438770056,,,
54.4375000000,6,1.0852890015,,,
54.4531250000,6,0.5186234117,,,
54.4687500000,6,0.0688629225,,,
54.4843750000,6,-0.1504288018,,,
54.5000000000,6,-0.1686020046,,,
54.5156250000,6,-0.1115951985,,,
54.5312500000,6,-0.0679626465,,,
54.5468750000,6,-0.0143280001,,,
54.5625000000,6,0.1815796047,,,
54.5781250000,6,0.6632233262,,,
54.5937500000,6,1.4540250301,,,
54.6093750000,6,2.3866119385,,,
54.6250000000,6,3.1539919376,,,
54.6406250000,6,3.4697649479,,,
54.6562500000,6,3.2015759945,,,
54.6718750000,6,2.4497759342,,,
54.6875000000,6,1.4706569910,,,
54.7031250000,6,0.5442656875,,,
54.7187500000,6,-0.1676941067,,,
54.7343750000,6,-0.6223297119,,,
54.7500000000,6,-0.8959578872,,,
54.7656250000,6,-1.0544509888,,,
54.7812500000,6,-1.1401749849,,,
54.7968750000,6,-1.1340789795,,,
54.8125000000,6,-1.0064009428,,,
54.8281250000,6,-0.7539978027,,,
54.8437500000,6,-0.3948593140,,,
54.8593750000,6,0.0199279804,,,
54.8750000000,6,0.4239577949,,,
54.8906250000,6,0.7416687012,,,
54.9062500000,6,0.9156646729,,,
54.9218750000,6,0.9112396240,,,
54.9375000000,6,0.7454376221,,,
54.9531250000,6,0.4763183892,,,
54.9687500000,6,0.1532288045,,,
54.9843750000,6,-0.2346573025,,,
55.0000000000,6,-0.7214813232,,,
55.0156250000,6,-1.3458789587,,,
55.0312500000,6,-2.0618970394,,,
55.0468750000,6,-2.7106249332,,,
55.0625000000,6,-3.0903780460,,,
55.0781250000,6,-3.0481948853,,,
55.0937500000,6,-2.5990068913,,,
55.1093750000,6,-1.8759310246,,,
55.1250000000,6,-1.1132429838,,,
55.1406250000,6,-0.5030745864,,,
55.1562500000,6,-0.1362075955,,,
55.1718750000,6,-0.0021362300,,,
55.1875000000,6,-0.0294647198,,,
55.2031250000,6,-0.1362991035,,,
55.2187500000,6,-0.2608948052,,,
55.2343750000,6,-0.3547821045,,,
55.2500000000,6,-0.4092484117,,,
55.2656250000,6,-0.4319992065,,,
55.2812500000,6,-0.4418945014,,,
55.2968750000,6,-0.4617385864,,,
55.3125000000,6,-0.4916076958,,,
55.3281250000,6,-0.5094985962,,,
55.3437500000,6,-0.4501801133,,,
55.3593750000,6,-0.2674407959,,,
55.3750000000,6,0.0345458984,,,
55.3906250000,6,0.4169312119,,,
55.4062500000,6,0.8145064712,,,
55.4218750000,6,1.1917419434,,,
55.4375000000,6,1.5219269991,,,
55.4531250000,6,1.8216249943,,,
55.4687500000,6,2.1043169498,,,
55.4843750000,6,2.3349149227,,,
55.5000000000,6,2.4670031071,,,
55.5156250000,6,2.4257280827,,,
55.5312500000,6,2.1631319523,,,
55.5468750000,6,1.6673359871,,,
55.5625000000,6,1.0100630522,,,
55.5781250000,6,0.3369979858,,,
55.5937500000,6,-0.1641921997,,,
55.6093750000,6,-0.3587723076,,,
55.6250000000,6,-0.2325133979,,,
55.6406250000,6,0.0863037109,,,
55.6562500000,6,0.3834457099,,,
55.6718750000,6,0.4656600952,,,
55.6875000000,6,0.2386855930,,,
55.7031250000,6,-0.2351226956,,,
55.7187500000,6,-0.8048018813,,,
55.7343750000,6,-1.2868729830,,,
55.7500000000,6,-1.5866240263,,,
55.7656250000,6,-1.6995160580,,,
55.7812500000,6,-1.6848529577,,,
55.7968750000,6,-1.6296839714,,,
55.8125000000,6,-1.5906829834,,,
55.8281250000,6,-1.5929110050,,,
55.8437500000,6,-1.5971599817,,,
55.8593750000,6,-1.4998630285,,,
55.8750000000,6,-1.1984100342,,,
55.8906250000,6,-0.6212006211,,,
55.9062500000,6,0.2310637981,,,
55.9218750000,6,1.2301100492,,,
55.9375000000,6,2.1587910652,,,
55.9531250000,6,2.7620770931,,,
55.9687500000,6,2.8450160027,,,
55.9843750000,6,2.3637540340,,,
56.0000000000,7,1.4334950447,,,
56.0156250000,7,0.2862701118,,,
56.0312500000,7,-0.8039168715,,,
56.0468750000,7,-1.5987399817,,,
56.0625000000,7,-1.9575419426,,,
56.0781250000,7,-1.8579030037,,,
56.0937500000,7,-1.4084169865,,,
56.1093750000,7,-0.7971190810,,,
56.1250000000,7,-0.2525939941,,,
56.1406250000,7,0.0532760583,,,
56.1562500000,7,0.0457305908,,,
56.1718750000,7,-0.1774062961,,,
56.1875000000,7,-0.4411849976,,,
56.2031250000,7,-0.5393676758,,,
56.2187500000,7,-0.3799209893,,,
