Time:64Hz,Epoch,Channel 1,Event Id,Event Date,Event Duration
0.0000000000,0,-0.7191696167,,,
0.0156250000,0,-0.6649475098,,,
0.0312500000,0,-0.7440642715,,,
0.0468750000,0,-0.8813933730,,,
0.0625000000,0,-0.9590377808,,,
0.0781250000,0,-0.8902359009,,,
0.0937500000,0,-0.6497421265,,,
0.1093750000,0,-0.2661361992,,,
0.1250000000,0,0.1880263984,,,
0.1406250000,0,0.6596909165,,,
0.1562500000,0,1.1092070341,,,
0.1718750000,0,1.5095210075,,,
0.1875000000,0,1.8191989660,,,
0.2031250000,0,1.9627300501,,,
0.2187500000,0,1.8725130558,,,
0.2343750000,0,1.5077589750,,,
0.2500000000,0,0.9131011963,,,
0.2656250000,0,0.2312469035,,,
0.2812500000,0,-0.3328093886,,,
0.2968750000,0,-0.5768889785,,,
0.3125000000,0,-0.4098969102,,,
0.3281250000,0,0.1133423001,,,
0.3437500000,0,0.7863007188,,,
0.3593750000,0,1.3700410128,,,
0.3750000000,0,1.6901860237,,,
0.3906250000,0,1.7229390144,,,
0.4062500000,0,1.5672229528,,,
0.4218750000,0,1.3782960176,,,
0.4375000000,0,1.2617189884,,,
0.4531250000,0,1.2190929651,,,
0.4687500000,0,1.1818699837,,,
0.4843750000,0,1.0790020227,,,
0.5000000000,0,0.8922501206,,,
0.5156250000,0,0.6898499131,,,
0.5312500000,0,0.5830307007,,,
0.5468750000,0,0.6613541245,,,
0.5625000000,0,0.9648284912,,,
0.5781250000,0,1.4715880156,,,
0.5937500000,0,2.1277849674,,,
0.6093750000,0,2.8743131161,,,
0.6250000000,0,3.6638948917,,,
0.6406250000,0,4.4351811409,,,
0.6562500000,0,5.1160740852,,,
0.6718750000,0,5.6280360222,,,
0.6875000000,0,5.9205250740,,,
0.7031250000,0,6.0141139030,,,
0.7187500000,0,5.9940638542,,,
0.7343750000,0,5.9862589836,,,
0.7500000000,0,6.0890498161,,,
0.7656250000,0,6.3523411751,,,
0.7812500000,0,6.7778019905,,,
0.7968750000,0,7.3372502327,,,
0.8125000000,0,8.0037536621,,,
0.8281250000,0,8.7484283447,,,
0.8437500000,0,9.5328750610,,,
0.8593750000,0,10.3019304276,,,
0.8750000000,0,11.0105400085,,,
0.8906250000,0,11.6546602249,,,
0.9062500000,0,12.2708196640,,,
0.9218750000,0,12.9031496048,,,
0.9375000000,0,13.5611095428,,,
0.9531250000,0,14.1628904343,,,
0.9687500000,0,14.5682802200,,,
0.9843750000,0,14.6516799927,,,
1.0000000000,0,14.3858499527,,,
1.0156250000,0,13.8652400970,,,
1.0312500000,0,13.2040500641,,,
1.0468750000,0,12.4076499939,,,
1.0625000000,0,11.2885704041,,,
1.0781250000,0,9.4768295288,,,
1.0937500000,0,6.5580830574,,,
1.1093750000,0,2.2182850838,,,
1.1250000000,0,-3.5774989128,,,
1.1406250000,0,-10.5701799393,,,
1.1562500000,0,-18.1831092834,,,
1.1718750000,0,-25.6453208923,,,
1.1875000000,0,-32.1284599304,,,
1.2031250000,0,-36.9031906128,,,
1.2187500000,0,-39.5284118652,,,
1.2343750000,0,-39.9540901184,,,
1.2500000000,0,-38.4977989197,,,
1.2656250000,0,-35.7120704651,,,
1.2812500000,0,-32.1664695740,,,
1.2968750000,0,-28.2667007446,,,
1.3125000000,0,-24.2068996429,,,
1.3281250000,0,-20.0419197083,,,
1.3437500000,0,-15.8202104568,,,
1.3593750000,0,-11.6569404602,,,
1.3750000000,0,-7.6739730835,,,
1.3906250000,0,-3.9160079956,,,
1.4062500000,0,-0.2648009956,,,
1.4218750000,0,3.4566040039,,,
1.4375000000,0,7.3635182381,,,
1.4531250000,0,11.3729600906,,,
1.4687500000,0,15.1915998459,,,
1.4843750000,0,18.4331302643,,,
1.5000000000,0,20.7905807495,,,
1.5156250000,0,22.1300296783,,,
1.5312500000,0,22.4771709442,,,
1.5468750000,0,21.9033203125,,,
1.5625000000,0,20.4336299896,,,
1.5781250000,0,18.0841503143,,,
1.5937500000,0,14.9319801331,,,
1.6093750000,0,11.2087202072,,,
1.6250000000,0,7.2654881477,,,
1.6406250000,0,3.4256820679,,,
1.6562500000,0,-0.1584548950,,,
1.6718750000,0,-3.5633618832,,,
1.6875000000,0,-6.9708399773,,,
1.7031250000,0,-10.4862699509,,,
1.7187500000,0,-13.9454803467,,,
1.7343750000,0,-16.9738807678,,,
1.7500000000,0,-19.1126804352,,,
1.7656250000,0,-20.0801506042,,,
1.7812500000,0,-19.8899402618,,,
1.7968750000,0,-18.8166694641,,,
1.8125000000,0,-17.2440109253,,,
1.8281250000,0,-15.4750404358,,,
1.8437500000,0,-13.6759901047,,,
1.8593750000,0,-11.9098701477,,,
1.8750000000,0,-10.2467002869,,,
1.8906250000,0,-8.8251953125,,,
1.9062500000,0,-7.7886581421,,,
1.9218750000,0,-7.2004852295,,,
1.9375000000,0,-6.9719090462,,,
1.9531250000,0,-6.8626251221,,,
1.9687500000,0,-6.5888137817,,,
1.9843750000,0,-5.9525599480,,,
2.0000000000,0,-4.9304890633,,,
2.0156250000,0,-3.6901700497,,,
2.0312500000,0,-2.5026469231,,,
2.0468750000,0,-1.6234129667,,,
2.0625000000,0,-1.1755830050,,,
2.0781250000,0,-1.0754090548,,,
2.0937500000,0,-1.0517580509,,,
2.1093750000,0,-0.7701644897,,,
2.1250000000,0,0.0139236497,,,
2.1406250000,0,1.3460390568,,,
2.1562500000,0,3.0504379272,,,
2.1718750000,0,4.8326568604,,,
2.1875000000,0,6.4365921021,,,
2.2031250000,0,7.7439880371,,,
2.2187500000,0,8.7900009155,,,
2.2343750000,0,9.6591949463,,,
2.2500000000,0,10.3810997009,,,
2.2656250000,0,10.8925199509,,,
2.2812500000,0,11.0764703751,,,
2.2968750000,0,10.8769798279,,,
2.3125000000,0,10.3684101105,,,
2.3281250000,0,9.7238616943,,,
2.3437500000,0,9.1052932739,,,
2.3593750000,0,8.5915145874,,,
2.3750000000,0,8.1436386108,,,
2.3906250000,0,7.6642909050,,,
2.4062500000,0,7.0609660149,,,
2.4218750000,0,6.3138809204,,,
2.4375000000,0,5.4406738281,,,
2.4531250000,0,4.4960021973,,,
2.4687500000,0,3.5530469418,,,
2.4843750000,0,2.6969299316,,,
2.5000000000,0,2.0128018856,,,
2.5156250000,0,1.5500030518,,,
2.5312500000,0,1.2873610258,,,
2.5468750000,0,1.1257250309,,,
2.5625000000,0,0.9471054077,,,
2.5781250000,0,0.6644744873,,,
2.5937500000,0,0.2600936890,,,
2.6093750000,0,-0.2198410034,,,
2.6250000000,0,-0.7371901870,,,
2.6406250000,0,-1.3038940430,,,
2.6562500000,0,-1.9695429802,,,
2.6718750000,0,-2.7669749260,,,
2.6875000000,0,-3.6519169807,,,
2.7031250000,0,-4.4616241455,,,
2.7187500000,0,-4.9862670898,,,
2.7343750000,0,-5.0499949455,,,
2.7500000000,0,-4.6112370491,,,
2.7656250000,0,-3.7842099667,,,
2.7812500000,0,-2.7950439453,,,
2.7968750000,0,-1.8931349516,,,
2.8125000000,0,-1.2201839685,,,
2.8281250000,0,-0.8050308228,,,
2.8437500000,0,-0.5513306260,,,
2.8593750000,0,-0.3311004937,,,
2.8750000000,0,-0.0632324219,,,
2.8906250000,0,0.2614594102,,,
2.9062500000,0,0.5564498901,,,
2.9218750000,0,0.7229309082,,,
2.9375000000,0,0.7023010254,,,
2.9531250000,0,0.5159835815,,,
2.9687500000,0,0.2735291123,,,
2.9843750000,0,0.1180267036,,,
3.0000000000,0,0.1677933037,,,
3.0156250000,0,0.4588241875,,,
3.0312500000,0,0.9269943237,,,
3.0468750000,0,1.4161219597,,,
3.0625000000,0,1.7507549524,,,
3.0781250000,0,1.7952799797,,,
3.0937500000,0,1.5180970430,,,
3.1093750000,0,0.9930114746,,,
3.1250000000,0,0.3669128120,,,
3.1406250000,0,-0.2048569024,,,
3.1562500000,0,-0.6312561035,,,
3.1718750000,0,-0.9003067017,,,
3.1875000000,0,-1.0762480497,,,
3.2031250000,0,-1.2192000151,,,
3.2187500000,0,-1.3628619909,,,
3.2343750000,0,-1.4673310518,,,
3.2500000000,0,-1.4415589571,,,
3.2656250000,0,-1.1968690157,,,
3.2812500000,0,-0.6688079834,,,
3.2968750000,0,0.1196518019,,,
3.3125000000,0,1.0808260441,,,
3.3281250000,0,2.0414659977,,,
3.3437500000,0,2.8387598991,,,
3.3593750000,0,3.3280110359,,,
3.3750000000,0,3.4417951107,,,
3.3906250000,0,3.2092740536,,,
3.4062500000,0,2.7281339169,,,
3.4218750000,0,2.1280748844,,,
3.4375000000,0,1.5313110352,,,
3.4531250000,0,1.0240709782,,,
3.4687500000,0,0.6677094102,,,
3.4843750000,0,0.5002974868,,,
3.5000000000,0,0.5174254775,,,
3.5156250000,0,0.6846923828,,,
3.5312500000,0,0.9336547852,,,
3.5468750000,0,1.1853940487,,,
3.5625000000,0,1.3643569946,,,
3.5781250000,0,1.4031070471,,,
3.5937500000,0,1.2496490479,,,
3.6093750000,0,0.8579711914,,,
3.6250000000,0,0.2199707031,,,
3.6406250000,0,-0.6111373901,,,
3.6562500000,0,-1.4805599451,,,
3.6718750000,0,-2.1727290154,,,
3.6875000000,0,-2.4851150513,,,
3.7031250000,0,-2.3189470768,,,
3.7187500000,0,-1.7389140129,,,
3.7343750000,0,-0.9681472778,,,
3.7500000000,0,-0.2862854004,,,
3.7656250000,0,0.0858535767,,,
3.7812500000,0,0.0911865234,,,
3.7968750000,0,-0.1579589993,,,
3.8125000000,0,-0.4514235854,,,
3.8281250000,0,-0.6063613892,,,
3.8437500000,0,-0.5261154175,,,
3.8593750000,0,-0.2509537041,,,
3.8750000000,0,0.1010055989,,,
3.8906250000,0,0.3858642876,,,
3.9062500000,0,0.4926070869,,,
3.9218750000,0,0.3865203857,,,
3.9375000000,0,0.1127547994,,,
3.9531250000,0,-0.2384033054,,,
3.9687500000,0,-0.5628203750,,,
3.9843750000,0,-0.7897567749,,,
4.0000000000,0,-0.9024581909,,,
4.0156250000,0,-0.9577484131,,,
4.0312500000,0,-1.0297850370,,,
4.0468750000,0,-1.1861879826,,,
4.0625000000,0,-1.4360280037,,,
4.0781250000,0,-1.7118149996,,,
4.0937500000,0,-1.9037859440,,,
4.1093750000,0,-1.9054410458,,,
4.1250000000,0,-1.6751400232,,,
4.1406250000,0,-1.2886580229,,,
4.1562500000,0,-0.8904418945,,,
4.1718750000,0,-0.6430969238,,,
4.1875000000,0,-0.6370850205,,,
4.2031250000,0,-0.8609542847,,,
4.2187500000,0,-1.2071150541,,,
4.2343750000,0,-1.5428769588,,,
4.2500000000,0,-1.7740629911,,,
4.2656250000,0,-1.8980940580,,,
4.2812500000,0,-1.9743119478,,,
4.2968750000,0,-2.0783081055,,,
4.3125000000,0,-2.2183001041,,,
4.3281250000,0,-2.3283998966,,,
4.3437500000,0,-2.3023068905,,,
4.3593750000,0,-2.0810999870,,,
4.3750000000,0,-1.7076870203,,,
4.3906250000,0,-1.3216090202,,,
4.4062500000,0,-1.0979540348,,,
4.4218750000,0,-1.1413270235,,,
4.4375000000,0,-1.4314039946,,,
4.4531250000,0,-1.8371959925,,,
4.4687500000,0,-2.1756820679,,,
4.4843750000,0,-2.3054120541,,,
4.5000000000,0,-2.1873090267,,,
4.5156250000,0,-1.8900829554,,,
4.5312500000,0,-1.5459140539,,,
4.5468750000,0,-1.2725219727,,,
4.5625000000,0,-1.1070330143,,,
4.5781250000,0,-1.0003130436,,,
4.5937500000,0,-0.8683547974,,,
4.6093750000,0,-0.6543732285,,,
4.6250000000,0,-0.3824005127,,,
4.6406250000,0,-0.1438751072,,,
4.6562500000,0,-0.0502319299,,,
4.6718750000,0,-0.1500549018,,,
4.6875000000,0,-0.3933640122,,,
4.7031250000,0,-0.6546936035,,,
4.7187500000,0,-0.8120499253,,,
4.7343750000,0,-0.8278198242,,,
4.7500000000,0,-0.7554473877,,,
4.7656250000,0,-0.6966782212,,,
4.7812500000,0,-0.6785736084,,,
4.7968750000,0,-0.6378632188,,,
4.8125000000,0,-0.4461441040,,,
4.8281250000,0,-0.0195388794,,,
4.8437500000,0,0.6027755737,,,
4.8593750000,0,1.2463610172,,,
4.8750000000,0,1.7120900154,,,
4.8906250000,0,1.8967670202,,,
4.9062500000,0,1.8589320183,,,
4.9218750000,0,1.7663569450,,,
4.9375000000,0,1.7811889648,,,
4.9531250000,0,1.9593509436,,,
4.9687500000,0,2.2221219540,,,
4.9843750000,0,2.4327850342,,,
5.0000000000,0,2.4877929688,,,
5.0156250000,0,2.3842539787,,,
5.0312500000,0,2.2151260376,,,
5.0468750000,0,2.0987930298,,,
5.0625000000,0,2.1115260124,,,
5.0781250000,0,2.2149660587,,,
5.0937500000,0,2.3117220402,,,
5.1093750000,0,2.2951970100,,,
5.1250000000,0,2.1277010441,,,
5.1406250000,0,1.8528590202,,,
5.1562500000,0,1.5541989803,,,
5.1718750000,0,1.2979739904,,,
5.1875000000,0,1.0919189453,,,
5.2031250000,0,0.8902512193,,,
5.2187500000,0,0.6326370239,,,
5.2343750000,0,0.3050613105,,,
5.2500000000,0,-0.0337066688,,,
5.2656250000,0,-0.2858504951,,,
5.2812500000,0,-0.3482742012,,,
5.2968750000,0,-0.1860198975,,,
5.3125000000,0,0.1707306057,,,
5.3281250000,0,0.6252440810,,,
5.3437500000,0,1.0979080200,,,
5.3593750000,0,1.5326310396,,,
5.3750000000,0,1.9161609411,,,
5.3906250000,0,2.2423930168,,,
5.4062500000,0,2.4988560677,,,
5.4218750000,0,2.6887888908,,,
5.4375000000,0,2.8251650333,,,
5.4531250000,0,2.9502940178,,,
5.4687500000,0,3.1185069084,,,
5.4843750000,0,3.3584139347,,,
5.5000000000,0,3.6562581062,,,
5.5156250000,0,3.9523539543,,,
5.5312500000,0,4.1881408691,,,
5.5468750000,0,4.3345341682,,,
5.5625000000,0,4.4355850220,,,
5.5781250000,0,4.5689239502,,,
5.5937500000,0,4.8119812012,,,
5.6093750000,0,5.1738891602,,,
5.6250000000,0,5.5851969719,,,
5.6406250000,0,5.9322590828,,,
5.6562500000,0,6.1162109375,,,
5.6718750000,0,6.1027221680,,,
5.6875000000,0,5.9428100586,,,
5.7031250000,0,5.7250819206,,,
5.7187500000,0,5.5045390129,,,
5.7343750000,0,5.2500610352,,,
5.7500000000,0,4.8615112305,,,
5.7656250000,0,4.2258148193,,,
5.7812500000,0,3.3002240658,,,
5.7968750000,0,2.1605451107,,,
5.8125000000,0,0.9739760756,,,
5.8281250000,0,-0.0731201172,,,
5.8437500000,0,-0.8455352783,,,
5.8593750000,0,-1.2907869816,,,
5.8750000000,0,-1.4121320248,,,
5.8906250000,0,-1.2383730412,,,
5.9062500000,0,-0.7932509780,,,
5.9218750000,0,-0.1037598029,,,
5.9375000000,0,0.7433624268,,,
5.9531250000,0,1.5905840397,,,
5.9687500000,0,2.2474141121,,,
5.9843750000,0,2.5600130558,,,
6.0000000000,0,2.4968409538,,,
6.0156250000,0,2.1370010376,,,
6.0312500000,0,1.6355739832,,,
6.0468750000,0,1.1227040291,,,
6.0625000000,0,0.6537476182,,,
6.0781250000,0,0.2020034939,,,
6.0937500000,0,-0.2865143120,,,
6.1093750000,0,-0.8299407959,,,
6.1250000000,0,-1.3882679939,,,
6.1406250000,0,-1.8778990507,,,
6.1562500000,0,-2.2192080021,,,
6.1718750000,0,-2.3887100220,,,
6.1875000000,0,-2.4245069027,,,
6.2031250000,0,-2.4033970833,,,
6.2187500000,0,-2.3882679939,,,
6.2343750000,0,-2.4069900513,,,
6.2500000000,0,-2.4297180176,,,
6.2656250000,0,-2.4150009155,,,
6.2812500000,0,-2.3358149529,,,
6.2968750000,0,-2.1921920776,,,
6.3125000000,0,-2.0042650700,,,
6.3281250000,0,-1.7935489416,,,
6.3437500000,0,-1.5750960112,,,
6.3593750000,0,-1.3433760405,,,
6.3750000000,0,-1.1030429602,,,
6.3906250000,0,-0.8819885254,,,
6.4062500000,0,-0.7435073853,,,
6.4218750000,0,-0.7557448745,,,
6.4375000000,0,-0.9623641968,,,
6.4531250000,0,-1.3524019718,,,
6.4687500000,0,-1.8461760283,,,
6.4843750000,0,-2.3361589909,,,
6.5000000000,0,-2.7208249569,,,
6.5156250000,0,-2.9560849667,,,
6.5312500000,0,-3.0733489990,,,
6.5468750000,0,-3.1624679565,,,
6.5625000000,0,-3.3290479183,,,
6.5781250000,0,-3.6557390690,,,
6.5937500000,0,-4.1508870125,,,
6.6093750000,0,-4.7620930672,,,
6.6250000000,0,-5.3890080452,,,
6.6406250000,0,-5.9167628288,,,
6.6562500000,0,-6.2548680305,,,
6.6718750000,0,-6.3614959717,,,
6.6875000000,0,-6.2539901733,,,
6.7031250000,0,-5.9699401855,,,
6.7187500000,0,-5.5627670288,,,
6.7343750000,0,-5.0886149406,,,
6.7500000000,0,-4.6242980957,,,
6.7656250000,0,-4.2726359367,,,
6.7812500000,0,-4.1390991211,,,
6.7968750000,0,-4.2927398682,,,
6.8125000000,0,-4.6852722168,,,
6.8281250000,0,-5.1691279411,,,
6.8437500000,0,-5.5412521362,,,
6.8593750000,0,-5.6358032227,,,
6.8750000000,0,-5.3851847649,,,
6.8906250000,0,-4.8584818840,,,
6.9062500000,0,-4.1908869743,,,
6.9218750000,0,-3.5335240364,,,
6.9375000000,0,-2.9972000122,,,
6.9531250000,0,-2.6358869076,,,
6.9687500000,0,-2.4424970150,,,
6.9843750000,0,-2.3699190617,,,
7.0000000000,0,-2.3491210938,,,
7.0156250000,0,-2.2690200806,,,
7.0312500000,0,-2.0381469727,,,
7.0468750000,0,-1.5923540592,,,
7.0625000000,0,-0.9727706909,,,
7.0781250000,0,-0.3196564019,,,
7.0937500000,0,0.1848144978,,,
7.1093750000,0,0.3931274116,,,
7.1250000000,0,0.2921752930,,,
7.1406250000,0,0.0151748704,,,
7.1562500000,0,-0.1847534031,,,
7.1718750000,0,-0.0627288818,,,
7.1875000000,0,0.5234146118,,,
7.2031250000,0,1.5597380400,,,
7.2187500000,0,2.8889009953,,,
7.2343750000,0,4.2516169548,,,
7.2500000000,0,5.3878860474,,,
7.2656250000,0,6.1177668571,,,
7.2812500000,0,6.3889541626,,,
7.2968750000,0,6.2744059563,,,
7.3125000000,0,5.9159698486,,,
7.3281250000,0,5.4814758301,,,
7.3437500000,0,5.0823750496,,,
7.3593750000,0,4.7599639893,,,
7.3750000000,0,4.5064768791,,,
7.3906250000,0,4.2889628410,,,
7.4062500000,0,4.0728230476,,,
7.4218750000,0,3.8491740227,,,
7.4375000000,0,3.6232450008,,,
7.4531250000,0,3.4053649902,,,
7.4687500000,0,3.2289888859,,,
7.4843750000,0,3.1110229492,,,
7.5000000000,0,3.0449750423,,,
7.5156250000,0,3.0016400814,,,
7.5312500000,0,2.9216690063,,,
7.5468750000,0,2.7485580444,,,
7.5625000000,0,2.4661099911,,,
7.5781250000,0,2.1278150082,,,
7.5937500000,0,1.8239820004,,,
7.6093750000,0,1.6517790556,,,
7.6250000000,0,1.6372070313,,,
7.6406250000,0,1.7101750374,,,
7.6562500000,0,1.7639080286,,,
7.6718750000,0,1.7182159424,,,
7.6875000000,0,1.5782619715,,,
7.7031250000,0,1.4349520206,,,
7.7187500000,0,1.4082410336,,,
7.7343750000,0,1.5341800451,,,
7.7500000000,0,1.7467420101,,,
7.7656250000,0,1.9038699865,,,
7.7812500000,0,1.8908690214,,,
7.7968750000,0,1.7078700066,,,
7.8125000000,0,1.4569549561,,,
7.8281250000,0,1.2735519409,,,
7.8437500000,0,1.2300720215,,,
7.8593750000,0,1.2980040312,,,
7.8750000000,0,1.3717420101,,,
7.8906250000,0,1.3681030273,,,
7.9062500000,0,1.2599790096,,,
7.9218750000,0,1.0734859705,,,
7.9375000000,0,0.8445662856,,,
7.9531250000,0,0.5540161133,,,
7.9687500000,0,0.1703186035,,,
7.9843750000,0,-0.3330383003,,,
8.0000000000,1,-0.8863754272,,,
8.0156250000,1,-1.3531490564,,,
8.0312500000,1,-1.5785059929,,,
8.0468750000,1,-1.4726639986,,,
8.0625000000,1,-1.0561599731,,,
8.0781250000,1,-0.4437943101,,,
8.0937500000,1,0.1956177056,,,
8.1093750000,1,0.7325897217,,,
8.1250000000,1,1.0799479485,,,
8.1406250000,1,1.2072219849,,,
8.1562500000,1,1.1243519783,,,
8.1718750000,1,0.8849105835,,,
8.1875000000,1,0.5751342773,,,
8.2031250000,1,0.2900924981,,,
8.2187500000,1,0.1141128987,,,
8.2343750000,1,0.0952377319,,,
8.2500000000,1,0.2406616062,,,
8.2656250000,1,0.5260772705,,,
8.2812500000,1,0.8937836289,,,
8.2968750000,1,1.2824709415,,,
8.3125000000,1,1.6317900419,,,
8.3281250000,1,1.8958129883,,,
8.3437500000,1,2.0506899357,,,
8.3593750000,1,2.1207349300,,,
8.3750000000,1,2.1687619686,,,
8.3906250000,1,2.2486569881,,,
8.4062500000,1,2.3829500675,,,
8.4218750000,1,2.5535809994,,,
8.4375000000,1,2.7202379704,,,
8.4531250000,1,2.8509368896,,,
8.4687500000,1,2.9558260441,,,
8.4843750000,1,3.0680849552,,,
8.5000000000,1,3.2324368954,,,
8.5156250000,1,3.4694600105,,,
8.5312500000,1,3.7629010677,,,
8.5468750000,1,4.0942988396,,,
8.5625000000,1,4.4327239990,,,
8.5781250000,1,4.7607421875,,,
8.5937500000,1,5.0480880737,,,
8.6093750000,1,5.2568359375,,,
8.6250000000,1,5.3503341675,,,
8.6406250000,1,5.3225021362,,,
8.6562500000,1,5.2228240967,,,
8.6718750000,1,5.1399841309,,,
8.6875000000,1,5.1826710701,,,
8.7031250000,1,5.3558769226,,,
8.7187500000,1,5.5515332222,,,
8.7343750000,1,5.5362658501,,,
8.7500000000,1,5.0798420906,,,
8.7656250000,1,4.0966191292,,,
8.7812500000,1,2.7232971191,,,
8.7968750000,1,1.2903560400,,,
8.8125000000,1,0.1218300015,,,
8.8281250000,1,-0.6417617798,,,
8.8437500000,1,-1.1706279516,,,
8.8593750000,1,-1.8417019844,,,
8.8750000000,1,-2.9812200069,,,
8.8906250000,1,-4.6482658386,,,
8.9062500000,1,-6.5836110115,,,
8.9218750000,1,-8.4041671753,,,
8.9375000000,1,-9.8916549683,,,
8.9531250000,1,-11.1441297531,,,
8.9687500000,1,-12.4519901276,,,
8.9843750000,1,-14.0169095993,,,
9.0000000000,1,-15.7449998856,,,
9.0156250000,1,-17.2761306763,,,
9.0312500000,1,-18.2641296387,,,
9.0468750000,1,-18.6546096802,,,
9.0625000000,1,-18.7510108948,,,
9.0781250000,1,-18.9792404175,,,
9.0937500000,1,-19.5467796326,,,
9.1093750000,1,-20.2596302032,,,
9.1250000000,1,-20.6878700256,,,
9.1406250000,1,-20.4540805817,,,
9.1562500000,1,-19.5570602417,,,
9.1718750000,1,-18.3903808594,,,
9.1875000000,1,-17.4490699768,,,
9.2031250000,1,-17.0347309113,,,
9.2187500000,1,-17.0556697845,,,
9.2343750000,1,-17.1058692932,,,
9.2500000000,1,-16.6726093292,,,
9.2656250000,1,-15.3540296555,,,
9.2812500000,1,-13.0140399933,,,
9.2968750000,1,-9.8319854736,,,
9.3125000000,1,-6.3126978874,,,
9.3281250000,1,-3.1927189827,,,
9.3437500000,1,-1.2627029419,,,
9.3593750000,1,-1.0522769690,,,
9.3750000000,1,-2.5887908936,,,
9.3906250000,1,-5.3338928223,,,
9.4062500000,1,-8.3970489502,,,
9.4218750000,1,-10.9334697723,,,
9.4375000000,1,-12.5108203888,,,
9.4531250000,1,-13.2147197723,,,
9.4687500000,1,-13.4112195969,,,
9.4843750000,1,-13.3979301453,,,
9.5000000000,1,-13.1545200348,,,
9.5156250000,1,-12.3648796082,,,
9.5312500000,1,-10.6962699890,,,
9.5468750000,1,-8.0896606445,,,
9.5625000000,1,-4.8388438225,,,
9.5781250000,1,-1.4648209810,,,
9.5937500000,1,1.5679630041,,,
9.6093750000,1,4.0537409782,,,
9.6250000000,1,6.0328369141,,,
9.6406250000,1,7.7202382088,,,
9.6562500000,1,9.2953948975,,,
9.6718750000,1,10.8090400696,,,
9.6875000000,1,12.2220497131,,,
9.7031250000,1,13.4892301559,,,
9.7187500000,1,14.6379899979,,,
9.7343750000,1,15.7616395950,,,
9.7500000000,1,16.9275703430,,,
9.7656250000,1,18.0761604309,,,
9.7812500000,1,19.0065898895,,,
9.7968750000,1,19.4529895782,,,
9.8125000000,1,19.2363395691,,,
9.8281250000,1,18.3601493835,,,
9.8437500000,1,17.0097198486,,,
9.8593750000,1,15.4560804367,,,
9.8750000000,1,13.9211797714,,,
9.8906250000,1,12.5068101883,,,
9.9062500000,1,11.1816196442,,,
9.9218750000,1,9.8824615479,,,
9.9375000000,1,8.6023483276,,,
9.9531250000,1,7.4257202148,,,
9.9687500000,1,6.4628601074,,,
9.9843750000,1,5.7846832275,,,
10.0000000000,1,5.3496088982,,,
10.0156250000,1,5.0190730095,,,
10.0312500000,1,4.6520771980,,,
10.0468750000,1,4.1780548096,,,
10.0625000000,1,3.6543729305,,,
10.0781250000,1,3.1939470768,,,
10.0937500000,1,2.9015729427,,,
10.1093750000,1,2.7853319645,,,
10.1250000000,1,2.7551350594,,,
10.1406250000,1,2.6892619133,,,
10.1562500000,1,2.4917221069,,,
10.1718750000,1,2.1514739990,,,
10.1875000000,1,1.7511290312,,,
10.2031250000,1,1.4091030359,,,
10.2187500000,1,1.2093429565,,,
10.2343750000,1,1.1724469662,,,
10.2500000000,1,1.2550890446,,,
10.2656250000,1,1.3746490479,,,
10.2812500000,1,1.4596560001,,,
10.2968750000,1,1.4476929903,,,
10.3125000000,1,1.3124239445,,,
10.3281250000,1,1.0211490393,,,
10.3437500000,1,0.5568389893,,,
10.3593750000,1,-0.0589599609,,,
10.3750000000,1,-0.7469100952,,,
10.3906250000,1,-1.3639140129,,,
10.4062500000,1,-1.7506259680,,,
10.4218750000,1,-1.8183670044,,,
10.4375000000,1,-1.6124190092,,,
10.4531250000,1,-1.2884600163,,,
10.4687500000,1,-1.0546649694,,,
10.4843750000,1,-1.0784909725,,,
10.5000000000,1,-1.4189000130,,,
10.5156250000,1,-2.0318601131,,,
10.5312500000,1,-2.7931520939,,,
10.5468750000,1,-3.5739140511,,,
10.5625000000,1,-4.2494349480,,,
10.5781250000,1,-4.7396469116,,,
10.5937500000,1,-5.0050349236,,,
10.6093750000,1,-5.0609822273,,,
10.6250000000,1,-4.9659581184,,,
10.6406250000,1,-4.8061070442,,,
10.6562500000,1,-4.7015910149,,,
10.6718750000,1,-4.7633209229,,,
10.6875000000,1,-5.0694580078,,,
10.7031250000,1,-5.6477198601,,,
10.7187500000,1,-6.4435200691,,,
10.7343750000,1,-7.3248438835,,,
10.7500000000,1,-8.1060714722,,,
10.7656250000,1,-8.5970535278,,,
10.7812500000,1,-8.6546936035,,,
10.7968750000,1,-8.2445297241,,,
10.8125000000,1,-7.4181208611,,,
10.8281250000,1,-6.3084950447,,,
10.8437500000,1,-5.0479512215,,,
10.8593750000,1,-3.7371060848,,,
10.8750000000,1,-2.4330899715,,,
10.8906250000,1,-1.1516419649,,,
10.9062500000,1,0.1569824070,,,
10.9218750000,1,1.6121059656,,,
10.9375000000,1,3.3751530647,,,
10.9531250000,1,5.6064610481,,,
10.9687500000,1,8.4054412842,,,
10.9843750000,1,11.7460002899,,,
11.0000000000,1,15.4682302475,,,
11.0156250000,1,19.3211193085,,,
11.0312500000,1,23.0280208588,,,
11.0468750000,1,26.2960796356,,,
11.0625000000,1,28.8148193359,,,
11.0781250000,1,30.2593803406,,,
11.0937500000,1,30.3198509216,,,
11.1093750000,1,28.7749500275,,,
11.1250000000,1,25.6115703583,,,
11.1406250000,1,21.1010704041,,,
11.1562500000,1,15.7629995346,,,
11.1718750000,1,10.2710599899,,,
11.1875000000,1,5.2957000732,,,
11.2031250000,1,1.3427430391,,,
11.2187500000,1,-1.3218230009,,,
11.2343750000,1,-2.7197110653,,,
11.2500000000,1,-3.0856781006,,,
11.2656250000,1,-2.7687990665,,,
11.2812500000,1,-2.1216580868,,,
11.2968750000,1,-1.4106600285,,,
11.3125000000,1,-0.7821503282,,,
11.3281250000,1,-0.2926177979,,,
11.3437500000,1,0.0517120399,,,
11.3593750000,1,0.2446822971,,,
11.3750000000,1,0.2671051025,,,
11.3906250000,1,0.0896377563,,,
11.4062500000,1,-0.2997055054,,,
11.4218750000,1,-0.8760300279,,,
11.4375000000,1,-1.5890120268,,,
11.4531250000,1,-2.3639829159,,,
11.4687500000,1,-3.1028289795,,,
11.4843750000,1,-3.7150800228,,,
11.5000000000,1,-4.1291117668,,,
11.5156250000,1,-4.3259348869,,,
11.5312500000,1,-4.3635711670,,,
11.5468750000,1,-4.3401951790,,,
11.5625000000,1,-4.3561630249,,,
11.5781250000,1,-4.4413528442,,,
11.5937500000,1,-4.5401687622,,,
11.6093750000,1,-4.5567860603,,,
11.6250000000,1,-4.4318242073,,,
11.6406250000,1,-4.1914439201,,,
11.6562500000,1,-3.9467389584,,,
11.6718750000,1,-3.8449480534,,,
11.6875000000,1,-3.9686739445,,,
11.7031250000,1,-4.2865829468,,,
11.7187500000,1,-4.6576309204,,,
11.7343750000,1,-4.9196319580,,,
11.7500000000,1,-4.9732360840,,,
11.7656250000,1,-4.8267669678,,,
11.7812500000,1,-4.5807881355,,,
11.7968750000,1,-4.3478012085,,,
11.8125000000,1,-4.1782841682,,,
11.8281250000,1,-4.0518112183,,,
11.8437500000,1,-3.8760070801,,,
11.8593750000,1,-3.5817029476,,,
11.8750000000,1,-3.1564249992,,,
11.8906250000,1,-2.6772379875,,,
11.9062500000,1,-2.2551651001,,,
11.9218750000,1,-1.9786759615,,,
11.9375000000,1,-1.8663179874,,,
11.9531250000,1,-1.8553539515,,,
11.9687500000,1,-1.8218610287,,,
11.9843750000,1,-1.6373599768,,,
12.0000000000,1,-1.2250820398,,,
12.0156250000,1,-0.5692214966,,,
12.0312500000,1,0.2545928955,,,
12.0468750000,1,1.1273729801,,,
12.0625000000,1,1.9036029577,,,
12.0781250000,1,2.4820709229,,,
12.0937500000,1,2.8171770573,,,
12.1093750000,1,2.9364399910,,,
12.1250000000,1,2.9183199406,,,
12.1406250000,1,2.8313059807,,,
12.1562500000,1,2.7185750008,,,
12.1718750000,1,2.5700609684,,,
12.1875000000,1,2.3521189690,,,
12.2031250000,1,2.0512158871,,,
12.2187500000,1,1.6956180334,,,
12.2343750000,1,1.3680880070,,,
12.2500000000,1,1.1467440128,,,
12.2656250000,1,1.0659099817,,,
12.2812500000,1,1.0720440149,,,
12.2968750000,1,1.0495220423,,,
12.3125000000,1,0.8716887832,,,
12.3281250000,1,0.4560241997,,,
12.3437500000,1,-0.1714553982,,,
12.3593750000,1,-0.8982315063,,,
12.3750000000,1,-1.5674819946,,,
12.3906250000,1,-2.0602040291,,,
12.4062500000,1,-2.3354868889,,,
12.4218750000,1,-2.4326629639,,,
12.4375000000,1,-2.4329218864,,,
12.4531250000,1,-2.3973009586,,,
12.4687500000,1,-2.3540799618,,,
12.4843750000,1,-2.2938840389,,,
12.5000000000,1,-2.1961979866,,,
12.5156250000,1,-2.0538558960,,,
12.5312500000,1,-1.8814929724,,,
12.5468750000,1,-1.7091059685,,,
12.5625000000,1,-1.5668029785,,,
12.5781250000,1,-1.4631650448,,,
12.5937500000,1,-1.3946989775,,,
12.6093750000,1,-1.3325959444,,,
12.6250000000,1,-1.2286909819,,,
12.6406250000,1,-1.0478819609,,,
12.6562500000,1,-0.7712326050,,,
12.6718750000,1,-0.4135817885,,,
12.6875000000,1,-0.0272140503,,,
12.7031250000,1,0.3046494126,,,
12.7187500000,1,0.4955214858,,,
12.7343750000,1,0.4829787910,,,
12.7500000000,1,0.2326201946,,,
12.7656250000,1,-0.2485428005,,,
12.7812500000,1,-0.8929290771,,,
12.7968750000,1,-1.5793080330,,,
12.8125000000,1,-2.1464920044,,,
12.8281250000,1,-2.4459080696,,,
12.8437500000,1,-2.3894650936,,,
12.8593750000,1,-2.0039288998,,,
12.8750000000,1,-1.4035420418,,,
12.8906250000,1,-0.7445297241,,,
12.9062500000,1,-0.1631927043,,,
12.9218750000,1,0.2609939873,,,
12.9375000000,1,0.5079650879,,,
12.9531250000,1,0.6053696275,,,
12.9687500000,1,0.6079406738,,,
12.9843750000,1,0.5756072998,,,
13.0000000000,1,0.5773848891,,,
13.0156250000,1,0.6616669297,,,
13.0312500000,1,0.8415297866,,,
13.0468750000,1,1.0609439611,,,
13.0625000000,1,1.2271039486,,,
13.0781250000,1,1.2461930513,,,
13.0937500000,1,1.0721360445,,,
13.1093750000,1,0.7300872803,,,
13.1250000000,1,0.3205566108,,,
13.1406250000,1,-0.0375595093,,,
13.1562500000,1,-0.2311325073,,,
13.1718750000,1,-0.2039337009,,,
13.1875000000,1,0.0537185706,,,
13.2031250000,1,0.4892272949,,,
13.2187500000,1,1.0078580379,,,
13.2343750000,1,1.4928669930,,,
13.2500000000,1,1.8277130127,,,
13.2656250000,1,1.9212039709,,,
13.2812500000,1,1.7411350012,,,
13.2968750000,1,1.3208919764,,,
13.3125000000,1,0.7377471924,,,
13.3281250000,1,0.1040802002,,,
13.3437500000,1,-0.4627608955,,,
13.3593750000,1,-0.8606644273,,,
13.3750000000,1,-1.0301899910,,,
13.3906250000,1,-0.9703140259,,,
13.4062500000,1,-0.7403259277,,,
13.4218750000,1,-0.4449158013,,,
13.4375000000,1,-0.2070540935,,,
13.4531250000,1,-0.1125793010,,,
13.4687500000,1,-0.1597899944,,,
13.4843750000,1,-0.2859955132,,,
13.5000000000,1,-0.3860091865,,,
13.5156250000,1,-0.3864516914,,,
13.5312500000,1,-0.2707520127,,,
13.5468750000,1,-0.0906906128,,,
13.5625000000,1,0.0813445970,,,
13.5781250000,1,0.1819076985,,,
13.5937500000,1,0.1940917969,,,
13.6093750000,1,0.1430283040,,,
13.6250000000,1,0.0730361864,,,
13.6406250000,1,0.0337753296,,,
13.6562500000,1,0.0604476891,,,
13.6718750000,1,0.1704254001,,,
13.6875000000,1,0.3566895127,,,
13.7031250000,1,0.5952606201,,,
13.7187500000,1,0.8517913818,,,
13.7343750000,1,1.0828859806,,,
13.7500000000,1,1.2422260046,,,
13.7656250000,1,1.2903670073,,,
13.7812500000,1,1.1954040527,,,
13.7968750000,1,0.9458237290,,,
13.8125000000,1,0.5611342788,,,
13.8281250000,1,0.0955200195,,,
13.8437500000,1,-0.3819426894,,,
13.8593750000,1,-0.8058013916,,,
13.8750000000,1,-1.1389689445,,,
13.8906250000,1,-1.3818589449,,,
13.9062500000,1,-1.5636830330,,,
13.9218750000,1,-1.6989209652,,,
13.9375000000,1,-1.7836300135,,,
13.9531250000,1,-1.8036270142,,,
13.9687500000,1,-1.7567670345,,,
13.9843750000,1,-1.6877900362,,,
14.0000000000,1,-1.6342619658,,,
14.0156250000,1,-1.6261140108,,,
14.0312500000,1,-1.6216659546,,,
14.0468750000,1,-1.5274579525,,,
14.0625000000,1,-1.2393879890,,,
14.0781250000,1,-0.7345427871,,,
14.0937500000,1,-0.0905227736,,,
14.1093750000,1,0.5313643813,,,
14.1250000000,1,0.9554367065,,,
14.1406250000,1,1.0873260498,,,
14.1562500000,1,0.9253922105,,,
14.1718750000,1,0.5841217041,,,
14.1875000000,1,0.2040787041,,,
14.2031250000,1,-0.0782241821,,,
14.2187500000,1,-0.1749038994,,,
14.2343750000,1,-0.0389633216,,,
14.2500000000,1,0.3218842149,,,
14.2656250000,1,0.8489227295,,,
14.2812500000,1,1.4439009428,,,
14.2968750000,1,1.9788509607,,,
14.3125000000,1,2.3440859318,,,
14.3281250000,1,2.4682769775,,,
14.3437500000,1,2.3470311165,,,
14.3593750000,1,2.0471189022,,,
14.3750000000,1,1.6588900089,,,
14.3906250000,1,1.2708740234,,,
14.4062500000,1,0.9181290269,,,
14.4218750000,1,0.6047363281,,,
14.4375000000,1,0.2913284004,,,
14.4531250000,1,-0.0472412109,,,
14.4687500000,1,-0.4003295898,,,
14.4843750000,1,-0.7308272719,,,
14.5000000000,1,-0.9374390244,,,
14.5156250000,1,-0.9383621216,,,
14.5312500000,1,-0.6998519897,,,
14.5468750000,1,-0.2791672051,,,
14.5625000000,1,0.2001571953,,,
14.5781250000,1,0.5786437988,,,
14.5937500000,1,0.7625275254,,,
14.6093750000,1,0.7620009780,,,
14.6250000000,1,0.6676558852,,,
14.6406250000,1,0.5712584853,,,
14.6562500000,1,0.4880752861,,,
14.6718750000,1,0.3494186103,,,
14.6875000000,1,0.0552139282,,,
14.7031250000,1,-0.4274215996,,,
14.7187500000,1,-1.0267260075,,,
14.7343750000,1,-1.5720980167,,,
14.7500000000,1,-1.8755650520,,,
14.7656250000,1,-1.8533860445,,,
14.7812500000,1,-1.5589070320,,,
14.7968750000,1,-1.1445389986,,,
14.8125000000,1,-0.7686843872,,,
14.8281250000,1,-0.5008773804,,,
14.8437500000,1,-0.3163299859,,,
14.8593750000,1,-0.1531753987,,,
14.8750000000,1,0.0199966393,,,
14.8906250000,1,0.1706847996,,,
14.9062500000,1,0.2271652073,,,
14.9218750000,1,0.1652985066,,,
14.9375000000,1,0.0309066791,,,
14.9531250000,1,-0.0748214722,,,
14.9687500000,1,-0.0587768592,,,
14.9843750000,1,0.0821075365,,,
15.0000000000,1,0.2887038887,,,
15.0156250000,1,0.4801101983,,,
15.0312500000,1,0.6090012193,,,
15.0468750000,1,0.7010040283,,,
15.0625000000,1,0.8198012710,,,
15.0781250000,1,1.0028380156,,,
15.0937500000,1,1.2132339478,,,
15.1093750000,1,1.3662489653,,,
15.1250000000,1,1.3791580200,,,
15.1406250000,1,1.2322310209,,,
15.1562500000,1,0.9912186265,,,
15.1718750000,1,0.7423325181,,,
15.1875000000,1,0.5584412217,,,
15.2031250000,1,0.4365004897,,,
15.2187500000,1,0.3342818916,,,
15.2343750000,1,0.2020415962,,,
15.2500000000,1,0.0313034095,,,
15.2656250000,1,-0.1522675008,,,
15.2812500000,1,-0.3072052002,,,
15.2968750000,1,-0.3942413032,,,
15.3125000000,1,-0.4252929986,,,
15.3281250000,1,-0.4182052910,,,
15.3437500000,1,-0.4045485854,,,
15.3593750000,1,-0.4071807861,,,
15.3750000000,1,-0.4305877984,,,
15.3906250000,1,-0.4523163140,,,
15.4062500000,1,-0.4624786079,,,
15.4218750000,1,-0.4722290039,,,
15.4375000000,1,-0.5306472778,,,
15.4531250000,1,-0.6978530884,,,
15.4687500000,1,-0.9785842896,,,
15.4843750000,1,-1.3146820068,,,
15.5000000000,1,-1.5919040442,,,
15.5156250000,1,-1.6833879948,,,
15.5312500000,1,-1.5545730591,,,
15.5468750000,1,-1.2686610222,,,
15.5625000000,1,-0.9724196792,,,
15.5781250000,1,-0.7656555176,,,
15.5937500000,1,-0.6570891738,,,
15.6093750000,1,-0.5422133803,,,
15.6250000000,1,-0.2914505005,,,
15.6406250000,1,0.1204224005,,,
15.6562500000,1,0.5950623155,,,
15.6718750000,1,0.9359818101,,,
15.6875000000,1,1.0130460262,,,
15.7031250000,1,0.8207244873,,,
15.7187500000,1,0.5042725205,,,
15.7343750000,1,0.2412949055,,,
15.7500000000,1,0.1463470012,,,
15.7656250000,1,0.2121506035,,,
15.7812500000,1,0.3287124932,,,
15.7968750000,1,0.3838653862,,,
15.8125000000,1,0.3111801147,,,
15.8281250000,1,0.1422194988,,,
15.8437500000,1,-0.0359878503,,,
15.8593750000,1,-0.1173477024,,,
15.8750000000,1,-0.0477600098,,,
15.8906250000,1,0.1750717014,,,
15.9062500000,1,0.4778900146,,,
15.9218750000,1,0.7618408203,,,
15.9375000000,1,0.9369735718,,,
15.9531250000,1,0.9504241943,,,
15.9687500000,1,0.8278121948,,,
15.9843750000,1,0.6476135254,,,
16.0000000000,2,0.4713745117,,,
16.0156250000,2,0.3226929009,,,
16.0312500000,2,0.1592940986,,,
16.0468750000,2,-0.0648651123,,,
16.0625000000,2,-0.3600234985,,,
16.0781250000,2,-0.6518096924,,,
16.0937500000,2,-0.8219985962,,,
16.1093750000,2,-0.7966461182,,,
16.1250000000,2,-0.5718917847,,,
16.1406250000,2,-0.2395019978,,,
16.1562500000,2,0.1042938009,,,
16.1718750000,2,0.3754577935,,,
16.1875000000,2,0.5608978271,,,
16.2031250000,2,0.6677703857,,,
16.2187500000,2,0.7071074843,,,
16.2343750000,2,0.6541594863,,,
16.2500000000,2,0.4950256050,,,
16.2656250000,2,0.2356643975,,,
16.2812500000,2,-0.0788803101,,,
16.2968750000,2,-0.3831177056,,,
16.3125000000,2,-0.6366652846,,,
16.3281250000,2,-0.8254699707,,,
16.3437500000,2,-0.9637222290,,,
16.3593750000,2,-1.0505679846,,,
16.3750000000,2,-1.0673600435,,,
16.3906250000,2,-0.9931563735,,,
16.4062500000,2,-0.8442153931,,,
16.4218750000,2,-0.6803969741,,,
16.4375000000,2,-0.5681229234,,,
16.4531250000,2,-0.5499495864,,,
16.4687500000,2,-0.6072921753,,,
16.4843750000,2,-0.6543120742,,,
16.5000000000,2,-0.6146088243,,,
16.5156250000,2,-0.4576720893,,,
16.5312500000,2,-0.2303009033,,,
16.5468750000,2,-0.0427398682,,,
16.5625000000,2,-0.0163116492,,,
16.5781250000,2,-0.2164306939,,,
16.5937500000,2,-0.6043701172,,,
16.6093750000,2,-1.0423200130,,,
16.6250000000,2,-1.3213499784,,,
16.6406250000,2,-1.2487950325,,,
16.6562500000,2,-0.7325134277,,,
16.6718750000,2,0.1454468071,,,
16.6875000000,2,1.1532139778,,,
16.7031250000,2,1.9749530554,,,
16.7187500000,2,2.3666689396,,,
16.7343750000,2,2.2580111027,,,
16.7500000000,2,1.7647019625,,,
16.7656250000,2,1.1360089779,,,
16.7812500000,2,0.6079329848,,,
16.7968750000,2,0.3142166138,,,
16.8125000000,2,0.2363892049,,,
16.8281250000,2,0.2656936944,,,
16.8437500000,2,0.2771377861,,,
16.8593750000,2,0.2072906047,,,
16.8750000000,2,0.0530853309,,,
16.8906250000,2,-0.1459656060,,,
16.9062500000,2,-0.3206557930,,,
16.9218750000,2,-0.4286879897,,,
16.9375000000,2,-0.4381560981,,,
16.9531250000,2,-0.3384017944,,,
16.9687500000,2,-0.1595382988,,,
16.9843750000,2,0.0695953369,,,
17.0000000000,2,0.2954635918,,,
17.0156250000,2,0.4746094048,,,
17.0312500000,2,0.5659102798,,,
17.0468750000,2,0.5406569839,,,
17.0625000000,2,0.3716048896,,,
17.0781250000,2,0.0640106201,,,
17.0937500000,2,-0.3428421021,,,
17.1093750000,2,-0.7817841172,,,
17.1250000000,2,-1.1615749598,,,
17.1406250000,2,-1.4154280424,,,
17.1562500000,2,-1.4987490177,,,
17.1718750000,2,-1.4136049747,,,
17.1875000000,2,-1.2002329826,,,
17.2031250000,2,-0.9243927002,,,
17.2187500000,2,-0.6606597900,,,
17.2343750000,2,-0.4653624892,,,
17.2500000000,2,-0.3781127930,,,
17.2656250000,2,-0.3854218125,,,
17.2812500000,2,-0.4361191094,,,
17.2968750000,2,-0.4430617988,,,
17.3125000000,2,-0.3355712891,,,
17.3281250000,2,-0.0999984667,,,
17.3437500000,2,0.1790466011,,,
17.3593750000,2,0.3750075996,,,
17.3750000000,2,0.3725661933,,,
17.3906250000,2,0.1412277073,,,
17.4062500000,2,-0.2183838040,,,
17.4218750000,2,-0.5526962280,,,
17.4375000000,2,-0.7136536241,,,
17.4531250000,2,-0.6272429824,,,
17.4687500000,2,-0.3356781006,,,
17.4843750000,2,0.0726013184,,,
17.5000000000,2,0.4831542969,,,
17.5156250000,2,0.8230895996,,,
17.5312500000,2,1.0507739782,,,
17.5468750000,2,1.1699370146,,,
17.5625000000,2,1.1820069551,,,
17.5781250000,2,1.1073989868,,,
17.5937500000,2,0.9926834106,,,
17.6093750000,2,0.8951721191,,,
17.6250000000,2,0.8814926147,,,
17.6406250000,2,0.9690322876,,,
17.6562500000,2,1.1268620491,,,
17.6718750000,2,1.2753909826,,,
17.6875000000,2,1.3164370060,,,
17.7031250000,2,1.1978299618,,,
17.7187500000,2,0.9359359741,,,
17.7343750000,2,0.6057816148,,,
17.7500000000,2,0.3059692085,,,
17.7656250000,2,0.1108170003,,,
17.7812500000,2,0.0334243812,,,
17.7968750000,2,0.0575866699,,,
17.8125000000,2,0.1527252048,,,
17.8281250000,2,0.2997741997,,,
17.8437500000,2,0.4919052124,,,
17.8593750000,2,0.7285842896,,,
17.8750000000,2,0.9729918838,,,
17.8906250000,2,1.1623079777,,,
17.9062500000,2,1.2245559692,,,
17.9218750000,2,1.0943529606,,,
17.9375000000,2,0.7604293823,,,
17.9531250000,2,0.2890472114,,,
17.9687500000,2,-0.2065200955,,,
17.9843750000,2,-0.5923004150,,,
18.0000000000,2,-0.7642745972,,,
18.0156250000,2,-0.7061005235,,,
18.0312500000,2,-0.4862137139,,,
18.0468750000,2,-0.2077942044,,,
18.0625000000,2,0.0194778405,,,
18.0781250000,2,0.1451416016,,,
18.0937500000,2,0.1626891941,,,
18.1093750000,2,0.0936508179,,,
18.1250000000,2,-0.0444412194,,,
18.1406250000,2,-0.2427521050,,,
18.1562500000,2,-0.4951781929,,,
18.1718750000,2,-0.7633820176,,,
18.1875000000,2,-0.9735947251,,,
18.2031250000,2,-1.0554430485,,,
18.2187500000,2,-0.9823455811,,,
18.2343750000,2,-0.8054276109,,,
18.2500000000,2,-0.6363602281,,,
18.2656250000,2,-0.5945891738,,,
18.2812500000,2,-0.7347031236,,,
18.2968750000,2,-1.0038069487,,,
18.3125000000,2,-1.2652209997,,,
18.3281250000,2,-1.3781199455,,,
18.3437500000,2,-1.2612990141,,,
18.3593750000,2,-0.9310988784,,,
18.3750000000,2,-0.4792937934,,,
18.3906250000,2,0.0120315598,,,
18.4062500000,2,0.4966430962,,,
18.4218750000,2,0.9626845717,,,
18.4375000000,2,1.3806149960,,,
18.4531250000,2,1.6872789860,,,
18.4687500000,2,1.7838820219,,,
18.4843750000,2,1.5892180204,,,
18.5000000000,2,1.1342849731,,,
18.5156250000,2,0.5667952895,,,
18.5312500000,2,0.0821075365,,,
18.5468750000,2,-0.1621322930,,,
18.5625000000,2,-0.1455765069,,,
18.5781250000,2,0.0348968506,,,
18.5937500000,2,0.2351150960,,,
18.6093750000,2,0.3537215889,,,
18.6250000000,2,0.3736877143,,,
18.6406250000,2,0.3362349868,,,
18.6562500000,2,0.2946853936,,,
18.6718750000,2,0.2586287856,,,
18.6875000000,2,0.2118835002,,,
18.7031250000,2,0.1314391941,,,
18.7187500000,2,0.0018997190,,,
18.7343750000,2,-0.1765289009,,,
18.7500000000,2,-0.3964614868,,,
18.7656250000,2,-0.6638718247,,,
18.7812500000,2,-0.9813919067,,,
18.7968750000,2,-1.3204799891,,,
18.8125000000,2,-1.6157380342,,,
18.8281250000,2,-1.7920229435,,,
18.8437500000,2,-1.7860870361,,,
18.8593750000,2,-1.5844119787,,,
18.8750000000,2,-1.2356109619,,,
18.8906250000,2,-0.8035507202,,,
18.9062500000,2,-0.3590621948,,,
18.9218750000,2,0.0517044105,,,
18.9375000000,2,0.4094161987,,,
18.9531250000,2,0.7027664185,,,
18.9687500000,2,0.9304962158,,,
18.9843750000,2,1.0798870325,,,
19.0000000000,2,1.1378099918,,,
19.0156250000,2,1.1249389648,,,
19.0312500000,2,1.0686800480,,,
19.0468750000,2,1.0170899630,,,
19.0625000000,2,1.0066070557,,,
19.0781250000,2,1.0216829777,,,
19.0937500000,2,1.0241320133,,,
19.1093750000,2,0.9732894897,,,
19.1250000000,2,0.8570938110,,,
19.1406250000,2,0.7092667222,,,
19.1562500000,2,0.5690689087,,,
19.1718750000,2,0.4417113960,,,
19.1875000000,2,0.2827911079,,,
19.2031250000,2,0.0231018104,,,
19.2187500000,2,-0.3646850884,,,
19.2343750000,2,-0.8201218247,,,
19.2500000000,2,-1.2181320190,,,
19.2656250000,2,-1.4246670008,,,
19.2812500000,2,-1.3932269812,,,
19.2968750000,2,-1.1712039709,,,
19.3125000000,2,-0.8665770888,,,
19.3281250000,2,-0.5733566284,,,
19.3437500000,2,-0.3322066963,,,
19.3593750000,2,-0.1440429986,,,
19.3750000000,2,-0.0202636700,,,
19.3906250000,2,0.0071411128,,,
19.4062500000,2,-0.0946960375,,,
19.4218750000,2,-0.3174895942,,,
19.4375000000,2,-0.5836563110,,,
19.4531250000,2,-0.7759628296,,,
19.4687500000,2,-0.8045883179,,,
19.4843750000,2,-0.6516342163,,,
19.5000000000,2,-0.4031218886,,,
19.5156250000,2,-0.1834335029,,,
19.5312500000,2,-0.0833129883,,,
19.5468750000,2,-0.1032027975,,,
19.5625000000,2,-0.1499405056,,,
19.5781250000,2,-0.1115569994,,,
19.5937500000,2,0.0829925537,,,
19.6093750000,2,0.3962250054,,,
19.6250000000,2,0.7227249146,,,
19.6406250000,2,0.9456024170,,,
19.6562500000,2,1.0032960176,,,
19.6718750000,2,0.9306793213,,,
19.6875000000,2,0.8205795288,,,
19.7031250000,2,0.7664108276,,,
19.7187500000,2,0.7902907729,,,
19.7343750000,2,0.8468552232,,,
19.7500000000,2,0.8593596816,,,
19.7656250000,2,0.7766265869,,,
19.7812500000,2,0.6199799180,,,
19.7968750000,2,0.4606170952,,,
19.8125000000,2,0.3594130874,,,
19.8281250000,2,0.3172684014,,,
19.8437500000,2,0.2795104980,,,
19.8593750000,2,0.1876143962,,,
19.8750000000,2,0.0205688495,,,
19.8906250000,2,-0.1671143025,,,
19.9062500000,2,-0.2788695991,,,
19.9218750000,2,-0.2515411079,,,
19.9375000000,2,-0.1019591987,,,
19.9531250000,2,0.0776214600,,,
19.9687500000,2,0.1717987061,,,
19.9843750000,2,0.1255646050,,,
20.0000000000,2,-0.0396194495,,,
20.0156250000,2,-0.2555770874,,,
20.0312500000,2,-0.4506377876,,,
20.0468750000,2,-0.6077957153,,,
20.0625000000,2,-0.7402266860,,,
20.0781250000,2,-0.8561325073,,,
20.0937500000,2,-0.9201354980,,,
20.1093750000,2,-0.8719254136,,,
20.1250000000,2,-0.6634293199,,,
20.1406250000,2,-0.3223724067,,,
20.1562500000,2,0.0361938514,,,
20.1718750000,2,0.2716217041,,,
20.1875000000,2,0.2801437080,,,
20.2031250000,2,0.0768966675,,,
20.2187500000,2,-0.2237243950,,,
20.2343750000,2,-0.4744186103,,,
20.2500000000,2,-0.5612564087,,,
20.2656250000,2,-0.4656372070,,,
20.2812500000,2,-0.2476043999,,,
20.2968750000,2,-0.0074920650,,,
20.3125000000,2,0.1731719971,,,
20.3281250000,2,0.2558440864,,,
20.3437500000,2,0.2484131008,,,
20.3593750000,2,0.1911163032,,,
20.3750000000,2,0.1219787970,,,
20.3906250000,2,0.0591659509,,,
20.4062500000,2,0.0138397198,,,
20.4218750000,2,-0.0145568801,,,
20.4375000000,2,-0.0163574200,,,
20.4531250000,2,0.0202712994,,,
20.4687500000,2,0.0941543579,,,
20.4843750000,2,0.1851806939,,,
20.5000000000,2,0.2376708984,,,
20.5156250000,2,0.1884002984,,,
20.5312500000,2,0.0003280640,,,
20.5468750000,2,-0.3075562119,,,
20.5625000000,2,-0.6459351182,,,
20.5781250000,2,-0.8896254897,,,
20.5937500000,2,-0.9225463867,,,
20.6093750000,2,-0.7148590088,,,
20.6250000000,2,-0.3326340020,,,
20.6406250000,2,0.0897369385,,,
20.6562500000,2,0.4196242988,,,
20.6718750000,2,0.6031113267,,,
20.6875000000,2,0.6842650771,,,
20.7031250000,2,0.7695159912,,,
20.7187500000,2,0.9512023926,,,
20.7343750000,2,1.2489089966,,,
20.7500000000,2,1.5800249577,,,
20.7656250000,2,1.8250349760,,,
20.7812500000,2,1.8820339441,,,
20.7968750000,2,1.7260819674,,,
20.8125000000,2,1.4142839909,,,
20.8281250000,2,1.0280690193,,,
20.8437500000,2,0.6381835938,,,
20.8593750000,2,0.2635039985,,,
20.8750000000,2,-0.1076050028,,,
20.8906250000,2,-0.4926528931,,,
20.9062500000,2,-0.8608245850,,,
20.9218750000,2,-1.1544489861,,,
20.9375000000,2,-1.3143229485,,,
20.9531250000,2,-1.3274459839,,,
20.9687500000,2,-1.2331700325,,,
20.9843750000,2,-1.0909270048,,,
21.0000000000,2,-0.9426879883,,,
21.0156250000,2,-0.7933350205,,,
21.0312500000,2,-0.6173095703,,,
21.0468750000,2,-0.4016875923,,,
21.0625000000,2,-0.1781844944,,,
21.0781250000,2,-0.0411834717,,,
21.0937500000,2,-0.0745620728,,,
21.1093750000,2,-0.3118667901,,,
21.1250000000,2,-0.6761779785,,,
21.1406250000,2,-1.0109859705,,,
21.1562500000,2,-1.1442949772,,,
21.1718750000,2,-0.9881287217,,,
21.1875000000,2,-0.5801696777,,,
21.2031250000,2,-0.0655975267,,,
21.2187500000,2,0.3630447090,,,
21.2343750000,2,0.5854492188,,,
21.2500000000,2,0.5689849854,,,
21.2656250000,2,0.3961791992,,,
21.2812500000,2,0.1918563992,,,
21.2968750000,2,0.0670776367,,,
21.3125000000,2,0.0893859863,,,
21.3281250000,2,0.2434768975,,,
21.3437500000,2,0.4752807915,,,
21.3593750000,2,0.6891403198,,,
21.3750000000,2,0.7874526978,,,
21.3906250000,2,0.6974486709,,,
21.4062500000,2,0.4175415039,,,
21.4218750000,2,0.0092620850,,,
21.4375000000,2,-0.4110640883,,,
21.4531250000,2,-0.7225189209,,,
21.4687500000,2,-0.8615952134,,,
21.4843750000,2,-0.8395004272,,,
21.5000000000,2,-0.7094954848,,,
21.5156250000,2,-0.5328063965,,,
21.5312500000,2,-0.3507156074,,,
21.5468750000,2,-0.1880722046,,,
21.5625000000,2,-0.0676345825,,,
21.5781250000,2,-0.0274429303,,,
21.5937500000,2,-0.0894699097,,,
21.6093750000,2,-0.2488097996,,,
21.6250000000,2,-0.4438782036,,,
21.6406250000,2,-0.5933532715,,,
21.6562500000,2,-0.6289368272,,,
21.6718750000,2,-0.5346832275,,,
21.6875000000,2,-0.3375397027,,,
21.7031250000,2,-0.0798797607,,,
21.7187500000,2,0.2180404961,,,
21.7343750000,2,0.5607376099,,,
21.7500000000,2,0.9278488159,,,
21.7656250000,2,1.2553789616,,,
21.7812500000,2,1.4348369837,,,
21.7968750000,2,1.3770600557,,,
21.8125000000,2,1.0804820061,,,
21.8281250000,2,0.6313400269,,,
21.8437500000,2,0.1803665012,,,
21.8593750000,2,-0.1595840007,,,
21.8750000000,2,-0.3716660142,,,
21.8906250000,2,-0.5344467163,,,
21.9062500000,2,-0.7382659912,,,
21.9218750000,2,-1.0172879696,,,
21.9375000000,2,-1.3269269466,,,
21.9531250000,2,-1.5668109655,,,
21.9687500000,2,-1.6391979456,,,
21.9843750000,2,-1.5151599646,,,
22.0000000000,2,-1.2080760002,,,
22.0156250000,2,-0.7596970201,,,
22.0312500000,2,-0.2139969021,,,
22.0468750000,2,0.3829041123,,,
22.0625000000,2,0.9598770142,,,
22.0781250000,2,1.4180450439,,,
22.0937500000,2,1.6606370211,,,
22.1093750000,2,1.6362379789,,,
22.1250000000,2,1.3765490055,,,
22.1406250000,2,0.9833449721,,,
22.1562500000,2,0.5731353760,,,
22.1718750000,2,0.2368697971,,,
22.1875000000,2,0.0025558469,,,
22.2031250000,2,-0.1440429986,,,
22.2187500000,2,-0.2388076931,,,
22.2343750000,2,-0.2950362861,,,
22.2500000000,2,-0.3085021973,,,
22.2656250000,2,-0.2830733955,,,
22.2812500000,2,-0.2460175008,,,
22.2968750000,2,-0.2496262044,,,
22.3125000000,2,-0.3570862114,,,
22.3281250000,2,-0.6092758179,,,
22.3437500000,2,-0.9882888794,,,
22.3593750000,2,-1.4095690250,,,
22.3750000000,2,-1.7279280424,,,
22.3906250000,2,-1.8066250086,,,
22.4062500000,2,-1.5730129480,,,
22.4218750000,2,-1.0674970150,,,
22.4375000000,2,-0.4351272881,,,
22.4531250000,2,0.1312026978,,,
22.4687500000,2,0.4813232124,,,
22.4843750000,2,0.5651702881,,,
22.5000000000,2,0.4559937119,,,
22.5156250000,2,0.2860412896,,,
22.5312500000,2,0.1598282009,,,
22.5468750000,2,0.1102524027,,,
22.5625000000,2,0.1020508036,,,
22.5781250000,2,0.0904007033,,,
22.5937500000,2,0.0901947021,,,
22.6093750000,2,0.1805343926,,,
22.6250000000,2,0.4469070137,,,
22.6406250000,2,0.8972702026,,,
22.6562500000,2,1.4339829683,,,
22.6718750000,2,1.8680880070,,,
22.6875000000,2,2.0244829655,,,
22.7031250000,2,1.8377380371,,,
22.7187500000,2,1.3807829618,,,
22.7343750000,2,0.8127974868,,,
22.7500000000,2,0.3139572144,,,
22.7656250000,2,-0.0231246892,,,
22.7812500000,2,-0.1923141032,,,
22.7968750000,2,-0.2351607978,,,
22.8125000000,2,-0.1911849976,,,
22.8281250000,2,-0.0527420007,,,
22.8437500000,2,0.2038878947,,,
22.8593750000,2,0.5682526231,,,
22.8750000000,2,0.9674835205,,,
22.8906250000,2,1.2796399593,,,
22.9062500000,2,1.3778380156,,,
22.9218750000,2,1.2014770508,,,
22.9375000000,2,0.7773056030,,,
22.9531250000,2,0.2239685059,,,
22.9687500000,2,-0.3065338135,,,
22.9843750000,2,-0.6777802110,,,
23.0000000000,2,-0.8224257827,,,
23.0156250000,2,-0.7457885742,,,
23.0312500000,2,-0.5476226807,,,
23.0468750000,2,-0.3844985962,,,
23.0625000000,2,-0.3940581977,,,
23.0781250000,2,-0.6504364014,,,
23.0937500000,2,-1.1064909697,,,
23.1093750000,2,-1.6009830236,,,
23.1250000000,2,-1.9181369543,,,
23.1406250000,2,-1.8972400427,,,
23.1562500000,2,-1.4896390438,,,
23.1718750000,2,-0.8104323745,,,
23.1875000000,2,-0.0708770826,,,
23.2031250000,2,0.5173264146,,,
23.2187500000,2,0.8449249268,,,
23.2343750000,2,0.9373779297,,,
23.2500000000,2,0.9003676772,,,
23.2656250000,2,0.8597183228,,,
23.2812500000,2,0.8598784804,,,
23.2968750000,2,0.8802642822,,,
23.3125000000,2,0.8600234985,,,
23.3281250000,2,0.7779006958,,,
23.3437500000,2,0.6752625108,,,
23.3593750000,2,0.6415405273,,,
23.3750000000,2,0.7425078750,,,
23.3906250000,2,0.9647446275,,,
23.4062500000,2,1.2098540068,,,
23.4218750000,2,1.3655010462,,,
23.4375000000,2,1.3491439819,,,
23.4531250000,2,1.1872409582,,,
23.4687500000,2,0.9836884141,,,
23.4843750000,2,0.8426743150,,,
23.5000000000,2,0.7857819200,,,
23.5156250000,2,0.7312316895,,,
23.5312500000,2,0.5364531875,,,
23.5468750000,2,0.1090316996,,,
23.5625000000,2,-0.5167847276,,,
23.5781250000,2,-1.1854020357,,,
23.5937500000,2,-1.6896740198,,,
23.6093750000,2,-1.8883509636,,,
23.6250000000,2,-1.7684630156,,,
23.6406250000,2,-1.4505920410,,,
23.6562500000,2,-1.0922319889,,,
23.6718750000,2,-0.8170241714,,,
23.6875000000,2,-0.6499022841,,,
23.7031250000,2,-0.5300750732,,,
23.7187500000,2,-0.3835220039,,,
23.7343750000,2,-0.1666869968,,,
23.7500000000,2,0.0676345825,,,
23.7656250000,2,0.2133255005,,,
23.7812500000,2,0.1652068943,,,
23.7968750000,2,-0.0817871094,,,
23.8125000000,2,-0.4300918877,,,
23.8281250000,2,-0.7242661119,,,
23.8437500000,2,-0.8297042847,,,
23.8593750000,2,-0.7091522217,,,
23.8750000000,2,-0.4302901924,,,
23.8906250000,2,-0.1271896064,,,
23.9062500000,2,0.0683288574,,,
23.9218750000,2,0.1142349020,,,
23.9375000000,2,0.0466156006,,,
23.9531250000,2,-0.0519561805,,,
23.9687500000,2,-0.1011504978,,,
23.9843750000,2,-0.0469589196,,,
24.0000000000,3,0.1209259033,,,
24.0156250000,3,0.4185256958,,,
24.0312500000,3,0.8426436782,,,
24.0468750000,3,1.3481450081,,,
24.0625000000,3,1.8104170561,,,
24.0781250000,3,2.0468831062,,,
24.0937500000,3,1.8927229643,,,
24.1093750000,3,1.3023149967,,,
24.1250000000,3,0.4243698120,,,
24.1406250000,3,-0.4630585015,,,
24.1562500000,3,-1.0628590584,,,
24.1718750000,3,-1.2160029411,,,
24.1875000000,3,-0.9752578735,,,
24.2031250000,3,-0.5665740967,,,
24.2187500000,3,-0.2698669136,,,
24.2343750000,3,-0.2507323921,,,
24.2500000000,3,-0.4882278144,,,
24.2656250000,3,-0.8173828125,,,
24.2812500000,3,-1.0518039465,,,
24.2968750000,3,-1.0884170532,,,
24.3125000000,3,-0.9881134033,,,
24.3281250000,3,-0.8895568848,,,
24.3437500000,3,-0.9045258164,,,
24.3593750000,3,-1.0381699800,,,
24.3750000000,3,-1.1778179407,,,
24.3906250000,3,-1.1743160486,,,
24.4062500000,3,-0.9519271851,,,
24.4218750000,3,-0.5539855957,,,
24.4375000000,3,-0.0961074829,,,
24.4531250000,3,0.2778702080,,,
24.4687500000,3,0.5003433228,,,
24.4843750000,3,0.5973206162,,,
24.5000000000,3,0.6309052110,,,
24.5156250000,3,0.6551207900,,,
24.5312500000,3,0.6741713881,,,
24.5468750000,3,0.6584091187,,,
24.5625000000,3,0.5672150254,,,
24.5781250000,3,0.4049071968,,,
24.5937500000,3,0.2051925957,,,
24.6093750000,3,0.0206680298,,,
24.6250000000,3,-0.0908737183,,,
24.6406250000,3,-0.1020203009,,,
24.6562500000,3,-0.0077362061,,,
24.6718750000,3,0.1776732951,,,
24.6875000000,3,0.4068146050,,,
24.7031250000,3,0.6133347154,,,
24.7187500000,3,0.7342453003,,,
24.7343750000,3,0.7371826172,,,
24.7500000000,3,0.6604080200,,,
24.7656250000,3,0.5665665269,,,
24.7812500000,3,0.5248184204,,,
24.7968750000,3,0.5690383911,,,
24.8125000000,3,0.6541290283,,,
24.8281250000,3,0.6981276870,,,
24.8437500000,3,0.6238098145,,,
24.8593750000,3,0.4128341973,,,
24.8750000000,3,0.1036301032,,,
24.8906250000,3,-0.2147521973,,,
24.9062500000,3,-0.4579926133,,,
24.9218750000,3,-0.5804520249,,,
24.9375000000,3,-0.5620728135,,,
24.9531250000,3,-0.4356307983,,,
24.9687500000,3,-0.2602081001,,,
24.9843750000,3,-0.1231079027,,,
25.0000000000,3,-0.1015700996,,,
25.0156250000,3,-0.2371445000,,,
25.0312500000,3,-0.4873046875,,,
25.0468750000,3,-0.7234879136,,,
25.0625000000,3,-0.7837523818,,,
25.0781250000,3,-0.5578156114,,,
25.0937500000,3,-0.0550003089,,,
25.1093750000,3,0.5835800171,,,
25.1250000000,3,1.1448899508,,,
25.1406250000,3,1.4489589930,,,
25.1562500000,3,1.4271930456,,,
25.1718750000,3,1.1448210478,,,
25.1875000000,3,0.7325515747,,,
25.2031250000,3,0.3124541938,,,
25.2187500000,3,-0.0348281898,,,
25.2343750000,3,-0.2972182930,,,
25.2500000000,3,-0.4705123901,,,
25.2656250000,3,-0.5489807129,,,
25.2812500000,3,-0.5378417969,,,
25.2968750000,3,-0.4425812066,,,
25.3125000000,3,-0.2997741997,,,
25.3281250000,3,-0.1586456001,,,
25.3437500000,3,-0.0552902184,,,
25.3593750000,3,0.0177764893,,,
25.3750000000,3,0.0821990967,,,
25.3906250000,3,0.1644286960,,,
25.4062500000,3,0.2378081977,,,
25.4218750000,3,0.2312317044,,,
25.4375000000,3,0.0722122192,,,
25.4531250000,3,-0.2774353027,,,
25.4687500000,3,-0.7723999023,,,
25.4843750000,3,-1.2937239408,,,
25.5000000000,3,-1.6865080595,,,
25.5156250000,3,-1.8241579533,,,
25.5312500000,3,-1.6478500366,,,
25.5468750000,3,-1.1715010405,,,
25.5625000000,3,-0.4795913994,,,
25.5781250000,3,0.2937774956,,,
25.5937500000,3,1.0073319674,,,
25.6093750000,3,1.5535349846,,,
25.6250000000,3,1.8676530123,,,
25.6406250000,3,1.9449770451,,,
25.6562500000,3,1.8218610287,,,
25.6718750000,3,1.5729370117,,,
25.6875000000,3,1.2800899744,,,
25.7031250000,3,1.0083849430,,,
25.7187500000,3,0.7985991836,,,
25.7343750000,3,0.6501464844,,,
25.7500000000,3,0.5286942124,,,
25.7656250000,3,0.3872298896,,,
25.7812500000,3,0.1688538045,,,
25.7968750000,3,-0.1499022990,,,
25.8125000000,3,-0.5455703735,,,
25.8281250000,3,-0.9421843886,,,
25.8437500000,3,-1.2442779541,,,
25.8593750000,3,-1.3833620548,,,
25.8750000000,3,-1.3519359827,,,
25.8906250000,3,-1.1987080574,,,
25.9062500000,3,-1.0192949772,,,
25.9218750000,3,-0.8932266235,,,
25.9375000000,3,-0.8726500869,,,
25.9531250000,3,-0.9712600708,,,
25.9687500000,3,-1.1923749447,,,
25.9843750000,3,-1.5324100256,,,
26.0000000000,3,-1.9587249756,,,
26.0156250000,3,-2.4206850529,,,
26.0312500000,3,-2.8359529972,,,
26.0468750000,3,-3.1082530022,,,
26.0625000000,3,-3.1661300659,,,
26.0781250000,3,-2.9872889519,,,
26.0937500000,3,-2.5991740227,,,
26.1093750000,3,-2.0483019352,,,
26.1250000000,3,-1.3878860474,,,
26.1406250000,3,-0.6603394151,,,
26.1562500000,3,0.0750351027,,,
26.1718750000,3,0.7377471924,,,
26.1875000000,3,1.2335129976,,,
26.2031250000,3,1.5116269588,,,
26.2187500000,3,1.5784000158,,,
26.2343750000,3,1.5241470337,,,
26.2500000000,3,1.4520189762,,,
26.2656250000,3,1.4256520271,,,
26.2812500000,3,1.4423370361,,,
26.2968750000,3,1.4459459782,,,
26.3125000000,3,1.3865890503,,,
26.3281250000,3,1.2618410587,,,
26.3437500000,3,1.1141129732,,,
26.3593750000,3,0.9846038818,,,
26.3750000000,3,0.9018096924,,,
26.3906250000,3,0.8626403809,,,
26.4062500000,3,0.8536834717,,,
26.4218750000,3,0.8864974976,,,
26.4375000000,3,0.9718627930,,,
26.4531250000,3,1.0956120491,,,
26.4687500000,3,1.1978529692,,,
26.4843750000,3,1.1800379753,,,
26.5000000000,3,0.9919890761,,,
26.5156250000,3,0.6692963243,,,
26.5312500000,3,0.3351440132,,,
26.5468750000,3,0.1441726983,,,
26.5625000000,3,0.1704712063,,,
26.5781250000,3,0.3599242866,,,
26.5937500000,3,0.5542830825,,,
26.6093750000,3,0.6060791016,,,
26.6250000000,3,0.4708251953,,,
26.6406250000,3,0.2413101047,,,
26.6562500000,3,0.0761566237,,,
26.6718750000,3,0.0877609327,,,
26.6875000000,3,0.2522659004,,,
26.7031250000,3,0.4513244927,,,
26.7187500000,3,0.5329818726,,,
26.7343750000,3,0.4423218071,,,
26.7500000000,3,0.2396011055,,,
26.7656250000,3,0.0654907227,,,
26.7812500000,3,0.0292892493,,,
26.7968750000,3,0.1455917060,,,
26.8125000000,3,0.3223648071,,,
26.8281250000,3,0.4442825019,,,
26.8437500000,3,0.4442138970,,,
26.8593750000,3,0.3469620049,,,
26.8750000000,3,0.2393417060,,,
26.8906250000,3,0.1948242038,,,
26.9062500000,3,0.2213744968,,,
26.9218750000,3,0.2783508003,,,
26.9375000000,3,0.3065719903,,,
26.9531250000,3,0.2816771865,,,
26.9687500000,3,0.2112122029,,,
26.9843750000,3,0.0988998413,,,
27.0000000000,3,-0.0667877197,,,
27.0156250000,3,-0.3003234863,,,
27.0312500000,3,-0.5892943740,,,
27.0468750000,3,-0.8586577773,,,
27.0625000000,3,-0.9976729751,,,
27.0781250000,3,-0.9352493286,,,
27.0937500000,3,-0.6965866089,,,
27.1093750000,3,-0.4120101929,,,
27.1250000000,3,-0.2494506985,,,
27.1406250000,3,-0.2951583862,,,
27.1562500000,3,-0.4880447090,,,
27.1718750000,3,-0.6535568237,,,
27.1875000000,3,-0.6101151109,,,
27.2031250000,3,-0.2909393013,,,
27.2187500000,3,0.1886826009,,,
27.2343750000,3,0.6023635864,,,
27.2500000000,3,0.7344741821,,,
27.2656250000,3,0.5225830078,,,
27.2812500000,3,0.0989227295,,,
27.2968750000,3,-0.3018341064,,,
27.3125000000,3,-0.4680176079,,,
27.3281250000,3,-0.3355103135,,,
27.3437500000,3,-0.0364227295,,,
27.3593750000,3,0.2096938938,,,
27.3750000000,3,0.2163773030,,,
27.3906250000,3,-0.0463790894,,,
27.4062500000,3,-0.4433516860,,,
27.4218750000,3,-0.7382125854,,,
27.4375000000,3,-0.7527008057,,,
27.4531250000,3,-0.4702605903,,,
27.4687500000,3,-0.0429992713,,,
27.4843750000,3,0.3012543023,,,
27.5000000000,3,0.4061583877,,,
27.5156250000,3,0.2676239014,,,
27.5312500000,3,0.0185928307,,,
27.5468750000,3,-0.1767272949,,,
27.5625000000,3,-0.2168883979,,,
27.5781250000,3,-0.1427612007,,,
27.5937500000,3,-0.0638046265,,,
27.6093750000,3,-0.0777893066,,,
27.6250000000,3,-0.2000198066,,,
27.6406250000,3,-0.3389968872,,,
27.6562500000,3,-0.3552550972,,,
27.6718750000,3,-0.1532211006,,,
27.6875000000,3,0.2705687881,,,
27.7031250000,3,0.8300476074,,,
27.7187500000,3,1.3745349646,,,
27.7343750000,3,1.7735899687,,,
27.7500000000,3,1.9337999821,,,
27.7656250000,3,1.8167270422,,,
27.7812500000,3,1.4549870491,,,
27.7968750000,3,0.9255524278,,,
27.8125000000,3,0.3388442993,,,
27.8281250000,3,-0.1785202026,,,
27.8437500000,3,-0.5381469727,,,
27.8593750000,3,-0.7178574204,,,
27.8750000000,3,-0.7553024292,,,
27.8906250000,3,-0.7243422866,,,
27.9062500000,3,-0.7133101821,,,
27.9218750000,3,-0.7817459106,,,
27.9375000000,3,-0.9228209853,,,
27.9531250000,3,-1.0747679472,,,
27.9687500000,3,-1.1489330530,,,
27.9843750000,3,-1.0652010441,,,
28.0000000000,3,-0.7925797105,,,
28.0156250000,3,-0.3800354004,,,
28.0312500000,3,0.0526733398,,,
28.0468750000,3,0.3655624092,,,
28.0625000000,3,0.4922255874,,,
28.0781250000,3,0.4636383057,,,
28.0937500000,3,0.3972473145,,,
28.1093750000,3,0.4205627143,,,
28.1250000000,3,0.5802841187,,,
28.1406250000,3,0.8073806763,,,
28.1562500000,3,0.9556427002,,,
28.1718750000,3,0.8960494995,,,
28.1875000000,3,0.5990447998,,,
28.2031250000,3,0.1646880955,,,
28.2187500000,3,-0.2441558987,,,
28.2343750000,3,-0.4868546128,,,
28.2500000000,3,-0.5275573730,,,
28.2656250000,3,-0.4387511909,,,
28.2812500000,3,-0.3236618042,,,
28.2968750000,3,-0.2419662029,,,
28.3125000000,3,-0.1835326999,,,
28.3281250000,3,-0.0899887085,,,
28.3437500000,3,0.0637130663,,,
28.3593750000,3,0.2276459038,,,
28.3750000000,3,0.2884520888,,,
28.3906250000,3,0.1571273953,,,
28.4062500000,3,-0.1662978977,,,
28.4218750000,3,-0.5776901245,,,
28.4375000000,3,-0.9097899795,,,
28.4531250000,3,-1.0253750086,,,
28.4687500000,3,-0.8969650269,,,
28.4843750000,3,-0.6097869873,,,
28.5000000000,3,-0.3167267144,,,
28.5156250000,3,-0.1394423991,,,
28.5312500000,3,-0.1172942966,,,
28.5468750000,3,-0.2212830037,,,
28.5625000000,3,-0.3763962090,,,
28.5781250000,3,-0.5249785781,,,
28.5937500000,3,-0.6502379775,,,
28.6093750000,3,-0.7759017944,,,
28.6250000000,3,-0.9158477783,,,
28.6406250000,3,-1.0576169491,,,
28.6562500000,3,-1.1404420137,,,
28.6718750000,3,-1.0800859928,,,
28.6875000000,3,-0.8185424805,,,
28.7031250000,3,-0.3780212104,,,
28.7187500000,3,0.1377868950,,,
28.7343750000,3,0.5904006958,,,
28.7500000000,3,0.8733292222,,,
28.7656250000,3,0.9770432115,,,
28.7812500000,3,0.9763718247,,,
28.7968750000,3,0.9850234985,,,
28.8125000000,3,1.0630190372,,,
28.8281250000,3,1.1814270020,,,
28.8437500000,3,1.2503199577,,,
28.8593750000,3,1.1782840490,,,
28.8750000000,3,0.9495468140,,,
28.8906250000,3,0.6235579848,,,
28.9062500000,3,0.2843169868,,,
28.9218750000,3,-0.0172271691,,,
28.9375000000,3,-0.2852554023,,,
28.9531250000,3,-0.5500258803,,,
28.9687500000,3,-0.8097229004,,,
28.9843750000,3,-1.0095670223,,,
29.0000000000,3,-1.0754170418,,,
29.0156250000,3,-0.9591140747,,,
29.0312500000,3,-0.6733779907,,,
29.0468750000,3,-0.3010635078,,,
29.0625000000,3,0.0646362305,,,
29.0781250000,3,0.3498992920,,,
29.0937500000,3,0.5338364244,,,
29.1093750000,3,0.6046752930,,,
29.1250000000,3,0.5632781982,,,
29.1406250000,3,0.3916854858,,,
29.1562500000,3,0.0878601074,,,
29.1718750000,3,-0.3083800972,,,
29.1875000000,3,-0.7161331177,,,
29.2031250000,3,-1.0527420044,,,
29.2187500000,3,-1.2583620548,,,
29.2343750000,3,-1.3263629675,,,
29.2500000000,3,-1.2764359713,,,
29.2656250000,3,-1.1197739840,,,
29.2812500000,3,-0.8634415269,,,
29.2968750000,3,-0.5064620972,,,
29.3125000000,3,-0.0716323927,,,
29.3281250000,3,0.3684310913,,,
29.3437500000,3,0.7167891860,,,
29.3593750000,3,0.8688735962,,,
29.3750000000,3,0.7745513916,,,
29.3906250000,3,0.4686127007,,,
29.4062500000,3,0.0587539710,,,
29.4218750000,3,-0.3010177910,,,
29.4375000000,3,-0.4834823906,,,
29.4531250000,3,-0.4281235039,,,
29.4687500000,3,-0.1774826050,,,
29.4843750000,3,0.1562881023,,,
29.5000000000,3,0.4424057007,,,
29.5156250000,3,0.5839385986,,,
29.5312500000,3,0.5675582886,,,
29.5468750000,3,0.4443970025,,,
29.5625000000,3,0.3095321953,,,
29.5781250000,3,0.2307967991,,,
29.5937500000,3,0.2467803955,,,
29.6093750000,3,0.3360137939,,,
29.6250000000,3,0.4744034111,,,
29.6406250000,3,0.6594924927,,,
29.6562500000,3,0.9136199951,,,
29.6718750000,3,1.2567059994,,,
29.6875000000,3,1.6559519768,,,
29.7031250000,3,1.9943850040,,,
29.7187500000,3,2.1211619377,,,
29.7343750000,3,1.9166489840,,,
29.7500000000,3,1.3904650211,,,
29.7656250000,3,0.6921157837,,,
29.7812500000,3,0.0310745202,,,
29.7968750000,3,-0.4195098877,,,
29.8125000000,3,-0.6178513169,,,
29.8281250000,3,-0.6622009277,,,
29.8437500000,3,-0.6938781738,,,
29.8593750000,3,-0.8022537231,,,
29.8750000000,3,-0.9690933228,,,
29.8906250000,3,-1.0975110531,,,
29.9062500000,3,-1.1246340275,,,
29.9218750000,3,-1.0782849789,,,
29.9375000000,3,-1.0866090059,,,
29.9531250000,3,-1.2462459803,,,
29.9687500000,3,-1.5641709566,,,
29.9843750000,3,-1.9039989710,,,
30.0000000000,3,-2.0738530159,,,
30.0156250000,3,-1.9330140352,,,
30.0312500000,3,-1.4769819975,,,
30.0468750000,3,-0.8483963013,,,
30.0625000000,3,-0.2378235012,,,
30.0781250000,3,0.1880874932,,,
30.0937500000,3,0.3671264946,,,
30.1093750000,3,0.3061676025,,,
30.1250000000,3,0.0699768066,,,
30.1406250000,3,-0.2717666924,,,
30.1562500000,3,-0.6441345215,,,
30.1718750000,3,-0.9678344727,,,
30.1875000000,3,-1.1662750244,,,
30.2031250000,3,-1.1909480095,,,
30.2187500000,3,-1.0496059656,,,
30.2343750000,3,-0.7966156006,,,
30.2500000000,3,-0.5031508803,,,
30.2656250000,3,-0.2186813056,,,
30.2812500000,3,0.0423812903,,,
30.2968750000,3,0.3028793037,,,
30.3125000000,3,0.5867614746,,,
30.3281250000,3,0.8823624253,,,
30.3437500000,3,1.1486970186,,,
30.3593750000,3,1.3193049431,,,
30.3750000000,3,1.3500599861,,,
30.3906250000,3,1.2334820032,,,
30.4062500000,3,1.0211490393,,,
30.4218750000,3,0.8104857802,,,
30.4375000000,3,0.6938477159,,,
30.4531250000,3,0.7348480225,,,
30.4687500000,3,0.9334182739,,,
30.4843750000,3,1.2284770012,,,
30.5000000000,3,1.5156170130,,,
30.5156250000,3,1.6940460205,,,
30.5312500000,3,1.6923749447,,,
30.5468750000,3,1.5124050379,,,
30.5625000000,3,1.2094960213,,,
30.5781250000,3,0.8819503784,,,
30.5937500000,3,0.6214827895,,,
30.6093750000,3,0.4774475098,,,
30.6250000000,3,0.4510650933,,,
30.6406250000,3,0.4824905097,,,
30.6562500000,3,0.5080031753,,,
30.6718750000,3,0.4742431939,,,
30.6875000000,3,0.3780823052,,,
30.7031250000,3,0.2444916070,,,
30.7187500000,3,0.1156539991,,,
30.7343750000,3,0.0162200909,,,
30.7500000000,3,-0.0685119629,,,
30.7656250000,3,-0.1729431003,,,
30.7812500000,3,-0.3127213120,,,
30.7968750000,3,-0.4843902886,,,
30.8125000000,3,-0.6423720717,,,
30.8281250000,3,-0.7509307861,,,
30.8437500000,3,-0.7964782715,,,
30.8593750000,3,-0.8074036241,,,
30.8750000000,3,-0.8233643174,,,
30.8906250000,3,-0.8492736816,,,
30.9062500000,3,-0.8494338989,,,
30.9218750000,3,-0.7457352281,,,
30.9375000000,3,-0.4857558906,,,
30.9531250000,3,-0.0701217726,,,
30.9687500000,3,0.4145965874,,,
30.9843750000,3,0.8382874131,,,
31.0000000000,3,1.0755770206,,,
31.0156250000,3,1.0790480375,,,
31.0312500000,3,0.8697205186,,,
31.0468750000,3,0.5266342163,,,
31.0625000000,3,0.1278457940,,,
31.0781250000,3,-0.2642287910,,,
31.0937500000,3,-0.6139603257,,,
31.1093750000,3,-0.8860703111,,,
31.1250000000,3,-1.0395129919,,,
31.1406250000,3,-1.0544739962,,,
31.1562500000,3,-0.9396209717,,,
31.1718750000,3,-0.7528762817,,,
31.1875000000,3,-0.5650482178,,,
31.2031250000,3,-0.4233627021,,,
31.2187500000,3,-0.3168869019,,,
31.2343750000,3,-0.1841430962,,,
31.2500000000,3,0.0376968384,,,
31.2656250000,3,0.3490676880,,,
31.2812500000,3,0.6733016968,,,
31.2968750000,3,0.8841934204,,,
31.3125000000,3,0.8874207139,,,
31.3281250000,3,0.6712340713,,,
31.3437500000,3,0.3419112861,,,
31.3593750000,3,0.0430908203,,,
31.3750000000,3,-0.1241912991,,,
31.3906250000,3,-0.1392212063,,,
31.4062500000,3,-0.0802764893,,,
31.4218750000,3,-0.0483474694,,,
31.4375000000,3,-0.1198424995,,,
31.4531250000,3,-0.2959747016,,,
31.4687500000,3,-0.5214614868,,,
31.4843750000,3,-0.7164993286,,,
31.5000000000,3,-0.8349379897,,,
31.5156250000,3,-0.8751984239,,,
31.5312500000,3,-0.8668746948,,,
31.5468750000,3,-0.8585587144,,,
31.5625000000,3,-0.8697205186,,,
31.5781250000,3,-0.8776702881,,,
31.5937500000,3,-0.8319396973,,,
31.6093750000,3,-0.6889420152,,,
31.6250000000,3,-0.4375916123,,,
31.6406250000,3,-0.1164780036,,,
31.6562500000,3,0.2039642036,,,
31.6718750000,3,0.4528045952,,,
31.6875000000,3,0.5949707031,,,
31.7031250000,3,0.6500396729,,,
31.7187500000,3,0.6720963120,,,
31.7343750000,3,0.7107161880,,,
31.7500000000,3,0.7854155898,,,
31.7656250000,3,0.8662490845,,,
31.7812500000,3,0.8920897841,,,
31.7968750000,3,0.8081436157,,,
31.8125000000,3,0.5985869765,,,
31.8281250000,3,0.2796630859,,,
31.8437500000,3,-0.0904083326,,,
31.8593750000,3,-0.4377669990,,,
31.8750000000,3,-0.6834564209,,,
31.8906250000,3,-0.7541580200,,,
31.9062500000,3,-0.6155776978,,,
31.9218750000,3,-0.2838515937,,,
31.9375000000,3,0.1591873020,,,
31.9531250000,3,0.5927504897,,,
31.9687500000,3,0.9066544175,,,
31.9843750000,3,1.0592730045,,,
32.0000000000,4,1.0707470179,,,
32.0156250000,4,0.9964218140,,,
32.0312500000,4,0.9053574204,,,
32.0468750000,4,0.8191375732,,,
32.0625000000,4,0.7297058105,,,
32.0781250000,4,0.6281204224,,,
32.0937500000,4,0.5270844102,,,
32.1093750000,4,0.4484406114,,,
32.1250000000,4,0.4163588881,,,
32.1406250000,4,0.4167633057,,,
32.1562500000,4,0.3993149102,,,
32.1718750000,4,0.2954787910,,,
32.1875000000,4,0.0789565966,,,
32.2031250000,4,-0.2095641941,,,
32.2187500000,4,-0.4553070068,,,
32.2343750000,4,-0.5435562134,,,
32.2500000000,4,-0.4118728936,,,
32.2656250000,4,-0.1012877971,,,
32.2812500000,4,0.2478027046,,,
32.2968750000,4,0.4611434937,,,
32.3125000000,4,0.4183044136,,,
32.3281250000,4,0.1028214023,,,
32.3437500000,4,-0.3887786865,,,
32.3593750000,4,-0.9129409790,,,
32.3750000000,4,-1.3479690552,,,
32.3906250000,4,-1.6278920174,,,
32.4062500000,4,-1.7507480383,,,
32.4218750000,4,-1.7414549589,,,
32.4375000000,4,-1.6112370491,,,
32.4531250000,4,-1.3647689819,,,
32.4687500000,4,-1.0154500008,,,
32.4843750000,4,-0.6141967773,,,
32.5000000000,4,-0.2367783040,,,
32.5156250000,4,0.0292434692,,,
32.5312500000,4,0.1531067044,,,
32.5468750000,4,0.1677628011,,,
32.5625000000,4,0.1535415947,,,
32.5781250000,4,0.1799163967,,,
32.5937500000,4,0.2692183852,,,
32.6093750000,4,0.3749389946,,,
32.6250000000,4,0.4125519097,,,
32.6406250000,4,0.3150252998,,,
32.6562500000,4,0.0583190918,,,
32.6718750000,4,-0.2958450019,,,
32.6875000000,4,-0.6476287842,,,
32.7031250000,4,-0.9028549194,,,
32.7187500000,4,-0.9884719849,,,
32.7343750000,4,-0.8968123794,,,
32.7500000000,4,-0.6520462036,,,
32.7656250000,4,-0.3147124946,,,
32.7812500000,4,0.0550537109,,,
32.7968750000,4,0.3856658936,,,
32.8125000000,4,0.6233673096,,,
32.8281250000,4,0.7363281250,,,
32.8437500000,4,0.7283707261,,,
32.8593750000,4,0.6350020766,,,
32.8750000000,4,0.5078048706,,,
32.8906250000,4,0.3844070137,,,
32.9062500000,4,0.2736358941,,,
32.9218750000,4,0.1567917019,,,
32.9375000000,4,0.0085372915,,,
32.9531250000,4,-0.1417160034,,,
32.9687500000,4,-0.2455901951,,,
32.9843750000,4,-0.2192611992,,,
33.0000000000,4,-0.0127334604,,,
33.0156250000,4,0.3630904853,,,
33.0312500000,4,0.8123093247,,,
33.0468750000,4,1.2085720301,,,
33.0625000000,4,1.4368740320,,,
33.0781250000,4,1.4350199699,,,
33.0937500000,4,1.2176740170,,,
33.1093750000,4,0.8591309190,,,
33.1250000000,4,0.4593276978,,,
33.1406250000,4,0.1126175001,,,
33.1562500000,4,-0.1486358941,,,
33.1718750000,4,-0.3294830024,,,
33.1875000000,4,-0.4785842896,,,
33.2031250000,4,-0.6374588013,,,
33.2187500000,4,-0.8069229126,,,
33.2343750000,4,-0.9363784790,,,
33.2500000000,4,-0.9520797729,,,
33.2656250000,4,-0.8085709214,,,
33.2812500000,4,-0.5272827148,,,
33.2968750000,4,-0.2068787068,,,
33.3125000000,4,0.0243530292,,,
33.3281250000,4,0.0796508789,,,
33.3437500000,4,-0.0367660485,,,
33.3593750000,4,-0.2537078857,,,
33.3750000000,4,-0.4693298042,,,
33.3906250000,4,-0.6286544800,,,
33.4062500000,4,-0.7441939712,,,
33.4218750000,4,-0.8623275757,,,
33.4375000000,4,-1.0150829554,,,
33.4531250000,4,-1.1500240564,,,
33.4687500000,4,-1.1854859591,,,
33.4843750000,4,-1.0513230562,,,
33.5000000000,4,-0.7689362168,,,
33.5156250000,4,-0.4383392036,,,
33.5312500000,4,-0.2121811062,,,
33.5468750000,4,-0.1839600056,,,
33.5625000000,4,-0.3392944038,,,
33.5781250000,4,-0.5548859239,,,
33.5937500000,4,-0.6737899780,,,
33.6093750000,4,-0.5760573745,,,
33.6250000000,4,-0.2550278008,,,
33.6406250000,4,0.1976318061,,,
33.6562500000,4,0.6330872178,,,
33.6718750000,4,0.9122849107,,,
33.6875000000,4,0.9670181274,,,
33.7031250000,4,0.8035659790,,,
33.7187500000,4,0.4845275879,,,
33.7343750000,4,0.1109772027,,,
33.7500000000,4,-0.2151488960,,,
33.7656250000,4,-0.4176482856,,,
33.7812500000,4,-0.4405823052,,,
33.7968750000,4,-0.2734527886,,,
33.8125000000,4,0.0575180091,,,
33.8281250000,4,0.4798736870,,,
33.8437500000,4,0.9015656114,,,
33.8593750000,4,1.2077709436,,,
33.8750000000,4,1.3239209652,,,
33.8906250000,4,1.2211530209,,,
33.9062500000,4,0.9448317885,,,
33.9218750000,4,0.5787429810,,,
33.9375000000,4,0.2351150960,,,
33.9531250000,4,0.0048904419,,,
33.9687500000,4,-0.0585022010,,,
33.9843750000,4,0.0353546105,,,
34.0000000000,4,0.2218246013,,,
34.0156250000,4,0.4259108901,,,
34.0312500000,4,0.5584259033,,,
34.0468750000,4,0.5679854751,,,
34.0625000000,4,0.4408797920,,,
34.0781250000,4,0.2135848999,,,
34.0937500000,4,-0.0545654297,,,
34.1093750000,4,-0.2817077935,,,
34.1250000000,4,-0.4118422866,,,
34.1406250000,4,-0.4256896973,,,
34.1562500000,4,-0.3587951958,,,
34.1718750000,4,-0.2774733901,,,
34.1875000000,4,-0.2223892063,,,
34.2031250000,4,-0.1979674995,,,
34.2187500000,4,-0.1488571018,,,
34.2343750000,4,0.0030822749,,,
34.2500000000,4,0.3029784858,,,
34.2656250000,4,0.7182846069,,,
34.2812500000,4,1.1445540190,,,
34.2968750000,4,1.4484939575,,,
34.3125000000,4,1.5417180061,,,
34.3281250000,4,1.4329910278,,,
34.3437500000,4,1.2223589420,,,
34.3593750000,4,1.0320049524,,,
34.3750000000,4,0.9426345825,,,
34.3906250000,4,0.9413986206,,,
34.4062500000,4,0.9571762085,,,
34.4218750000,4,0.8949279785,,,
34.4375000000,4,0.7095031738,,,
34.4531250000,4,0.4142380059,,,
34.4687500000,4,0.0893325806,,,
34.4843750000,4,-0.1848755032,,,
34.5000000000,4,-0.3480834961,,,
34.5156250000,4,-0.3890151978,,,
34.5312500000,4,-0.3434830010,,,
34.5468750000,4,-0.2845458984,,,
34.5625000000,4,-0.2731094062,,,
34.5781250000,4,-0.3448868096,,,
34.5937500000,4,-0.4920349121,,,
34.6093750000,4,-0.6983718872,,,
34.6250000000,4,-0.9292603135,,,
34.6406250000,4,-1.1460950375,,,
34.6562500000,4,-1.3150559664,,,
34.6718750000,4,-1.3824620247,,,
34.6875000000,4,-1.2882540226,,,
34.7031250000,4,-0.9886016846,,,
34.7187500000,4,-0.5068358779,,,
34.7343750000,4,0.0489730798,,,
34.7500000000,4,0.5148391724,,,
34.7656250000,4,0.7475510240,,,
34.7812500000,4,0.6902999878,,,
34.7968750000,4,0.4147948921,,,
34.8125000000,4,0.0693664625,,,
34.8281250000,4,-0.1804351956,,,
34.8437500000,4,-0.2486725003,,,
34.8593750000,4,-0.1478728950,,,
34.8750000000,4,0.0319290198,,,
34.8906250000,4,0.1939774007,,,
34.9062500000,4,0.2878723145,,,
34.9218750000,4,0.3230820000,,,
34.9375000000,4,0.3574829102,,,
34.9531250000,4,0.4488373101,,,
34.9687500000,4,0.6185532212,,,
34.9843750000,4,0.8203887939,,,
35.0000000000,4,0.9597473145,,,
35.0156250000,4,0.9445800781,,,
35.0312500000,4,0.7272797227,,,
35.0468750000,4,0.3414688110,,,
35.0625000000,4,-0.0997772217,,,
35.0781250000,4,-0.4471206963,,,
35.0937500000,4,-0.5567855835,,,
35.1093750000,4,-0.3697968125,,,
35.1250000000,4,0.0798645020,,,
35.1406250000,4,0.6729583740,,,
35.1562500000,4,1.2383500338,,,
35.1718750000,4,1.6231989861,,,
35.1875000000,4,1.7148740292,,,
35.2031250000,4,1.5036929846,,,
35.2187500000,4,1.0693659782,,,
35.2343750000,4,0.5749282837,,,
35.2500000000,4,0.1795272976,,,
35.2656250000,4,0.0141143799,,,
35.2812500000,4,0.1130219027,,,
35.2968750000,4,0.4317702949,,,
35.3125000000,4,0.8753433228,,,
35.3281250000,4,1.3525470495,,,
35.3437500000,4,1.8026809692,,,
35.3593750000,4,2.1714780331,,,
35.3750000000,4,2.4125208855,,,
35.3906250000,4,2.4783859253,,,
35.4062500000,4,2.3572769165,,,
35.4218750000,4,2.0894238949,,,
35.4375000000,4,1.7914810181,,,
35.4531250000,4,1.5904459953,,,
35.4687500000,4,1.5559309721,,,
35.4843750000,4,1.6554640532,,,
35.5000000000,4,1.7742689848,,,
35.5156250000,4,1.7931369543,,,
35.5312500000,4,1.6690980196,,,
35.5468750000,4,1.4691389799,,,
35.5625000000,4,1.3237459660,,,
35.5781250000,4,1.3287279606,,,
35.5937500000,4,1.5004040003,,,
35.6093750000,4,1.7708970308,,,
35.6250000000,4,2.0653309822,,,
35.6406250000,4,2.3528819084,,,
35.6562500000,4,2.6777648926,,,
35.6718750000,4,3.1199951172,,,
35.6875000000,4,3.7086489201,,,
35.7031250000,4,4.3795619011,,,
35.7187500000,4,4.9663472176,,,
35.7343750000,4,5.2896728516,,,
35.7500000000,4,5.2396388054,,,
35.7656250000,4,4.8639907837,,,
35.7812500000,4,4.3482441902,,,
35.7968750000,4,3.9361879826,,,
35.8125000000,4,3.8279650211,,,
35.8281250000,4,4.0798258781,,,
35.8437500000,4,4.6226959229,,,
35.8593750000,4,5.3050231934,,,
35.8750000000,4,5.9723129272,,,
35.8906250000,4,6.5226140022,,,
35.9062500000,4,6.9259262085,,,
35.9218750000,4,7.1662058830,,,
35.9375000000,4,7.2293930054,,,
35.9531250000,4,7.0813450813,,,
35.9687500000,4,6.6942601204,,,
35.9843750000,4,6.0790100098,,,
36.0000000000,4,5.3134689331,,,
36.0156250000,4,4.5036320686,,,
36.0312500000,4,3.7341380119,,,
36.0468750000,4,3.0200200081,,,
36.0625000000,4,2.2905349731,,,
36.0781250000,4,1.3944929838,,,
36.0937500000,4,0.1823424995,,,
36.1093750000,4,-1.4642939568,,,
36.1250000000,4,-3.5403900146,,,
36.1406250000,4,-5.9035029411,,,
36.1562500000,4,-8.2914352417,,,
36.1718750000,4,-10.4253997803,,,
36.1875000000,4,-12.1190004349,,,
36.2031250000,4,-13.3298597336,,,
36.2187500000,4,-14.1629695892,,,
36.2343750000,4,-14.7812995911,,,
36.2500000000,4,-15.3126897812,,,
36.2656250000,4,-15.7824602127,,,
36.2812500000,4,-16.1352901459,,,
36.2968750000,4,-16.2997608185,,,
36.3125000000,4,-16.2390098572,,,
36.3281250000,4,-15.9626502991,,,
36.3437500000,4,-15.4844503403,,,
36.3593750000,4,-14.7695198059,,,
36.3750000000,4,-13.7386703491,,,
36.3906250000,4,-12.3211498260,,,
36.4062500000,4,-10.5220298767,,,
36.4218750000,4,-8.4745254517,,,
36.4375000000,4,-6.3883738518,,,
36.4531250000,4,-4.4680857658,,,
36.4687500000,4,-2.8406450748,,,
36.4843750000,4,-1.5234529972,,,
36.5000000000,4,-0.4782561958,,,
36.5156250000,4,0.3474349976,,,
36.5312500000,4,0.9801102281,,,
36.5468750000,4,1.4350659847,,,
36.5625000000,4,1.7369610071,,,
36.5781250000,4,1.9165799618,,,
36.5937500000,4,2.0265200138,,,
36.6093750000,4,2.0901949406,,,
36.6250000000,4,2.1165161133,,,
36.6406250000,4,2.0905001163,,,
36.6562500000,4,2.0321729183,,,
36.6718750000,4,1.9846800566,,,
36.6875000000,4,2.0186309814,,,
36.7031250000,4,2.1831889153,,,
36.7187500000,4,2.4760510921,,,
36.7343750000,4,2.8295819759,,,
36.7500000000,4,3.1318280697,,,
36.7656250000,4,3.2882919312,,,
36.7812500000,4,3.2477951050,,,
36.7968750000,4,3.0191879272,,,
36.8125000000,4,2.6735761166,,,
36.8281250000,4,2.3070139885,,,
36.8437500000,4,2.0144419670,,,
36.8593750000,4,1.8601299524,,,
36.8750000000,4,1.8430180550,,,
36.8906250000,4,1.9058690071,,,
36.9062500000,4,1.9657750130,,,
36.9218750000,4,1.9486689568,,,
36.9375000000,4,1.8450390100,,,
36.9531250000,4,1.7015609741,,,
36.9687500000,4,1.5613399744,,,
36.9843750000,4,1.4262390137,,,
37.0000000000,4,1.2427059412,,,
37.0156250000,4,0.9406052232,,,
37.0312500000,4,0.5071030259,,,
37.0468750000,4,0.0186233502,,,
37.0625000000,4,-0.3803634942,,,
37.0781250000,4,-0.5735930800,,,
37.0937500000,4,-0.5147094727,,,
37.1093750000,4,-0.2730408013,,,
37.1250000000,4,0.0330734290,,,
37.1406250000,4,0.2786942124,,,
37.1562500000,4,0.3974761963,,,
37.1718750000,4,0.3708344102,,,
37.1875000000,4,0.2139434963,,,
37.2031250000,4,-0.0489883386,,,
37.2187500000,4,-0.3703308105,,,
37.2343750000,4,-0.6946030259,,,
37.2500000000,4,-0.9723052979,,,
37.2656250000,4,-1.1644589901,,,
37.2812500000,4,-1.2869420052,,,
37.2968750000,4,-1.4090579748,,,
37.3125000000,4,-1.5925220251,,,
37.3281250000,4,-1.8497769833,,,
37.3437500000,4,-2.1176760197,,,
37.3593750000,4,-2.2798230648,,,
37.3750000000,4,-2.2567899227,,,
37.3906250000,4,-2.0450820923,,,
37.4062500000,4,-1.7283400297,,,
37.4218750000,4,-1.4315639734,,,
37.4375000000,4,-1.2644269466,,,
37.4531250000,4,-1.2470020056,,,
37.4687500000,4,-1.3226469755,,,
37.4843750000,4,-1.3579250574,,,
37.5000000000,4,-1.2316509485,,,
37.5156250000,4,-0.8681793213,,,
37.5312500000,4,-0.2984085083,,,
37.5468750000,4,0.3469696045,,,
37.5625000000,4,0.9030075073,,,
37.5781250000,4,1.2361600399,,,
37.5937500000,4,1.3335950375,,,
37.6093750000,4,1.2779539824,,,
37.6250000000,4,1.2012939453,,,
37.6406250000,4,1.1856160164,,,
37.6562500000,4,1.2042620182,,,
37.6718750000,4,1.1418689489,,,
37.6875000000,4,0.8706665039,,,
37.7031250000,4,0.3491897881,,,
37.7187500000,4,-0.3446350098,,,
37.7343750000,4,-1.0197219849,,,
37.7500000000,4,-1.5135960579,,,
37.7656250000,4,-1.7287139893,,,
37.7812500000,4,-1.7089159489,,,
37.7968750000,4,-1.5871579647,,,
37.8125000000,4,-1.5149149895,,,
37.8281250000,4,-1.5787049532,,,
37.8437500000,4,-1.7642749548,,,
37.8593750000,4,-1.9897919893,,,
37.8750000000,4,-2.1383509636,,,
37.8906250000,4,-2.1334528923,,,
37.9062500000,4,-1.9389419556,,,
37.9218750000,4,-1.5798569918,,,
37.9375000000,4,-1.0945819616,,,
37.9531250000,4,-0.5192337036,,,
37.9687500000,4,0.1202239990,,,
37.9843750000,4,0.8123779297,,,
38.0000000000,4,1.5117650032,,,
38.0156250000,4,2.1587600708,,,
38.0312500000,4,2.6785130501,,,
38.0468750000,4,3.0104980469,,,
38.0625000000,4,3.1276779175,,,
38.0781250000,4,3.0704650879,,,
38.0937500000,4,2.9274439812,,,
38.1093750000,4,2.8168559074,,,
38.1250000000,4,2.8298950195,,,
38.1406250000,4,2.9807889462,,,
38.1562500000,4,3.1908950806,,,
38.1718750000,4,3.3138890266,,,
38.1875000000,4,3.2020189762,,,
38.2031250000,4,2.7927629948,,,
38.2187500000,4,2.1529159546,,,
38.2343750000,4,1.4719769955,,,
38.2500000000,4,0.9864426255,,,
38.2656250000,4,0.8622742295,,,
38.2812500000,4,1.1212539673,,,
38.2968750000,4,1.6323009729,,,
38.3125000000,4,2.1664888859,,,
38.3281250000,4,2.5352709293,,,
38.3437500000,4,2.6701428890,,,
38.3593750000,4,2.6386110783,,,
38.3750000000,4,2.5707929134,,,
38.3906250000,4,2.5724260807,,,
38.4062500000,4,2.6619110107,,,
38.4218750000,4,2.7613370419,,,
38.4375000000,4,2.7602159977,,,
38.4531250000,4,2.5812299252,,,
38.4687500000,4,2.2205579281,,,
38.4843750000,4,1.7489930391,,,
38.5000000000,4,1.2654190063,,,
38.5156250000,4,0.8494338989,,,
38.5312500000,4,0.5313950181,,,
38.5468750000,4,0.2909927070,,,
38.5625000000,4,0.0826568604,,,
38.5781250000,4,-0.1204681024,,,
38.5937500000,4,-0.3199996948,,,
38.6093750000,4,-0.4842911065,,,
38.6250000000,4,-0.5809630752,,,
38.6406250000,4,-0.6031113267,,,
38.6562500000,4,-0.5765532851,,,
38.6718750000,4,-0.5571364760,,,
38.6875000000,4,-0.6002883911,,,
38.7031250000,4,-0.7371597290,,,
38.7187500000,4,-0.9471663833,,,
38.7343750000,4,-1.1889189482,,,
38.7500000000,4,-1.4154659510,,,
38.7656250000,4,-1.6053160429,,,
38.7812500000,4,-1.7550280094,,,
38.7968750000,4,-1.8566130400,,,
38.8125000000,4,-1.8673100471,,,
38.8281250000,4,-1.7240300179,,,
38.8437500000,4,-1.3872679472,,,
38.8593750000,4,-0.8825377822,,,
38.8750000000,4,-0.3280105889,,,
38.8906250000,4,0.1149367988,,,
38.9062500000,4,0.3218384087,,,
38.9218750000,4,0.2773284912,,,
38.9375000000,4,0.0778045729,,,
38.9531250000,4,-0.1144867018,,,
38.9687500000,4,-0.1967467964,,,
38.9843750000,4,-0.1711197048,,,
39.0000000000,4,-0.1390915066,,,
39.0156250000,4,-0.2380066067,,,
39.0312500000,4,-0.5214385986,,,
39.0468750000,4,-0.9161301255,,,
39.0625000000,4,-1.2461930513,,,
39.0781250000,4,-1.3142930269,,,
39.0937500000,4,-1.0134429932,,,
39.1093750000,4,-0.3996886909,,,
39.1250000000,4,0.3288573921,,,
39.1406250000,4,0.9119948745,,,
39.1562500000,4,1.1625980139,,,
39.1718750000,4,1.0359569788,,,
39.1875000000,4,0.6417465210,,,
39.2031250000,4,0.1865310967,,,
39.2187500000,4,-0.1568908989,,,
39.2343750000,4,-0.3287430108,,,
39.2500000000,4,-0.3869171143,,,
39.2656250000,4,-0.4503859878,,,
39.2812500000,4,-0.6096420288,,,
39.2968750000,4,-0.8796005249,,,
39.3125000000,4,-1.1983410120,,,
39.3281250000,4,-1.4640430212,,,
39.3437500000,4,-1.6050419807,,,
39.3593750000,4,-1.5984120369,,,
39.3750000000,4,-1.4741669893,,,
39.3906250000,4,-1.2673339844,,,
39.4062500000,4,-1.0125499964,,,
39.4218750000,4,-0.7464827895,,,
39.4375000000,4,-0.5334473252,,,
39.4531250000,4,-0.4276809990,,,
39.4687500000,4,-0.4610291123,,,
39.4843750000,4,-0.6075211167,,,
39.5000000000,4,-0.7732620239,,,
39.5156250000,4,-0.8708115220,,,
39.5312500000,4,-0.8570098877,,,
39.5468750000,4,-0.7651367188,,,
39.5625000000,4,-0.6997681260,,,
39.5781250000,4,-0.7682495117,,,
39.5937500000,4,-1.0194849968,,,
39.6093750000,4,-1.4093780518,,,
39.6250000000,4,-1.8207319975,,,
39.6406250000,4,-2.1205520630,,,
39.6562500000,4,-2.1913828850,,,
39.6718750000,4,-1.9871059656,,,
39.6875000000,4,-1.5318679810,,,
39.7031250000,4,-0.8895034790,,,
39.7187500000,4,-0.1242370978,,,
39.7343750000,4,0.6709594727,,,
39.7500000000,4,1.3976440430,,,
39.7656250000,4,1.9314650297,,,
39.7812500000,4,2.1661000252,,,
39.7968750000,4,2.0542829037,,,
39.8125000000,4,1.6535190344,,,
39.8281250000,4,1.1252520084,,,
39.8437500000,4,0.6719284058,,,
39.8593750000,4,0.4558410943,,,
39.8750000000,4,0.5066527724,,,
39.8906250000,4,0.7328109741,,,
39.9062500000,4,0.9708939195,,,
39.9218750000,4,1.0757139921,,,
39.9375000000,4,0.9848862290,,,
39.9531250000,4,0.7532730103,,,
39.9687500000,4,0.4936752021,,,
39.9843750000,4,0.3195190132,,,
40.0000000000,5,0.3117752075,,,
40.0156250000,5,0.4623947144,,,
40.0312500000,5,0.6976928711,,,
40.0468750000,5,0.9082717896,,,
40.0625000000,5,0.9883347154,,,
40.0781250000,5,0.8771439195,,,
40.0937500000,5,0.5746077895,,,
40.1093750000,5,0.1472243965,,,
40.1250000000,5,-0.3046799004,,,
40.1406250000,5,-0.6842421889,,,
40.1562500000,5,-0.9140548706,,,
40.1718750000,5,-0.9592514038,,,
40.1875000000,5,-0.8031234741,,,
40.2031250000,5,-0.4721069038,,,
40.2187500000,5,-0.0082092294,,,
40.2343750000,5,0.4878540039,,,
40.2500000000,5,0.8739318848,,,
40.2656250000,5,1.0180360079,,,
40.2812500000,5,0.8573532104,,,
40.2968750000,5,0.4561995864,,,
40.3125000000,5,-0.0217208900,,,
40.3281250000,5,-0.3791733086,,,
40.3437500000,5,-0.4943541884,,,
40.3593750000,5,-0.3834229112,,,
40.3750000000,5,-0.1728972942,,,
40.3906250000,5,-0.0226058997,,,
40.4062500000,5,-0.0072250371,,,
40.4218750000,5,-0.1154861003,,,
40.4375000000,5,-0.2623291016,,,
40.4531250000,5,-0.3582687080,,,
40.4687500000,5,-0.3547439873,,,
40.4843750000,5,-0.2625426948,,,
40.5000000000,5,-0.1154937968,,,
40.5156250000,5,0.0702972412,,,
40.5312500000,5,0.2881850898,,,
40.5468750000,5,0.5291060805,,,
40.5625000000,5,0.7624588013,,,
40.5781250000,5,0.9303969741,,,
40.5937500000,5,0.9576491714,,,
40.6093750000,5,0.7946013808,,,
40.6250000000,5,0.4403075874,,,
40.6406250000,5,-0.0537109412,,,
40.6562500000,5,-0.6000595093,,,
40.6718750000,5,-1.1070940495,,,
40.6875000000,5,-1.4864879847,,,
40.7031250000,5,-1.6745150089,,,
40.7187500000,5,-1.6413650513,,,
40.7343750000,5,-1.4134750366,,,
40.7500000000,5,-1.0756299496,,,
40.7656250000,5,-0.7294539809,,,
40.7812500000,5,-0.4638595879,,,
40.7968750000,5,-0.3105391860,,,
40.8125000000,5,-0.2523499131,,,
40.8281250000,5,-0.2348861992,,,
40.8437500000,5,-0.1963730007,,,
40.8593750000,5,-0.1001586989,,,
40.8750000000,5,0.0545196496,,,
40.8906250000,5,0.2522278130,,,
40.9062500000,5,0.4694519043,,,
40.9218750000,5,0.7145156860,,,
40.9375000000,5,1.0070799589,,,
40.9531250000,5,1.3579479456,,,
40.9687500000,5,1.7390819788,,,
40.9843750000,5,2.0558850765,,,
41.0000000000,5,2.1715469360,,,
41.0156250000,5,2.0088269711,,,
41.0312500000,5,1.6033550501,,,
41.0468750000,5,1.1117249727,,,
41.0625000000,5,0.7547379136,,,
41.0781250000,5,0.6949921250,,,
41.0937500000,5,0.9380875230,,,
41.1093750000,5,1.3141709566,,,
41.1250000000,5,1.5688320398,,,
41.1406250000,5,1.4915850163,,,
41.1562500000,5,1.0373079777,,,
41.1718750000,5,0.3334578872,,,
41.1875000000,5,-0.4190979004,,,
41.2031250000,5,-1.0312579870,,,
41.2187500000,5,-1.4335709810,,,
41.2343750000,5,-1.6485439539,,,
41.2500000000,5,-1.7611999512,,,
41.2656250000,5,-1.8343889713,,,
41.2812500000,5,-1.8708879948,,,
41.2968750000,5,-1.8417129517,,,
41.3125000000,5,-1.6986470222,,,
41.3281250000,5,-1.4418640137,,,
41.3437500000,5,-1.1083680391,,,
41.3593750000,5,-0.7597579956,,,
41.3750000000,5,-0.4667586982,,,
41.3906250000,5,-0.2485657036,,,
41.4062500000,5,-0.1146773994,,,
41.4218750000,5,-0.0339279212,,,
41.4375000000,5,0.0061340332,,,
41.4531250000,5,-0.0028228760,,,
41.4687500000,5,-0.0696106032,,,
41.4843750000,5,-0.1889266968,,,
41.5000000000,5,-0.3156661987,,,
41.5156250000,5,-0.3566513062,,,
41.5312500000,5,-0.2351761013,,,
41.5468750000,5,0.0703506470,,,
41.5625000000,5,0.4516753852,,,
41.5781250000,5,0.7323226929,,,
41.5937500000,5,0.7467421889,,,
41.6093750000,5,0.4345093071,,,
41.6250000000,5,-0.0989837572,,,
41.6406250000,5,-0.6417769790,,,
41.6562500000,5,-0.9750748277,,,
41.6718750000,5,-0.9794312119,,,
41.6875000000,5,-0.6940689087,,,
41.7031250000,5,-0.2526169121,,,
41.7187500000,5,0.1813049018,,,
41.7343750000,5,0.5082244873,,,
41.7500000000,5,0.6871948242,,,
41.7656250000,5,0.7327498794,,,
41.7812500000,5,0.6695098877,,,
41.7968750000,5,0.5136032104,,,
41.8125000000,5,0.3116149902,,,
41.8281250000,5,0.1365355998,,,
41.8437500000,5,0.0771331787,,,
41.8593750000,5,0.1950377971,,,
41.8750000000,5,0.4727249146,,,
41.8906250000,5,0.8125380874,,,
41.9062500000,5,1.0886540413,,,
41.9218750000,5,1.1987919807,,,
41.9375000000,5,1.1206669807,,,
41.9531250000,5,0.8928604126,,,
41.9687500000,5,0.6043242812,,,
41.9843750000,5,0.3286742866,,,
42.0000000000,5,0.1178055033,,,
42.0156250000,5,-0.0057144170,,,
42.0312500000,5,-0.0541458093,,,
42.0468750000,5,-0.0122222900,,,
42.0625000000,5,0.0975799635,,,
42.0781250000,5,0.2554016113,,,
42.0937500000,5,0.4306258857,,,
42.1093750000,5,0.5801773071,,,
42.1250000000,5,0.6676331162,,,
42.1406250000,5,0.6834334731,,,
42.1562500000,5,0.6509171128,,,
42.1718750000,5,0.6171569824,,,
42.1875000000,5,0.6140975952,,,
42.2031250000,5,0.6325606704,,,
42.2187500000,5,0.6197357178,,,
42.2343750000,5,0.5297393799,,,
42.2500000000,5,0.3628310859,,,
42.2656250000,5,0.1853332967,,,
42.2812500000,5,0.1050719991,,,
42.2968750000,5,0.1970673054,,,
42.3125000000,5,0.4357833862,,,
42.3281250000,5,0.6911087036,,,
42.3437500000,5,0.7947006226,,,
42.3593750000,5,0.6431046128,,,
42.3750000000,5,0.2679519951,,,
42.3906250000,5,-0.1758193970,,,
42.4062500000,5,-0.5005034804,,,
42.4218750000,5,-0.5987166762,,,
42.4375000000,5,-0.4984130859,,,
42.4531250000,5,-0.3345718086,,,
42.4687500000,5,-0.2496338040,,,
42.4843750000,5,-0.3320541084,,,
42.5000000000,5,-0.5426254272,,,
42.5156250000,5,-0.7952194214,,,
42.5312500000,5,-0.9952316284,,,
42.5468750000,5,-1.0731960535,,,
42.5625000000,5,-1.0140000582,,,
42.5781250000,5,-0.8416671753,,,
42.5937500000,5,-0.6055374146,,,
42.6093750000,5,-0.3540877998,,,
42.6250000000,5,-0.1357116997,,,
42.6406250000,5,0.0393295288,,,
42.6562500000,5,0.1773681939,,,
42.6718750000,5,0.2852936089,,,
42.6875000000,5,0.3625259101,,,
42.7031250000,5,0.3856354058,,,
42.7187500000,5,0.3253783882,,,
42.7343750000,5,0.1690063030,,,
42.7500000000,5,-0.0394897498,,,
42.7656250000,5,-0.2543564141,,,
42.7812500000,5,-0.4233092964,,,
42.7968750000,5,-0.5273131728,,,
42.8125000000,5,-0.5782775879,,,
42.8281250000,5,-0.6006088257,,,
42.8437500000,5,-0.5911713243,,,
42.8593750000,5,-0.5262908936,,,
42.8750000000,5,-0.3941650093,,,
42.8906250000,5,-0.2282561958,,,
42.9062500000,5,-0.1152573004,,,
42.9218750000,5,-0.1362762004,,,
42.9375000000,5,-0.3088912964,,,
42.9531250000,5,-0.5591506958,,,
42.9687500000,5,-0.7597579956,,,
42.9843750000,5,-0.8210678101,,,
43.0000000000,5,-0.7352066040,,,
43.0156250000,5,-0.5856246948,,,
43.0312500000,5,-0.4823380113,,,
43.0468750000,5,-0.5018692017,,,
43.0625000000,5,-0.6558684707,,,
43.0781250000,5,-0.8803328872,,,
43.0937500000,5,-1.0870590210,,,
43.1093750000,5,-1.1763839722,,,
43.1250000000,5,-1.0856859684,,,
43.1406250000,5,-0.8021010756,,,
43.1562500000,5,-0.3671036065,,,
43.1718750000,5,0.1135253981,,,
43.1875000000,5,0.4997482002,,,
43.2031250000,5,0.6695250869,,,
43.2187500000,5,0.5870208740,,,
43.2343750000,5,0.3115768135,,,
43.2500000000,5,-0.0107269296,,,
43.2656250000,5,-0.2434998006,,,
43.2812500000,5,-0.3214950860,,,
43.2968750000,5,-0.2971419990,,,
43.3125000000,5,-0.2715606987,,,
43.3281250000,5,-0.3187407851,,,
43.3437500000,5,-0.4075851142,,,
43.3593750000,5,-0.4177933037,,,
43.3750000000,5,-0.2269669026,,,
43.3906250000,5,0.1935883015,,,
43.4062500000,5,0.7162246704,,,
43.4218750000,5,1.1069639921,,,
43.4375000000,5,1.1631469727,,,
43.4531250000,5,0.8242111206,,,
43.4687500000,5,0.2341156006,,,
43.4843750000,5,-0.3354263008,,,
43.5000000000,5,-0.6246337891,,,
43.5156250000,5,-0.5528182983,,,
43.5312500000,5,-0.2344665974,,,
43.5468750000,5,0.0773162767,,,
43.5625000000,5,0.1518860012,,,
43.5781250000,5,-0.0807647705,,,
43.5937500000,5,-0.5048217773,,,
43.6093750000,5,-0.8661804199,,,
43.6250000000,5,-0.9415740967,,,
43.6406250000,5,-0.6470795274,,,
43.6562500000,5,-0.0938873291,,,
43.6718750000,5,0.5019301772,,,
43.6875000000,5,0.9125136733,,,
43.7031250000,5,1.0158159733,,,
43.7187500000,5,0.8442078233,,,
43.7343750000,5,0.5438919067,,,
43.7500000000,5,0.2702560127,,,
43.7656250000,5,0.1130599976,,,
43.7812500000,5,0.0638504028,,,
43.7968750000,5,0.0481262207,,,
43.8125000000,5,-0.0112991296,,,
43.8281250000,5,-0.1477203071,,,
43.8437500000,5,-0.3361968994,,,
43.8593750000,5,-0.5076293945,,,
43.8750000000,5,-0.6140366197,,,
43.8906250000,5,-0.6497269273,,,
43.9062500000,5,-0.6353302002,,,
43.9218750000,5,-0.6129531860,,,
43.9375000000,5,-0.5858231187,,,
43.9531250000,5,-0.5353394151,,,
43.9687500000,5,-0.4289855957,,,
43.9843750000,5,-0.2585526109,,,
44.0000000000,5,-0.0580215491,,,
44.0156250000,5,0.0872039795,,,
44.0312500000,5,0.1133652031,,,
44.0468750000,5,0.0133972196,,,
44.0625000000,5,-0.1395950019,,,
44.0781250000,5,-0.2318267971,,,
44.0937500000,5,-0.1702575982,,,
44.1093750000,5,0.0557937585,,,
44.1250000000,5,0.3411788940,,,
44.1406250000,5,0.5331497192,,,
44.1562500000,5,0.4819793999,,,
44.1718750000,5,0.1522751004,,,
44.1875000000,5,-0.3627853096,,,
44.2031250000,5,-0.8839263916,,,
44.2187500000,5,-1.2219849825,,,
44.2343750000,5,-1.2661290169,,,
44.2500000000,5,-1.0158920288,,,
44.2656250000,5,-0.5663604736,,,
44.2812500000,5,-0.0533142090,,,
44.2968750000,5,0.4043121040,,,
44.3125000000,5,0.7234038711,,,
44.3281250000,5,0.8731917739,,,
44.3437500000,5,0.8521193862,,,
44.3593750000,5,0.7001953125,,,
44.3750000000,5,0.4766693115,,,
44.3906250000,5,0.2337111980,,,
44.4062500000,5,0.0177764893,,,
44.4218750000,5,-0.1371612996,,,
44.4375000000,5,-0.2057723999,,,
44.4531250000,5,-0.1885070950,,,
44.4687500000,5,-0.0870056227,,,
44.4843750000,5,0.0915832520,,,
44.5000000000,5,0.3378219903,,,
44.5156250000,5,0.6111679077,,,
44.5312500000,5,0.8512343764,,,
44.5468750000,5,0.9963303208,,,
44.5625000000,5,1.0072940588,,,
44.5781250000,5,0.8867797852,,,
44.5937500000,5,0.6947249770,,,
44.6093750000,5,0.5039443970,,,
44.6250000000,5,0.3626250923,,,
44.6406250000,5,0.2759017944,,,
44.6562500000,5,0.2324142009,,,
44.6718750000,5,0.2102050930,,,
44.6875000000,5,0.2304152995,,,
44.7031250000,5,0.3436813056,,,
44.7187500000,5,0.5851898193,,,
44.7343750000,5,0.9249572754,,,
44.7500000000,5,1.2520899773,,,
44.7656250000,5,1.4248280525,,,
44.7812500000,5,1.3541179895,,,
44.7968750000,5,1.0886609554,,,
44.8125000000,5,0.7894821167,,,
44.8281250000,5,0.6305541992,,,
44.8437500000,5,0.6736145020,,,
44.8593750000,5,0.8074569702,,,
44.8750000000,5,0.8162918091,,,
44.8906250000,5,0.5160140991,,,
44.9062500000,5,-0.1258087009,,,
44.9218750000,5,-0.9571381211,,,
44.9375000000,5,-1.7197339535,,,
44.9531250000,5,-2.1999208927,,,
44.9687500000,5,-2.3351519108,,,
44.9843750000,5,-2.2114109993,,,
45.0000000000,5,-1.9740450382,,,
45.0156250000,5,-1.7258150578,,,
45.0312500000,5,-1.4606089592,,,
45.0468750000,5,-1.1102600098,,,
45.0625000000,5,-0.6304169297,,,
45.0781250000,5,-0.0603485107,,,
45.0937500000,5,0.4898757935,,,
45.1093750000,5,0.8846511841,,,
45.1250000000,5,1.0321120024,,,
45.1406250000,5,0.8957443237,,,
45.1562500000,5,0.5122299194,,,
45.1718750000,5,-0.0317001306,,,
45.1875000000,5,-0.6032332778,,,
45.2031250000,5,-1.0397490263,,,
45.2187500000,5,-1.2049789429,,,
45.2343750000,5,-1.0379790068,,,
45.2500000000,5,-0.6190947890,,,
45.2656250000,5,-0.1271972954,,,
45.2812500000,5,0.2306441963,,,
45.2968750000,5,0.3386459053,,,
45.3125000000,5,0.2315216064,,,
45.3281250000,5,0.0520782508,,,
45.3437500000,5,-0.0445785485,,,
45.3593750000,5,0.0051422119,,,
45.3750000000,5,0.1541595012,,,
45.3906250000,5,0.2864837945,,,
45.4062500000,5,0.3274841011,,,
45.4218750000,5,0.2824477851,,,
45.4375000000,5,0.2064362019,,,
45.4531250000,5,0.1581954956,,,
45.4687500000,5,0.1326981038,,,
45.4843750000,5,0.0901947021,,,
45.5000000000,5,0.0208282508,,,
45.5156250000,5,-0.0400238000,,,
45.5312500000,5,-0.0167083703,,,
45.5468750000,5,0.1249618977,,,
45.5625000000,5,0.3581924140,,,
45.5781250000,5,0.5658798218,,,
45.5937500000,5,0.6444473267,,,
45.6093750000,5,0.5485687256,,,
45.6250000000,5,0.3189620972,,,
45.6406250000,5,0.0380706787,,,
45.6562500000,5,-0.2290267944,,,
45.6718750000,5,-0.4680939019,,,
45.6875000000,5,-0.6905211806,,,
45.7031250000,5,-0.9110565186,,,
45.7187500000,5,-1.1125559807,,,
45.7343750000,5,-1.2175669670,,,
45.7500000000,5,-1.1535340548,,,
45.7656250000,5,-0.8800277710,,,
45.7812500000,5,-0.4148406982,,,
45.7968750000,5,0.1667785943,,,
45.8125000000,5,0.7369155884,,,
45.8281250000,5,1.1671910286,,,
45.8437500000,5,1.3534699678,,,
45.8593750000,5,1.2495800257,,,
45.8750000000,5,0.9066619873,,,
45.8906250000,5,0.4537430108,,,
45.9062500000,5,0.0614700317,,,
45.9218750000,5,-0.1280518025,,,
45.9375000000,5,-0.0731811523,,,
45.9531250000,5,0.1713715047,,,
45.9687500000,5,0.4758911133,,,
45.9843750000,5,0.7048416138,,,
46.0000000000,5,0.7764664292,,,
46.0156250000,5,0.6898574829,,,
46.0312500000,5,0.5036849976,,,
46.0468750000,5,0.2769927979,,,
46.0625000000,5,0.0631103516,,,
46.0781250000,5,-0.1364669949,,,
46.0937500000,5,-0.3183670044,,,
46.1093750000,5,-0.4666748047,,,
46.1250000000,5,-0.5186386108,,,
46.1406250000,5,-0.4300461113,,,
46.1562500000,5,-0.1849212945,,,
46.1718750000,5,0.1500167996,,,
46.1875000000,5,0.4637374878,,,
46.2031250000,5,0.6470870972,,,
46.2187500000,5,0.6510086060,,,
46.2343750000,5,0.5261458755,,,
46.2500000000,5,0.3812179863,,,
46.2656250000,5,0.3175354004,,,
46.2812500000,5,0.3545227051,,,
46.2968750000,5,0.4432219863,,,
46.3125000000,5,0.5051956177,,,
46.3281250000,5,0.4917831123,,,
46.3437500000,5,0.4333420098,,,
46.3593750000,5,0.3995589912,,,
46.3750000000,5,0.4442214966,,,
46.3906250000,5,0.5595932007,,,
46.4062500000,5,0.6843338013,,,
46.4218750000,5,0.7491989136,,,
46.4375000000,5,0.7208709717,,,
46.4531250000,5,0.6237410903,,,
46.4687500000,5,0.4915694892,,,
46.4843750000,5,0.3495255113,,,
46.5000000000,5,0.1882171929,,,
46.5156250000,5,0.0011825560,,,
46.5312500000,5,-0.1910247952,,,
46.5468750000,5,-0.3317261040,,,
46.5625000000,5,-0.3659057915,,,
46.5781250000,5,-0.2940216064,,,
46.5937500000,5,-0.1839828044,,,
46.6093750000,5,-0.1471938938,,,
46.6250000000,5,-0.2480392009,,,
46.6406250000,5,-0.4822005928,,,
46.6562500000,5,-0.7445983887,,,
46.6718750000,5,-0.9139937758,,,
46.6875000000,5,-0.9077835083,,,
46.7031250000,5,-0.7398071289,,,
46.7187500000,5,-0.4974670112,,,
46.7343750000,5,-0.2880783081,,,
46.7500000000,5,-0.1668701023,,,
46.7656250000,5,-0.1229323968,,,
46.7812500000,5,-0.0953216627,,,
46.7968750000,5,-0.0397415198,,,
46.8125000000,5,0.0323944092,,,
46.8281250000,5,0.0420074500,,,
46.8437500000,5,-0.1011504978,,,
46.8593750000,5,-0.4330444038,,,
46.8750000000,5,-0.9080657959,,,
46.8906250000,5,-1.3932110071,,,
46.9062500000,5,-1.7411190271,,,
46.9218750000,5,-1.8473969698,,,
46.9375000000,5,-1.6843639612,,,
46.9531250000,5,-1.3036650419,,,
46.9687500000,5,-0.8095778823,,,
46.9843750000,5,-0.2839432061,,,
47.0000000000,5,0.2026672065,,,
47.0156250000,5,0.6049346924,,,
47.0312500000,5,0.8885344863,,,
47.0468750000,5,1.0024410486,,,
47.0625000000,5,0.9163513184,,,
47.0781250000,5,0.6425551772,,,
47.0937500000,5,0.2522048950,,,
47.1093750000,5,-0.1424636990,,,
47.1250000000,5,-0.4254378974,,,
47.1406250000,5,-0.5437927246,,,
47.1562500000,5,-0.4969024956,,,
47.1718750000,5,-0.3484115899,,,
47.1875000000,5,-0.1693038940,,,
47.2031250000,5,-0.0165328998,,,
47.2187500000,5,0.0819015503,,,
47.2343750000,5,0.1018142998,,,
47.2500000000,5,0.0491333008,,,
47.2656250000,5,-0.0649414137,,,
47.2812500000,5,-0.2177733928,,,
47.2968750000,5,-0.3587723076,,,
47.3125000000,5,-0.4438705146,,,
47.3281250000,5,-0.4503403008,,,
47.3437500000,5,-0.4113234878,,,
47.3593750000,5,-0.3847961128,,,
47.3750000000,5,-0.4168624878,,,
47.3906250000,5,-0.5100631714,,,
47.4062500000,5,-0.6052703857,,,
47.4218750000,5,-0.6241074204,,,
47.4375000000,5,-0.5205994248,,,
47.4531250000,5,-0.3074187934,,,
47.4687500000,5,-0.0756454468,,,
47.4843750000,5,0.1112518013,,,
47.5000000000,5,0.2257613987,,,
47.5156250000,5,0.3009643853,,,
47.5312500000,5,0.4028091133,,,
47.5468750000,5,0.5631331801,,,
47.5625000000,5,0.7397155762,,,
47.5781250000,5,0.8282927871,,,
47.5937500000,5,0.7170944214,,,
47.6093750000,5,0.3619002998,,,
47.6250000000,5,-0.1724624932,,,
47.6406250000,5,-0.7297133803,,,
47.6562500000,5,-1.1252670288,,,
47.6718750000,5,-1.2271419764,,,
47.6875000000,5,-1.0043790340,,,
47.7031250000,5,-0.5375518799,,,
47.7187500000,5,0.0437850989,,,
47.7343750000,5,0.6146317124,,,
47.7500000000,5,1.0982819796,,,
47.7656250000,5,1.4923779964,,,
47.7812500000,5,1.8040009737,,,
47.7968750000,5,2.0408630371,,,
47.8125000000,5,2.1518630981,,,
47.8281250000,5,2.0719380379,,,
47.8437500000,5,1.7556689978,,,
47.8593750000,5,1.2426609993,,,
47.8750000000,5,0.6803588867,,,
47.8906250000,5,0.2332001030,,,
47.9062500000,5,0.0255050696,,,
47.9218750000,5,0.0581130981,,,
47.9375000000,5,0.2174454033,,,
47.9531250000,5,0.3471908867,,,
47.9687500000,5,0.3099975884,,,
47.9843750000,5,0.0939483568,,,
48.0000000000,6,-0.2086791992,,,
48.0156250000,6,-0.4443587959,,,
48.0312500000,6,-0.5013275146,,,
48.0468750000,6,-0.3632355034,,,
48.0625000000,6,-0.1228867024,,,
48.0781250000,6,0.0688018799,,,
48.0937500000,6,0.0768280029,,,
48.1093750000,6,-0.1258545071,,,
48.1250000000,6,-0.4655990899,,,
48.1406250000,6,-0.7922744751,,,
48.1562500000,6,-0.9712600708,,,
48.1718750000,6,-0.9438170791,,,
48.1875000000,6,-0.7254561782,,,
48.2031250000,6,-0.4090805054,,,
48.2187500000,6,-0.0974731371,,,
48.2343750000,6,0.1444320977,,,
48.2500000000,6,0.2858658135,,,
48.2656250000,6,0.3331528008,,,
48.2812500000,6,0.2999649048,,,
48.2968750000,6,0.2264862061,,,
48.3125000000,6,0.1614380032,,,
48.3281250000,6,0.1794586033,,,
48.3437500000,6,0.3087997139,,,
48.3593750000,6,0.5008391738,,,
48.3750000000,6,0.6425170898,,,
48.3906250000,6,0.5945969224,,,
48.4062500000,6,0.2881393135,,,
48.4218750000,6,-0.2098464966,,,
48.4375000000,6,-0.7159882188,,,
48.4531250000,6,-1.0316540003,,,
48.4687500000,6,-1.0615309477,,,
48.4843750000,6,-0.8572998047,,,
48.5000000000,6,-0.5901718140,,,
48.5156250000,6,-0.4048843086,,,
48.5312500000,6,-0.3548125923,,,
48.5468750000,6,-0.3665542901,,,
48.5625000000,6,-0.3185195923,,,
48.5781250000,6,-0.1407241970,,,
48.5937500000,6,0.1249312982,,,
48.6093750000,6,0.3436127007,,,
48.6250000000,6,0.3738251030,,,
48.6406250000,6,0.1708220989,,,
48.6562500000,6,-0.1863860935,,,
48.6718750000,6,-0.5361785889,,,
48.6875000000,6,-0.7235488892,,,
48.7031250000,6,-0.6835479736,,,
48.7187500000,6,-0.4836960137,,,
48.7343750000,6,-0.2638396919,,,
48.7500000000,6,-0.1364136040,,,
48.7656250000,6,-0.1346663982,,,
48.7812500000,6,-0.1797561944,,,
48.7968750000,6,-0.1667328030,,,
48.8125000000,6,-0.0407943688,,,
48.8281250000,6,0.1654738933,,,
48.8437500000,6,0.3512344062,,,
48.8593750000,6,0.4137192070,,,
48.8750000000,6,0.3283157051,,,
48.8906250000,6,0.1612700969,,,
48.9062500000,6,0.0262832604,,,
48.9218750000,6,0.0203399695,,,
48.9375000000,6,0.1500854045,,,
48.9531250000,6,0.3401871026,,,
48.9687500000,6,0.4754028022,,,
48.9843750000,6,0.4899826050,,,
49.0000000000,6,0.3849335015,,,
49.0156250000,6,0.2613449097,,,
49.0312500000,6,0.2441788018,,,
49.0468750000,6,0.4277572930,,,
49.0625000000,6,0.8279418945,,,
49.0781250000,6,1.3517459631,,,
49.0937500000,6,1.8367459774,,,
49.1093750000,6,2.1137540340,,,
49.1250000000,6,2.0695650578,,,
49.1406250000,6,1.6831740141,,,
49.1562500000,6,1.0290910006,,,
49.1718750000,6,0.2556458116,,,
49.1875000000,6,-0.4728851020,,,
49.2031250000,6,-1.0122450590,,,
49.2187500000,6,-1.2876280546,,,
49.2343750000,6,-1.2796859741,,,
49.2500000000,6,-1.0281070471,,,
49.2656250000,6,-0.6437454224,,,
49.2812500000,6,-0.2598418891,,,
49.2968750000,6,-0.0086669922,,,
49.3125000000,6,0.0327300988,,,
49.3281250000,6,-0.1412200928,,,
49.3437500000,6,-0.4520339966,,,
49.3593750000,6,-0.7821044922,,,
49.3750000000,6,-1.0142899752,,,
49.3906250000,6,-1.0874019861,,,
49.4062500000,6,-1.0070569515,,,
49.4218750000,6,-0.8368988037,,,
49.4375000000,6,-0.6739882827,,,
49.4531250000,6,-0.5901870728,,,
49.4687500000,6,-0.6077805161,,,
49.4843750000,6,-0.6792526245,,,
49.5000000000,6,-0.7236251831,,,
49.5156250000,6,-0.6597672105,,,
49.5312500000,6,-0.4650497139,,,
49.5468750000,6,-0.1950377971,,,
49.5625000000,6,0.0587387085,,,
49.5781250000,6,0.2113571018,,,
49.5937500000,6,0.2366103977,,,
49.6093750000,6,0.1884460002,,,
49.6250000000,6,0.1750182956,,,
49.6406250000,6,0.2862319946,,,
49.6562500000,6,0.5327072144,,,
49.6718750000,6,0.8367844224,,,
49.6875000000,6,1.0717389584,,,
49.7031250000,6,1.1511149406,,,
49.7187500000,6,1.0613709688,,,
49.7343750000,6,0.8814774156,,,
49.7500000000,6,0.7267302871,,,
49.7656250000,6,0.6704558730,,,
49.7812500000,6,0.7222595215,,,
49.7968750000,6,0.8105620742,,,
49.8125000000,6,0.8481978774,,,
49.8281250000,6,0.7708358765,,,
49.8437500000,6,0.5882033706,,,
49.8593750000,6,0.3637619019,,,
49.8750000000,6,0.1572875977,,,
49.8906250000,6,-0.0283660907,,,
49.9062500000,6,-0.2466430962,,,
49.9218750000,6,-0.5592041016,,,
49.9375000000,6,-0.9910659790,,,
49.9531250000,6,-1.4694900513,,,
49.9687500000,6,-1.8645479679,,,
49.9843750000,6,-2.0374529362,,,
50.0000000000,6,-1.9371800423,,,
50.0156250000,6,-1.6245880127,,,
50.0312500000,6,-1.2383500338,,,
50.0468750000,6,-0.9314116836,,,
50.0625000000,6,-0.7627716064,,,
50.0781250000,6,-0.7011107802,,,
50.0937500000,6,-0.6421051025,,,
50.1093750000,6,-0.4984360039,,,
50.1250000000,6,-0.2547379136,,,
50.1406250000,6,0.0408172607,,,
50.1562500000,6,0.2998962104,,,
50.1718750000,6,0.4718781114,,,
50.1875000000,6,0.5565261841,,,
50.2031250000,6,0.6119384766,,,
50.2187500000,6,0.6847991943,,,
50.2343750000,6,0.8094863892,,,
50.2500000000,6,0.9514846802,,,
50.2656250000,6,1.0472489595,,,
50.2812500000,6,1.0502929688,,,
50.2968750000,6,0.9584426880,,,
50.3125000000,6,0.8395004272,,,
50.3281250000,6,0.7743378282,,,
50.3437500000,6,0.8187407851,,,
50.3593750000,6,0.9412078857,,,
50.3750000000,6,1.0469670296,,,
50.3906250000,6,1.0092699528,,,
50.4062500000,6,0.7499771118,,,
50.4218750000,6,0.2837448120,,,
50.4375000000,6,-0.2901763916,,,
50.4531250000,6,-0.8242188096,,,
50.4687500000,6,-1.2031099796,,,
50.4843750000,6,-1.3832240105,,,
50.5000000000,6,-1.3899769783,,,
50.5156250000,6,-1.2714389563,,,
50.5312500000,6,-1.0614399910,,,
50.5468750000,6,-0.7864074707,,,
50.5625000000,6,-0.4677352905,,,
50.5781250000,6,-0.1546631008,,,
50.5937500000,6,0.0812148973,,,
50.6093750000,6,0.1941298991,,,
50.6250000000,6,0.1631087959,,,
50.6406250000,6,0.0392532311,,,
50.6562500000,6,-0.1055449992,,,
50.6718750000,6,-0.1925048977,,,
50.6875000000,6,-0.1819916070,,,
50.7031250000,6,-0.0739822388,,,
50.7187500000,6,0.0893096924,,,
50.7343750000,6,0.2386551052,,,
50.7500000000,6,0.3133774102,,,
50.7656250000,6,0.2613067925,,,
50.7812500000,6,0.0810852125,,,
50.7968750000,6,-0.1930083930,,,
50.8125000000,6,-0.4713287055,,,
50.8281250000,6,-0.6491088867,,,
50.8437500000,6,-0.6576004028,,,
50.8593750000,6,-0.5001906753,,,
50.8750000000,6,-0.2621765137,,,
50.8906250000,6,-0.0604324304,,,
50.9062500000,6,0.0185546894,,,
50.9218750000,6,-0.0290603600,,,
50.9375000000,6,-0.1187515035,,,
50.9531250000,6,-0.1210860983,,,
50.9687500000,6,0.0396118201,,,
50.9843750000,6,0.3485488892,,,
51.0000000000,6,0.7009276748,,,
51.0156250000,6,0.9701079726,,,
51.0312500000,6,1.0902019739,,,
51.0468750000,6,1.0803070068,,,
51.0625000000,6,1.0110549927,,,
51.0781250000,6,0.9465789795,,,
51.0937500000,6,0.8758010864,,,
51.1093750000,6,0.7398682237,,,
51.1250000000,6,0.4838486016,,,
51.1406250000,6,0.1432342976,,,
51.1562500000,6,-0.1615601033,,,
51.1718750000,6,-0.2709656060,,,
51.1875000000,6,-0.0985183716,,,
51.2031250000,6,0.3054961860,,,
51.2187500000,6,0.7696074843,,,
51.2343750000,6,1.0711289644,,,
51.2500000000,6,1.0620269775,,,
51.2656250000,6,0.7264862061,,,
51.2812500000,6,0.1813811958,,,
51.2968750000,6,-0.4031066895,,,
51.3125000000,6,-0.8789749146,,,
51.3281250000,6,-1.1819989681,,,
51.3437500000,6,-1.3197170496,,,
51.3593750000,6,-1.3485720158,,,
51.3750000000,6,-1.3169560432,,,
51.3906250000,6,-1.2359540462,,,
51.4062500000,6,-1.0948560238,,,
51.4218750000,6,-0.8758469224,,,
51.4375000000,6,-0.5977324843,,,
51.4531250000,6,-0.2872619927,,,
51.4687500000,6,0.0065765381,,,
51.4843750000,6,0.2437592000,,,
51.5000000000,6,0.3938292861,,,
51.5156250000,6,0.4527739882,,,
51.5312500000,6,0.4116440117,,,
51.5468750000,6,0.2660903931,,,
51.5625000000,6,0.0190506000,,,
51.5781250000,6,-0.2982178032,,,
51.5937500000,6,-0.6203002930,,,
51.6093750000,6,-0.8537445068,,,
51.6250000000,6,-0.9131011963,,,
51.6406250000,6,-0.7671813965,,,
51.6562500000,6,-0.4627838135,,,
51.6718750000,6,-0.1004562005,,,
51.6875000000,6,0.1872100979,,,
51.7031250000,6,0.3113555908,,,
51.7187500000,6,0.2345276028,,,
51.7343750000,6,0.0053939819,,,
51.7500000000,6,-0.2773514092,,,
51.7656250000,6,-0.4976882935,,,
51.7812500000,6,-0.5820770264,,,
51.7968750000,6,-0.5304337144,,,
51.8125000000,6,-0.4230498970,,,
51.8281250000,6,-0.3615036011,,,
51.8437500000,6,-0.4043579102,,,
51.8593750000,6,-0.5233840942,,,
51.8750000000,6,-0.6122130752,,,
51.8906250000,6,-0.5406798720,,,
51.9062500000,6,-0.2346343994,,,
51.9218750000,6,0.2936477959,,,
51.9375000000,6,0.9418411255,,,
51.9531250000,6,1.5645070076,,,
51.9687500000,6,2.0319979191,,,
51.9843750000,6,2.2538530827,,,
52.0000000000,6,2.1978070736,,,
52.0156250000,6,1.8945920467,,,
52.0312500000,6,1.4168319702,,,
52.0468750000,6,0.8690567017,,,
52.0625000000,6,0.3714981079,,,
52.0781250000,6,-0.0004501343,,,
52.0937500000,6,-0.2195663005,,,
52.1093750000,6,-0.3158569038,,,
52.1250000000,6,-0.3474502861,,,
52.1406250000,6,-0.3505173028,,,
52.1562500000,6,-0.3333511055,,,
52.1718750000,6,-0.2702484131,,,
52.1875000000,6,-0.1723861992,,,
52.2031250000,6,-0.0605316199,,,
52.2187500000,6,0.0060043330,,,
52.2343750000,6,0.0187835693,,,
52.2500000000,6,0.0056228638,,,
52.2656250000,6,0.0364379883,,,
52.2812500000,6,0.1573486030,,,
52.2968750000,6,0.3622283936,,,
52.3125000000,6,0.5628281236,,,
52.3281250000,6,0.6514739990,,,
52.3437500000,6,0.5603560805,,,
52.3593750000,6,0.3023453057,,,
52.3750000000,6,-0.0221099891,,,
52.3906250000,6,-0.2739943862,,,
52.4062500000,6,-0.3576050103,,,
52.4218750000,6,-0.2478408962,,,
52.4375000000,6,-0.0086746216,,,
52.4531250000,6,0.2268829048,,,
52.4687500000,6,0.3526993096,,,
52.4843750000,6,0.3157806098,,,
52.5000000000,6,0.1538009942,,,
52.5156250000,6,-0.0376129188,,,
52.5312500000,6,-0.1763305962,,,
52.5468750000,6,-0.2397841960,,,
52.5625000000,6,-0.2498473972,,,
52.5781250000,6,-0.2599182129,,,
52.5937500000,6,-0.2841033936,,,
52.6093750000,6,-0.2912749946,,,
52.6250000000,6,-0.2420731038,,,
52.6406250000,6,-0.1343383938,,,
52.6562500000,6,-0.0368118286,,,
52.6718750000,6,-0.0375900306,,,
52.6875000000,6,-0.1950225979,,,
52.7031250000,6,-0.4467391968,,,
52.7187500000,6,-0.6611403823,,,
52.7343750000,6,-0.6997222900,,,
52.7500000000,6,-0.5217056274,,,
52.7656250000,6,-0.2189331055,,,
52.7812500000,6,0.0287246704,,,
52.7968750000,6,0.0731353834,,,
52.8125000000,6,-0.1068191975,,,
52.8281250000,6,-0.3950423896,,,
52.8437500000,6,-0.6062088013,,,
52.8593750000,6,-0.6098098755,,,
52.8750000000,6,-0.4046477973,,,
52.8906250000,6,-0.0949707031,,,
52.9062500000,6,0.1550216973,,,
52.9218750000,6,0.2281188965,,,
52.9375000000,6,0.1167754978,,,
52.9531250000,6,-0.0964584425,,,
52.9687500000,6,-0.2726288140,,,
52.9843750000,6,-0.2977981865,,,
53.0000000000,6,-0.1396483928,,,
53.0156250000,6,0.1565399021,,,
53.0312500000,6,0.4976730049,,,
53.0468750000,6,0.7657393813,,,
53.0625000000,6,0.9060363770,,,
53.0781250000,6,0.9276732802,,,
53.0937500000,6,0.8827667236,,,
53.1093750000,6,0.8224105835,,,
53.1250000000,6,0.7620316148,,,
53.1406250000,6,0.6809387207,,,
53.1562500000,6,0.5561370850,,,
53.1718750000,6,0.3916015923,,,
53.1875000000,6,0.2250214070,,,
53.2031250000,6,0.1299743950,,,
53.2187500000,6,0.1591643989,,,
53.2343750000,6,0.3091202080,,,
53.2500000000,6,0.5097579956,,,
53.2656250000,6,0.6652907729,,,
53.2812500000,6,0.6875228882,,,
53.2968750000,6,0.5660477281,,,
53.3125000000,6,0.3686294854,,,
53.3281250000,6,0.1965103000,,,
53.3437500000,6,0.1252135932,,,
53.3593750000,6,0.1570740044,,,
53.3750000000,6,0.2098235935,,,
53.3906250000,6,0.1853255928,,,
53.4062500000,6,0.0242385902,,,
53.4218750000,6,-0.2708281875,,,
53.4375000000,6,-0.6312180161,,,
53.4531250000,6,-0.9619293213,,,
53.4687500000,6,-1.1748889685,,,
53.4843750000,6,-1.2205810547,,,
53.5000000000,6,-1.0974349976,,,
53.5156250000,6,-0.8537139893,,,
53.5312500000,6,-0.5562896729,,,
53.5468750000,6,-0.3066864014,,,
53.5625000000,6,-0.2007599026,,,
53.5781250000,6,-0.2822875977,,,
53.5937500000,6,-0.5154190063,,,
53.6093750000,6,-0.7965087891,,,
53.6250000000,6,-0.9920883179,,,
53.6406250000,6,-1.0130920410,,,
53.6562500000,6,-0.8646088243,,,
53.6718750000,6,-0.6449509263,,,
53.6875000000,6,-0.4641875923,,,
53.7031250000,6,-0.3769913018,,,
53.7187500000,6,-0.3687514961,,,
53.7343750000,6,-0.3824844062,,,
53.7500000000,6,-0.3908233941,,,
53.7656250000,6,-0.4020232856,,,
53.7812500000,6,-0.4523696899,,,
53.7968750000,6,-0.5679779053,,,
53.8125000000,6,-0.7152100205,,,
53.8281250000,6,-0.8298645020,,,
53.8437500000,6,-0.8582152724,,,
53.8593750000,6,-0.7832031250,,,
53.8750000000,6,-0.6501541138,,,
53.8906250000,6,-0.5258178711,,,
53.9062500000,6,-0.4485245049,,,
53.9218750000,6,-0.4049454033,,,
53.9375000000,6,-0.3484955132,,,
53.9531250000,6,-0.2365570068,,,
53.9687500000,6,-0.0614471398,,,
53.9843750000,6,0.1374969035,,,
54.0000000000,6,0.3074721992,,,
54.0156250000,6,0.4120864868,,,
54.0312500000,6,0.4465484917,,,
54.0468750000,6,0.4479218125,,,
54.0625000000,6,0.4617691040,,,
54.0781250000,6,0.5148314834,,,
54.0937500000,6,0.6227188110,,,
54.1093750000,6,0.7522125244,,,
54.1250000000,6,0.8505629897,,,
54.1406250000,6,0.8596343994,,,
54.1562500000,6,0.7428436279,,,
54.1718750000,6,0.4972076118,,,
54.1875000000,6,0.1601790935,,,
54.2031250000,6,-0.2067794949,,,
54.2187500000,6,-0.5230484009,,,
54.2343750000,6,-0.7150878906,,,
54.2500000000,6,-0.7553557754,,,
54.2656250000,6,-0.6423491836,,,
54.2812500000,6,-0.4178847969,,,
54.2968750000,6,-0.1420670003,,,
54.3125000000,6,0.1364288032,,,
54.3281250000,6,0.4003677070,,,
54.3437500000,6,0.6366118789,,,
54.3593750000,6,0.8289566040,,,
54.3750000000,6,0.9525374770,,,
54.3906250000,6,0.9785842896,,,
54.4062500000,6,0.9098281860,,,
54.4218750000,6,0.7902678847,,,
54.4375000000,6,0.6698303223,,,
54.4531250000,6,0.5850449204,,,
54.4687500000,6,0.5364379883,,,
54.4843750000,6,0.4933623970,,,
54.5000000000,6,0.4245604873,,,
54.5156250000,6,0.3239136040,,,
54.5312500000,6,0.2159347981,,,
54.5468750000,6,0.1342315972,,,
54.5625000000,6,0.0996398926,,,
54.5781250000,6,0.0897674635,,,
54.5937500000,6,0.0845947266,,,
54.6093750000,6,0.0622406006,,,
54.6250000000,6,0.0299911499,,,
54.6406250000,6,0.0150070200,,,
54.6562500000,6,0.0346832313,,,
54.6718750000,6,0.0926055908,,,
54.6875000000,6,0.1772308052,,,
54.7031250000,6,0.2621307075,,,
54.7187500000,6,0.3290100098,,,
54.7343750000,6,0.3552246094,,,
54.7500000000,6,0.3187637031,,,
54.7656250000,6,0.2185973972,,,
54.7812500000,6,0.0572357215,,,
54.7968750000,6,-0.1529617012,,,
54.8125000000,6,-0.4013823867,,,
54.8281250000,6,-0.6581115723,,,
54.8437500000,6,-0.8796234131,,,
54.8593750000,6,-0.9796447754,,,
54.8750000000,6,-0.8908004761,,,
54.8906250000,6,-0.5938339233,,,
54.9062500000,6,-0.1567306966,,,
54.9218750000,6,0.2961426079,,,
54.9375000000,6,0.6204680800,,,
54.9531250000,6,0.7456436157,,,
54.9687500000,6,0.7004088759,,,
54.9843750000,6,0.5948715210,,,
55.0000000000,6,0.5490416884,,,
55.0156250000,6,0.5882797241,,,
55.0312500000,6,0.6416016221,,,
55.0468750000,6,0.5994873047,,,
55.0625000000,6,0.4048537910,,,
55.0781250000,6,0.0938034132,,,
55.0937500000,6,-0.1991959065,,,
55.1093750000,6,-0.3438721001,,,
55.1250000000,6,-0.2588729858,,,
55.1406250000,6,0.0454788208,,,
55.1562500000,6,0.4840545952,,,
55.1718750000,6,0.9218444824,,,
55.1875000000,6,1.2157750130,,,
55.2031250000,6,1.2453160286,,,
55.2187500000,6,0.9773483276,,,
55.2343750000,6,0.4686050117,,,
55.2500000000,6,-0.1251067966,,,
55.2656250000,6,-0.6088104248,,,
55.2812500000,6,-0.8349227905,,,
55.2968750000,6,-0.7760314941,,,
55.3125000000,6,-0.5390853882,,,
55.3281250000,6,-0.2811661065,,,
55.3437500000,6,-0.1367798001,,,
55.3593750000,6,-0.0990371704,,,
55.3750000000,6,-0.0644378737,,,
55.3906250000,6,0.0930938721,,,
55.4062500000,6,0.4052048028,,,
55.4218750000,6,0.7967147827,,,
55.4375000000,6,1.1068569422,,,
55.4531250000,6,1.1996380091,,,
55.4687500000,6,1.0339050293,,,
55.4843750000,6,0.6681212783,,,
55.5000000000,6,0.2448502034,,,
55.5156250000,6,-0.1221313030,,,
55.5312500000,6,-0.3809280097,,,
55.5468750000,6,-0.5475615859,,,
55.5625000000,6,-0.6610794067,,,
55.5781250000,6,-0.7355269790,,,
55.5937500000,6,-0.7374724746,,,
55.6093750000,6,-0.6182175279,,,
55.6250000000,6,-0.3563843071,,,
55.6406250000,6,0.0078811646,,,
55.6562500000,6,0.3573989868,,,
55.6718750000,6,0.5386124253,,,
55.6875000000,6,0.4381026924,,,
55.7031250000,6,0.0395278893,,,
55.7187500000,6,-0.5397415161,,,
55.7343750000,6,-1.0874249935,,,
55.7500000000,6,-1.4099429846,,,
55.7656250000,6,-1.4377059937,,,
55.7812500000,6,-1.2567139864,,,
55.7968750000,6,-1.0440980196,,,
55.8125000000,6,-0.9577178955,,,
55.8281250000,6,-1.0233839750,,,
55.8437500000,6,-1.1337970495,,,
55.8593750000,6,-1.1248090267,,,
55.8750000000,6,-0.9087830186,,,
55.8906250000,6,-0.5364760756,,,
55.9062500000,6,-0.1691360027,,,
55.9218750000,6,0.0486144982,,,
55.9375000000,6,0.0652694702,,,
55.9531250000,6,-0.0203628503,,,
55.9687500000,6,-0.0658492967,,,
55.9843750000,6,0.0139846802,,,
56.0000000000,7,0.1946334988,,,
56.0156250000,7,0.3539809883,,,
56.0312500000,7,0.3841857910,,,
56.0468750000,7,0.2677383125,,,
56.0625000000,7,0.0849227905,,,
56.0781250000,7,-0.0348510705,,,
56.0937500000,7,-0.0029296880,,,
56.1093750000,7,0.1863708049,,,
56.1250000000,7,0.4706954956,,,
56.1406250000,7,0.7653046250,,,
56.1562500000,7,0.9853209853,,,
56.1718750000,7,1.0866849422,,,
56.1875000000,7,1.0565719604,,,
