Time:64Hz,Epoch,Channel 1,Event Id,Event Date,Event Duration
0.0000000000,0,-0.0396652184,,,
0.0156250000,0,-0.0662460327,,,
0.0312500000,0,-0.0371704102,,,
0.0468750000,0,-0.0022735600,,,
0.0625000000,0,0.0112915002,,,
0.0781250000,0,0.0012130740,,,
0.0937500000,0,-0.0040512080,,,
0.1093750000,0,0.0418319702,,,
0.1250000000,0,0.1588515937,,,
0.1406250000,0,0.3250046074,,,
0.1562500000,0,0.4696807861,,,
0.1718750000,0,0.5146102905,,,
0.1875000000,0,0.3937073052,,,
0.2031250000,0,0.1091919020,,,
0.2187500000,0,-0.2730179131,,,
0.2343750000,0,-0.6410750747,,,
0.2500000000,0,-0.8865280151,,,
0.2656250000,0,-0.9379578233,,,
0.2812500000,0,-0.7809677124,,,
0.2968750000,0,-0.4604339898,,,
0.3125000000,0,-0.0728759766,,,
0.3281250000,0,0.2469176948,,,
0.3437500000,0,0.3419952095,,,
0.3593750000,0,0.1081238016,,,
0.3750000000,0,-0.4531097114,,,
0.3906250000,0,-1.1848909855,,,
0.4062500000,0,-1.8176269531,,,
0.4218750000,0,-2.0757520199,,,
0.4375000000,0,-1.8253480196,,,
0.4531250000,0,-1.1355969906,,,
0.4687500000,0,-0.2450104058,,,
0.4843750000,0,0.5381851196,,,
0.5000000000,0,1.0104520321,,,
0.5156250000,0,1.1064610481,,,
0.5312500000,0,0.9212799072,,,
0.5468750000,0,0.6150588989,,,
0.5625000000,0,0.3489075005,,,
0.5781250000,0,0.2240294963,,,
0.5937500000,0,0.2465897053,,,
0.6093750000,0,0.3616028130,,,
0.6250000000,0,0.4697571099,,,
0.6406250000,0,0.4890899956,,,
0.6562500000,0,0.3760910034,,,
0.6718750000,0,0.1676253974,,,
0.6875000000,0,-0.0505142212,,,
0.7031250000,0,-0.1702881008,,,
0.7187500000,0,-0.1163711995,,,
0.7343750000,0,0.0961380005,,,
0.7500000000,0,0.3793106079,,,
0.7656250000,0,0.6103209853,,,
0.7812500000,0,0.7161560059,,,
0.7968750000,0,0.6801909804,,,
0.8125000000,0,0.5591812134,,,
0.8281250000,0,0.4203796089,,,
0.8437500000,0,0.3005828857,,,
0.8593750000,0,0.2054595947,,,
0.8750000000,0,0.1150284037,,,
0.8906250000,0,0.0265045203,,,
0.9062500000,0,-0.0637969971,,,
0.9218750000,0,-0.1362839043,,,
0.9375000000,0,-0.1921309978,,,
0.9531250000,0,-0.2381896973,,,
0.9687500000,0,-0.2722091973,,,
0.9843750000,0,-0.3149108887,,,
1.0000000000,0,-0.3554077148,,,
1.0156250000,0,-0.4090651870,,,
1.0312500000,0,-0.4805603027,,,
1.0468750000,0,-0.5894011855,,,
1.0625000000,0,-0.7350540161,,,
1.0781250000,0,-0.8982238770,,,
1.0937500000,0,-1.0517810583,,,
1.1093750000,0,-1.1613160372,,,
1.1250000000,0,-1.2247469425,,,
1.1406250000,0,-1.2360609770,,,
1.1562500000,0,-1.1997380257,,,
1.1718750000,0,-1.0768200159,,,
1.1875000000,0,-0.8153458238,,,
1.2031250000,0,-0.3894195855,,,
1.2187500000,0,0.1628264934,,,
1.2343750000,0,0.7246627808,,,
1.2500000000,0,1.1469650269,,,
1.2656250000,0,1.3158040047,,,
1.2812500000,0,1.2414250374,,,
1.2968750000,0,1.0104830265,,,
1.3125000000,0,0.7544937134,,,
1.3281250000,0,0.5518264771,,,
1.3437500000,0,0.4125137031,,,
1.3593750000,0,0.2814635932,,,
1.3750000000,0,0.1022797003,,,
1.3906250000,0,-0.1146773994,,,
1.4062500000,0,-0.3157806098,,,
1.4218750000,0,-0.4147338867,,,
1.4375000000,0,-0.3628158867,,,
1.4531250000,0,-0.1786652058,,,
1.4687500000,0,0.0691680908,,,
1.4843750000,0,0.2841567993,,,
1.5000000000,0,0.4162369072,,,
1.5156250000,0,0.4574432075,,,
1.5312500000,0,0.4436798096,,,
1.5468750000,0,0.4046097100,,,
1.5625000000,0,0.3494949043,,,
1.5781250000,0,0.2457809001,,,
1.5937500000,0,0.0568161011,,,
1.6093750000,0,-0.2342299968,,,
1.6250000000,0,-0.6080170274,,,
1.6406250000,0,-1.0005040169,,,
1.6562500000,0,-1.3342670202,,,
1.6718750000,0,-1.5523760319,,,
1.6875000000,0,-1.6568150520,,,
1.7031250000,0,-1.6934280396,,,
1.7187500000,0,-1.7362749577,,,
1.7343750000,0,-1.8282170296,,,
1.7500000000,0,-1.9649579525,,,
1.7656250000,0,-2.0790328979,,,
1.7812500000,0,-2.0834810734,,,
1.7968750000,0,-1.9117200375,,,
1.8125000000,0,-1.5576930046,,,
1.8281250000,0,-1.0974119902,,,
1.8437500000,0,-0.6528015137,,,
1.8593750000,0,-0.3413239121,,,
1.8750000000,0,-0.2354889065,,,
1.8906250000,0,-0.3093642890,,,
1.9062500000,0,-0.4702225029,,,
1.9218750000,0,-0.5947266221,,,
1.9375000000,0,-0.5787811279,,,
1.9531250000,0,-0.3978270888,,,
1.9687500000,0,-0.0829772875,,,
1.9843750000,0,0.2748947144,,,
2.0000000000,0,0.5732269287,,,
2.0156250000,0,0.7389984131,,,
2.0312500000,0,0.7527083755,,,
2.0468750000,0,0.6621779799,,,
2.0625000000,0,0.5453720093,,,
2.0781250000,0,0.4716720879,,,
2.0937500000,0,0.4799576104,,,
2.1093750000,0,0.5405883789,,,
2.1250000000,0,0.6196517944,,,
2.1406250000,0,0.6713790894,,,
2.1562500000,0,0.6838989258,,,
2.1718750000,0,0.6681137085,,,
2.1875000000,0,0.6422805786,,,
2.2031250000,0,0.6133040786,,,
2.2187500000,0,0.5742415786,,,
2.2343750000,0,0.5311279297,,,
2.2500000000,0,0.4880295098,,,
2.2656250000,0,0.4727172852,,,
2.2812500000,0,0.4861679077,,,
2.2968750000,0,0.4912109077,,,
2.3125000000,0,0.4192734063,,,
2.3281250000,0,0.2103500068,,,
2.3437500000,0,-0.1233521029,,,
2.3593750000,0,-0.4707030952,,,
2.3750000000,0,-0.6751937866,,,
2.3906250000,0,-0.6188126206,,,
2.4062500000,0,-0.2998428047,,,
2.4218750000,0,0.1508865058,,,
2.4375000000,0,0.5394592285,,,
2.4531250000,0,0.6835631728,,,
2.4687500000,0,0.5229567885,,,
2.4843750000,0,0.1411513984,,,
2.5000000000,0,-0.2776108086,,,
2.5156250000,0,-0.5408325195,,,
2.5312500000,0,-0.5414124131,,,
2.5468750000,0,-0.3016281128,,,
2.5625000000,0,0.0369567908,,,
2.5781250000,0,0.2960663140,,,
2.5937500000,0,0.3540039063,,,
2.6093750000,0,0.1782684028,,,
2.6250000000,0,-0.1357268989,,,
2.6406250000,0,-0.4327315986,,,
2.6562500000,0,-0.5801239014,,,
2.6718750000,0,-0.5307617188,,,
2.6875000000,0,-0.3360824883,,,
2.7031250000,0,-0.1041183025,,,
2.7187500000,0,0.0715179369,,,
2.7343750000,0,0.1805420071,,,
2.7500000000,0,0.2595215142,,,
2.7656250000,0,0.3707503974,,,
2.7812500000,0,0.5464630127,,,
2.7968750000,0,0.7649611831,,,
2.8125000000,0,0.9653015137,,,
2.8281250000,0,1.1070790291,,,
2.8437500000,0,1.1730649471,,,
2.8593750000,0,1.1981199980,,,
2.8750000000,0,1.2348099947,,,
2.8906250000,0,1.3139499426,,,
2.9062500000,0,1.4103469849,,,
2.9218750000,0,1.4688260555,,,
2.9375000000,0,1.4273990393,,,
2.9531250000,0,1.2605739832,,,
2.9687500000,0,1.0022579432,,,
2.9843750000,0,0.7173156738,,,
3.0000000000,0,0.4911957085,,,
3.0156250000,0,0.3794631958,,,
3.0312500000,0,0.4022521973,,,
3.0468750000,0,0.5338286757,,,
3.0625000000,0,0.7327728271,,,
3.0781250000,0,0.9520034790,,,
3.0937500000,0,1.1613160372,,,
3.1093750000,0,1.3394850492,,,
3.1250000000,0,1.4594500065,,,
3.1406250000,0,1.4861760139,,,
3.1562500000,0,1.3714979887,,,
3.1718750000,0,1.0906980038,,,
3.1875000000,0,0.6715393066,,,
3.2031250000,0,0.1957702935,,,
3.2187500000,0,-0.2130279988,,,
3.2343750000,0,-0.4379577935,,,
3.2500000000,0,-0.4349518120,,,
3.2656250000,0,-0.2574692070,,,
3.2812500000,0,-0.0332412682,,,
3.2968750000,0,0.1069564968,,,
3.3125000000,0,0.1004332975,,,
3.3281250000,0,-0.0026245120,,,
3.3437500000,0,-0.0935363770,,,
3.3593750000,0,-0.0722656325,,,
3.3750000000,0,0.0761032104,,,
3.3906250000,0,0.2652511895,,,
3.4062500000,0,0.3412094116,,,
3.4218750000,0,0.1788558960,,,
3.4375000000,0,-0.2407989949,,,
3.4531250000,0,-0.8297119141,,,
3.4687500000,0,-1.4345860481,,,
3.4843750000,0,-1.9014509916,,,
3.5000000000,0,-2.1396329403,,,
3.5156250000,0,-2.1358869076,,,
3.5312500000,0,-1.9379199743,,,
3.5468750000,0,-1.6340179443,,,
3.5625000000,0,-1.2993769646,,,
3.5781250000,0,-0.9840927124,,,
3.5937500000,0,-0.7065200806,,,
3.6093750000,0,-0.4518814087,,,
3.6250000000,0,-0.1982422024,,,
3.6406250000,0,0.0707168579,,,
3.6562500000,0,0.3483658135,,,
3.6718750000,0,0.5999146104,,,
3.6875000000,0,0.7948226929,,,
3.7031250000,0,0.9108734131,,,
3.7187500000,0,0.9630889893,,,
3.7343750000,0,0.9819260240,,,
3.7500000000,0,1.0032730103,,,
3.7656250000,0,1.0321199894,,,
3.7812500000,0,1.0481189489,,,
3.7968750000,0,1.0164949894,,,
3.8125000000,0,0.9252396226,,,
3.8281250000,0,0.8066558838,,,
3.8437500000,0,0.7144240737,,,
3.8593750000,0,0.6982573867,,,
3.8750000000,0,0.7687758803,,,
3.8906250000,0,0.9071503282,,,
3.9062500000,0,1.0485149622,,,
3.9218750000,0,1.1427459717,,,
3.9375000000,0,1.1638950109,,,
3.9531250000,0,1.1229020357,,,
3.9687500000,0,1.0396499634,,,
3.9843750000,0,0.9155579209,,,
4.0000000000,0,0.7291259766,,,
4.0156250000,0,0.4537734985,,,
4.0312500000,0,0.1119080037,,,
4.0468750000,0,-0.2154998928,,,
4.0625000000,0,-0.3922424018,,,
4.0781250000,0,-0.3068161011,,,
4.0937500000,0,0.0557403602,,,
4.1093750000,0,0.5864257813,,,
4.1250000000,0,1.1060099602,,,
4.1406250000,0,1.4277880192,,,
4.1562500000,0,1.4595489502,,,
4.1718750000,0,1.2213360071,,,
4.1875000000,0,0.8133469224,,,
4.2031250000,0,0.3561783135,,,
4.2187500000,0,-0.0702667236,,,
4.2343750000,0,-0.4539412856,,,
4.2500000000,0,-0.8077011108,,,
4.2656250000,0,-1.1467900276,,,
4.2812500000,0,-1.4556269646,,,
4.2968750000,0,-1.6949390173,,,
4.3125000000,0,-1.8225560188,,,
4.3281250000,0,-1.8129349947,,,
4.3437500000,0,-1.6660840511,,,
4.3593750000,0,-1.3942719698,,,
4.3750000000,0,-1.0265120268,,,
4.3906250000,0,-0.5923615098,,,
4.4062500000,0,-0.1625823975,,,
4.4218750000,0,0.1845702976,,,
4.4375000000,0,0.3750534058,,,
4.4531250000,0,0.3652344048,,,
4.4687500000,0,0.1649779975,,,
4.4843750000,0,-0.1727142036,,,
4.5000000000,0,-0.5546494126,,,
4.5156250000,0,-0.8794249892,,,
4.5312500000,0,-1.0640410185,,,
4.5468750000,0,-1.0678859949,,,
4.5625000000,0,-0.8936461806,,,
4.5781250000,0,-0.5921707153,,,
4.5937500000,0,-0.2433318943,,,
4.6093750000,0,0.0745391771,,,
4.6250000000,0,0.3044357002,,,
4.6406250000,0,0.4261398017,,,
4.6562500000,0,0.4518660903,,,
4.6718750000,0,0.4125671089,,,
4.6875000000,0,0.3434067070,,,
4.7031250000,0,0.2703247070,,,
4.7187500000,0,0.2274093926,,,
4.7343750000,0,0.2489394993,,,
4.7500000000,0,0.3777770996,,,
4.7656250000,0,0.6237717271,,,
4.7812500000,0,0.9467772841,,,
4.7968750000,0,1.2364959717,,,
4.8125000000,0,1.3695069551,,,
4.8281250000,0,1.2541500330,,,
4.8437500000,0,0.8881378174,,,
4.8593750000,0,0.3698653877,,,
4.8750000000,0,-0.1537704021,,,
4.8906250000,0,-0.5312728882,,,
4.9062500000,0,-0.6894072890,,,
4.9218750000,0,-0.6470870972,,,
4.9375000000,0,-0.5098876953,,,
4.9531250000,0,-0.4061965942,,,
4.9687500000,0,-0.4335632026,,,
4.9843750000,0,-0.6054915786,,,
5.0000000000,0,-0.8622283936,,,
5.0156250000,0,-1.1140899658,,,
5.0312500000,0,-1.3131409883,,,
5.0468750000,0,-1.4534610510,,,
5.0625000000,0,-1.5656739473,,,
5.0781250000,0,-1.6667939425,,,
5.0937500000,0,-1.7198719978,,,
5.1093750000,0,-1.6270519495,,,
5.1250000000,0,-1.3046259880,,,
5.1406250000,0,-0.7463530898,,,
5.1562500000,0,-0.0783843994,,,
5.1718750000,0,0.4876174927,,,
5.1875000000,0,0.7638015747,,,
5.2031250000,0,0.6856536865,,,
5.2187500000,0,0.3729782104,,,
5.2343750000,0,0.0607910194,,,
5.2500000000,0,-0.0478286706,,,
5.2656250000,0,0.1010437012,,,
5.2812500000,0,0.3814773858,,,
5.2968750000,0,0.5581130981,,,
5.3125000000,0,0.4499053955,,,
5.3281250000,0,0.0382156409,,,
5.3437500000,0,-0.5277327895,,,
5.3593750000,0,-0.9990081787,,,
5.3750000000,0,-1.1928329468,,,
5.3906250000,0,-1.0422290564,,,
5.4062500000,0,-0.6405944824,,,
5.4218750000,0,-0.1383972019,,,
5.4375000000,0,0.3505935967,,,
5.4531250000,0,0.7941132188,,,
5.4687500000,0,1.2042690516,,,
5.4843750000,0,1.5621490479,,,
5.5000000000,0,1.7806550264,,,
5.5156250000,0,1.7381520271,,,
5.5312500000,0,1.3735120296,,,
5.5468750000,0,0.7606583238,,,
5.5625000000,0,0.1013946980,,,
5.5781250000,0,-0.3689422905,,,
5.5937500000,0,-0.5049896240,,,
5.6093750000,0,-0.3345794976,,,
5.6250000000,0,-0.0283508301,,,
5.6406250000,0,0.2172012031,,,
5.6562500000,0,0.2781906128,,,
5.6718750000,0,0.1915664971,,,
5.6875000000,0,0.0971450806,,,
5.7031250000,0,0.1336288005,,,
5.7187500000,0,0.3549270928,,,
5.7343750000,0,0.6859282851,,,
5.7500000000,0,0.9759368896,,,
5.7656250000,0,1.1017069817,,,
5.7812500000,0,1.0381770134,,,
5.7968750000,0,0.8510512710,,,
5.8125000000,0,0.6430358887,,,
5.8281250000,0,0.4971008003,,,
5.8437500000,0,0.3970718086,,,
5.8593750000,0,0.2677536011,,,
5.8750000000,0,0.0021438601,,,
5.8906250000,0,-0.4354630113,,,
5.9062500000,0,-0.9742354751,,,
5.9218750000,0,-1.4622730017,,,
5.9375000000,0,-1.7454299927,,,
5.9531250000,0,-1.7455830574,,,
5.9687500000,0,-1.5150599480,,,
5.9843750000,0,-1.2067259550,,,
6.0000000000,0,-1.0084229708,,,
6.0156250000,0,-1.0400309563,,,
6.0312500000,0,-1.2773970366,,,
6.0468750000,0,-1.5848619938,,,
6.0625000000,0,-1.7820659876,,,
6.0781250000,0,-1.7359540462,,,
6.0937500000,0,-1.4306110144,,,
6.1093750000,0,-0.9647827148,,,
6.1250000000,0,-0.4901657104,,,
6.1406250000,0,-0.1174926981,,,
6.1562500000,0,0.1227492988,,,
6.1718750000,0,0.2725754082,,,
6.1875000000,0,0.4165115058,,,
6.2031250000,0,0.5947495103,,,
6.2187500000,0,0.8007125854,,,
6.2343750000,0,0.9771422744,,,
6.2500000000,0,1.0588530302,,,
6.2656250000,0,1.0125050545,,,
6.2812500000,0,0.8685225844,,,
6.2968750000,0,0.7081298828,,,
6.3125000000,0,0.6094055176,,,
6.3281250000,0,0.6414489746,,,
6.3437500000,0,0.8098526001,,,
6.3593750000,0,1.0717090368,,,
6.3750000000,0,1.3460619450,,,
6.3906250000,0,1.5327450037,,,
6.4062500000,0,1.5414960384,,,
6.4218750000,0,1.3228379488,,,
6.4375000000,0,0.8737869263,,,
6.4531250000,0,0.2491607964,,,
6.4687500000,0,-0.4558486938,,,
6.4843750000,0,-1.1065900326,,,
6.5000000000,0,-1.5892490149,,,
6.5156250000,0,-1.8338849545,,,
6.5312500000,0,-1.8397450447,,,
6.5468750000,0,-1.6708370447,,,
6.5625000000,0,-1.4241640568,,,
6.5781250000,0,-1.1816099882,,,
6.5937500000,0,-0.9864426255,,,
6.6093750000,0,-0.8544769287,,,
6.6250000000,0,-0.7874451280,,,
6.6406250000,0,-0.7876663208,,,
6.6562500000,0,-0.8419951797,,,
6.6718750000,0,-0.9132155776,,,
6.6875000000,0,-0.9119567871,,,
6.7031250000,0,-0.7381439209,,,
6.7187500000,0,-0.3296509087,,,
6.7343750000,0,0.2788161933,,,
6.7500000000,0,0.9494553208,,,
6.7656250000,0,1.4800339937,,,
6.7812500000,0,1.7031559944,,,
6.7968750000,0,1.5587689877,,,
6.8125000000,0,1.1310349703,,,
6.8281250000,0,0.6046906114,,,
6.8437500000,0,0.1721725017,,,
6.8593750000,0,-0.0595626794,,,
6.8750000000,0,-0.0950317383,,,
6.8906250000,0,-0.0254516602,,,
6.9062500000,0,0.0383834802,,,
6.9218750000,0,0.0233840905,,,
6.9375000000,0,-0.0775604174,,,
6.9531250000,0,-0.2367630005,,,
6.9687500000,0,-0.4195404053,,,
6.9843750000,0,-0.6029738784,,,
7.0000000000,0,-0.7846602798,,,
7.0156250000,0,-0.9508591294,,,
7.0312500000,0,-1.0701450109,,,
7.0468750000,0,-1.0932010412,,,
7.0625000000,0,-0.9972838759,,,
7.0781250000,0,-0.8056945801,,,
7.0937500000,0,-0.5960922241,,,
7.1093750000,0,-0.4577484131,,,
7.1250000000,0,-0.4445190132,,,
7.1406250000,0,-0.5225142837,,,
7.1562500000,0,-0.5801392198,,,
7.1718750000,0,-0.4977797866,,,
7.1875000000,0,-0.2029266059,,,
7.2031250000,0,0.2594527900,,,
7.2187500000,0,0.7691802979,,,
7.2343750000,0,1.1667790413,,,
7.2500000000,0,1.3388750553,,,
7.2656250000,0,1.2626039982,,,
7.2812500000,0,1.0072170496,,,
7.2968750000,0,0.6880034804,,,
7.3125000000,0,0.4063796997,,,
7.3281250000,0,0.2041855007,,,
7.3437500000,0,0.0644378737,,,
7.3593750000,0,-0.0558166504,,,
7.3750000000,0,-0.1987610012,,,
7.3906250000,0,-0.3615646064,,,
7.4062500000,0,-0.5177230835,,,
7.4218750000,0,-0.6328582764,,,
7.4375000000,0,-0.6818161011,,,
7.4531250000,0,-0.6583098769,,,
7.4687500000,0,-0.5910034180,,,
7.4843750000,0,-0.4897690117,,,
7.5000000000,0,-0.3668900132,,,
7.5156250000,0,-0.2317429036,,,
7.5312500000,0,-0.0865173265,,,
7.5468750000,0,0.0489883386,,,
7.5625000000,0,0.1381302029,,,
7.5781250000,0,0.1656417996,,,
7.5937500000,0,0.1403274983,,,
7.6093750000,0,0.1138762981,,,
7.6250000000,0,0.1590957940,,,
7.6406250000,0,0.3270950019,,,
7.6562500000,0,0.6027755737,,,
7.6718750000,0,0.8988494873,,,
7.6875000000,0,1.0975040197,,,
7.7031250000,0,1.0943909883,,,
7.7187500000,0,0.8760375977,,,
7.7343750000,0,0.5147171021,,,
7.7500000000,0,0.1509705037,,,
7.7656250000,0,-0.0909957886,,,
7.7812500000,0,-0.1759566963,,,
7.7968750000,0,-0.1678695977,,,
7.8125000000,0,-0.1809158027,,,
7.8281250000,0,-0.3234558105,,,
7.8437500000,0,-0.6062697768,,,
7.8593750000,0,-0.9476242065,,,
7.8750000000,0,-1.2302249670,,,
7.8906250000,0,-1.3626630306,,,
7.9062500000,0,-1.3467789888,,,
7.9218750000,0,-1.2477719784,,,
7.9375000000,0,-1.1417920589,,,
7.9531250000,0,-1.0289759636,,,
7.9687500000,0,-0.8786926270,,,
7.9843750000,0,-0.6248245239,,,
8.0000000000,1,-0.2611770928,,,
8.0156250000,1,0.1473540962,,,
8.0312500000,1,0.5021743774,,,
8.0468750000,1,0.7184296250,,,
8.0625000000,1,0.7704544067,,,
8.0781250000,1,0.6987534165,,,
8.0937500000,1,0.5716400146,,,
8.1093750000,1,0.4319686890,,,
8.1250000000,1,0.2994307876,,,
8.1406250000,1,0.1971053928,,,
8.1562500000,1,0.1533813030,,,
8.1718750000,1,0.2062301934,,,
8.1875000000,1,0.3746795952,,,
8.2031250000,1,0.6307373047,,,
8.2187500000,1,0.9021453857,,,
8.2343750000,1,1.1049959660,,,
8.2500000000,1,1.1928019524,,,
8.2656250000,1,1.1915359497,,,
8.2812500000,1,1.1674269438,,,
8.2968750000,1,1.1689679623,,,
8.3125000000,1,1.2077640295,,,
8.3281250000,1,1.2302089930,,,
8.3437500000,1,1.1766589880,,,
8.3593750000,1,1.0122679472,,,
8.3750000000,1,0.7811660767,,,
8.3906250000,1,0.5841063857,,,
8.4062500000,1,0.5252838135,,,
8.4218750000,1,0.6428298950,,,
8.4375000000,1,0.8755112290,,,
8.4531250000,1,1.0929490328,,,
8.4687500000,1,1.1468119621,,,
8.4843750000,1,0.9661788940,,,
8.5000000000,1,0.5804061890,,,
8.5156250000,1,0.1005629972,,,
8.5312500000,1,-0.3365631104,,,
8.5468750000,1,-0.6305618286,,,
8.5625000000,1,-0.7439957261,,,
8.5781250000,1,-0.7042160034,,,
8.5937500000,1,-0.5581511855,,,
8.6093750000,1,-0.3590775132,,,
8.6250000000,1,-0.1646042019,,,
8.6406250000,1,-0.0123672504,,,
8.6562500000,1,0.0542526208,,,
8.6718750000,1,0.0015945430,,,
8.6875000000,1,-0.1750641018,,,
8.7031250000,1,-0.4431534111,,,
8.7187500000,1,-0.7187805176,,,
8.7343750000,1,-0.9136353135,,,
8.7500000000,1,-0.9407958984,,,
8.7656250000,1,-0.7596129775,,,
8.7812500000,1,-0.3888092041,,,
8.7968750000,1,0.0723266602,,,
8.8125000000,1,0.4871979058,,,
8.8281250000,1,0.7170792222,,,
8.8437500000,1,0.6857681274,,,
8.8593750000,1,0.4113006890,,,
8.8750000000,1,0.0148773203,,,
8.8906250000,1,-0.3257369995,,,
8.9062500000,1,-0.4751205146,,,
8.9218750000,1,-0.3819046021,,,
8.9375000000,1,-0.1048125997,,,
8.9531250000,1,0.2402344048,,,
8.9687500000,1,0.5339279175,,,
8.9843750000,1,0.7176818848,,,
9.0000000000,1,0.7925109863,,,
9.0156250000,1,0.7890853882,,,
9.0312500000,1,0.7108383179,,,
9.0468750000,1,0.5278549194,,,
9.0625000000,1,0.2041855007,,,
9.0781250000,1,-0.2523651123,,,
9.0937500000,1,-0.7455902100,,,
9.1093750000,1,-1.1211700439,,,
9.1250000000,1,-1.2346500158,,,
9.1406250000,1,-1.0352330208,,,
9.1562500000,1,-0.6142807007,,,
9.1718750000,1,-0.1661529988,,,
9.1875000000,1,0.1034697965,,,
9.2031250000,1,0.0691452026,,,
9.2187500000,1,-0.2350234985,,,
9.2343750000,1,-0.6660156250,,,
9.2500000000,1,-1.0249400139,,,
9.2656250000,1,-1.1651760340,,,
9.2812500000,1,-1.0465159416,,,
9.2968750000,1,-0.7515258789,,,
9.3125000000,1,-0.4296646118,,,
9.3281250000,1,-0.2285995036,,,
9.3437500000,1,-0.2319716960,,,
9.3593750000,1,-0.4332808852,,,
9.3750000000,1,-0.7500762939,,,
9.3906250000,1,-1.0462570190,,,
9.4062500000,1,-1.1873019934,,,
9.4218750000,1,-1.0624539852,,,
9.4375000000,1,-0.6418762207,,,
9.4531250000,1,0.0175781306,,,
9.4687500000,1,0.7565460205,,,
9.4843750000,1,1.3690259457,,,
9.5000000000,1,1.6595540047,,,
9.5156250000,1,1.5457609892,,,
9.5312500000,1,1.1020970345,,,
9.5468750000,1,0.5290297866,,,
9.5625000000,1,0.0671539307,,,
9.5781250000,1,-0.1115036011,,,
9.5937500000,1,0.0075988770,,,
9.6093750000,1,0.2892226875,,,
9.6250000000,1,0.5346068740,,,
9.6406250000,1,0.5890120864,,,
9.6562500000,1,0.4110946953,,,
9.6718750000,1,0.0736694336,,,
9.6875000000,1,-0.2983169854,,,
9.7031250000,1,-0.6131821275,,,
9.7187500000,1,-0.8451766968,,,
9.7343750000,1,-1.0131299496,,,
9.7500000000,1,-1.1503599882,,,
9.7656250000,1,-1.2406309843,,,
9.7812500000,1,-1.2403719425,,,
9.7968750000,1,-1.1129989624,,,
9.8125000000,1,-0.8544235229,,,
9.8281250000,1,-0.5251235962,,,
9.8437500000,1,-0.1944808960,,,
9.8593750000,1,0.0838699266,,,
9.8750000000,1,0.3057403862,,,
9.8906250000,1,0.4778136909,,,
9.9062500000,1,0.5964508057,,,
9.9218750000,1,0.6487122178,,,
9.9375000000,1,0.6034163833,,,
9.9531250000,1,0.4902878106,,,
9.9687500000,1,0.3769302070,,,
9.9843750000,1,0.3782958984,,,
10.0000000000,1,0.5479583740,,,
10.0156250000,1,0.8433455825,,,
10.0312500000,1,1.1279749870,,,
10.0468750000,1,1.2456740141,,,
10.0625000000,1,1.1245729923,,,
10.0781250000,1,0.8166962266,,,
10.0937500000,1,0.4669036865,,,
10.1093750000,1,0.2028121948,,,
10.1250000000,1,0.0726089478,,,
10.1406250000,1,0.0346603394,,,
10.1562500000,1,0.0007934570,,,
10.1718750000,1,-0.1003647000,,,
10.1875000000,1,-0.2876662910,,,
10.2031250000,1,-0.5382996202,,,
10.2187500000,1,-0.8192443848,,,
10.2343750000,1,-1.0901570320,,,
10.2500000000,1,-1.3194580078,,,
10.2656250000,1,-1.4678039551,,,
10.2812500000,1,-1.5156480074,,,
10.2968750000,1,-1.4798049927,,,
10.3125000000,1,-1.3745039701,,,
10.3281250000,1,-1.2197270393,,,
10.3437500000,1,-0.9935073853,,,
10.3593750000,1,-0.6557465196,,,
10.3750000000,1,-0.1729279011,,,
10.3906250000,1,0.3916245103,,,
10.4062500000,1,0.8903350830,,,
10.4218750000,1,1.1673510075,,,
10.4375000000,1,1.1504060030,,,
10.4531250000,1,0.9207916260,,,
10.4687500000,1,0.6642150879,,,
10.4843750000,1,0.5780106187,,,
10.5000000000,1,0.7332839966,,,
10.5156250000,1,1.0501860380,,,
10.5312500000,1,1.3588709831,,,
10.5468750000,1,1.5061420202,,,
10.5625000000,1,1.4373550415,,,
10.5781250000,1,1.2002489567,,,
10.5937500000,1,0.8787230849,,,
10.6093750000,1,0.5240706801,,,
10.6250000000,1,0.1243439019,,,
10.6406250000,1,-0.3485640883,,,
10.6562500000,1,-0.8711853027,,,
10.6718750000,1,-1.3504329920,,,
10.6875000000,1,-1.6357799768,,,
10.7031250000,1,-1.6192170382,,,
10.7187500000,1,-1.2833559513,,,
10.7343750000,1,-0.7469863892,,,
10.7500000000,1,-0.2171860039,,,
10.7656250000,1,0.0930481032,,,
10.7812500000,1,0.0596237183,,,
10.7968750000,1,-0.3151473999,,,
10.8125000000,1,-0.8886032104,,,
10.8281250000,1,-1.4317549467,,,
10.8437500000,1,-1.7216800451,,,
10.8593750000,1,-1.6254580021,,,
10.8750000000,1,-1.1361620426,,,
10.8906250000,1,-0.3843154907,,,
10.9062500000,1,0.4383926094,,,
10.9218750000,1,1.1318279505,,,
10.9375000000,1,1.5763169527,,,
10.9531250000,1,1.7258000374,,,
10.9687500000,1,1.6104660034,,,
10.9843750000,1,1.3046339750,,,
11.0000000000,1,0.9032897949,,,
11.0156250000,1,0.5081710815,,,
11.0312500000,1,0.1965103000,,,
11.0468750000,1,0.0125350999,,,
11.0625000000,1,-0.0524673499,,,
11.0781250000,1,-0.0475006104,,,
11.0937500000,1,-0.0419998206,,,
11.1093750000,1,-0.0819778368,,,
11.1250000000,1,-0.1707001030,,,
11.1406250000,1,-0.2807236016,,,
11.1562500000,1,-0.3725891113,,,
11.1718750000,1,-0.4225310981,,,
11.1875000000,1,-0.4137802124,,,
11.2031250000,1,-0.3380202949,,,
11.2187500000,1,-0.1750870049,,,
11.2343750000,1,0.0895919800,,,
11.2500000000,1,0.4496918023,,,
11.2656250000,1,0.8392410278,,,
11.2812500000,1,1.1597059965,,,
11.2968750000,1,1.2964400053,,,
11.3125000000,1,1.1929090023,,,
11.3281250000,1,0.8780441284,,,
11.3437500000,1,0.4421234131,,,
11.3593750000,1,0.0031204219,,,
11.3750000000,1,-0.3421401978,,,
11.3906250000,1,-0.5517960191,,,
11.4062500000,1,-0.6311110854,,,
11.4218750000,1,-0.5962982178,,,
11.4375000000,1,-0.4757308960,,,
11.4531250000,1,-0.2796097100,,,
11.4687500000,1,-0.0258865394,,,
11.4843750000,1,0.2641677856,,,
11.5000000000,1,0.5409697890,,,
11.5156250000,1,0.7436522841,,,
11.5312500000,1,0.8114699721,,,
11.5468750000,1,0.7003632188,,,
11.5625000000,1,0.4226912856,,,
11.5781250000,1,0.0313491784,,,
11.5937500000,1,-0.3780212104,,,
11.6093750000,1,-0.7055664063,,,
11.6250000000,1,-0.8982620239,,,
11.6406250000,1,-0.9638367295,,,
11.6562500000,1,-0.9467620850,,,
11.6718750000,1,-0.9089279175,,,
11.6875000000,1,-0.8736801147,,,
11.7031250000,1,-0.8189697266,,,
11.7187500000,1,-0.7014998794,,,
11.7343750000,1,-0.5171279907,,,
11.7500000000,1,-0.3330535889,,,
11.7656250000,1,-0.2597655952,,,
11.7812500000,1,-0.3796463013,,,
11.7968750000,1,-0.6828002930,,,
11.8125000000,1,-1.0467530489,,,
11.8281250000,1,-1.2903670073,,,
11.8437500000,1,-1.2826390266,,,
11.8593750000,1,-1.0048370361,,,
11.8750000000,1,-0.5581665039,,,
11.8906250000,1,-0.1119994968,,,
11.9062500000,1,0.1882324070,,,
11.9218750000,1,0.2897872925,,,
11.9375000000,1,0.2326201946,,,
11.9531250000,1,0.1270599067,,,
11.9687500000,1,0.0941085815,,,
11.9843750000,1,0.2201157063,,,
12.0000000000,1,0.5231934190,,,
12.0156250000,1,0.9399796128,,,
12.0312500000,1,1.3319239616,,,
12.0468750000,1,1.5519870520,,,
12.0625000000,1,1.4966429472,,,
12.0781250000,1,1.1604460478,,,
12.0937500000,1,0.6537399292,,,
12.1093750000,1,0.1642760932,,,
12.1250000000,1,-0.1388244927,,,
12.1406250000,1,-0.1873703003,,,
12.1562500000,1,-0.0161514301,,,
12.1718750000,1,0.2448883057,,,
12.1875000000,1,0.4693908989,,,
12.2031250000,1,0.5823745728,,,
12.2187500000,1,0.5824279785,,,
12.2343750000,1,0.5144805908,,,
12.2500000000,1,0.4143218994,,,
12.2656250000,1,0.2849654853,,,
12.2812500000,1,0.1085205004,,,
12.2968750000,1,-0.1229477003,,,
12.3125000000,1,-0.3795242012,,,
12.3281250000,1,-0.5873795152,,,
12.3437500000,1,-0.6659697890,,,
12.3593750000,1,-0.5747756958,,,
12.3750000000,1,-0.3458786011,,,
12.3906250000,1,-0.0756530836,,,
12.4062500000,1,0.1253509969,,,
12.4218750000,1,0.2023086995,,,
12.4375000000,1,0.1766815037,,,
12.4531250000,1,0.1201476976,,,
12.4687500000,1,0.1009598002,,,
12.4843750000,1,0.1252517998,,,
12.5000000000,1,0.1236495972,,,
12.5156250000,1,0.0241165198,,,
12.5312500000,1,-0.2097472996,,,
12.5468750000,1,-0.5295639038,,,
12.5625000000,1,-0.8272780776,,,
12.5781250000,1,-0.9868621826,,,
12.5937500000,1,-0.9631041884,,,
12.6093750000,1,-0.7704238892,,,
12.6250000000,1,-0.5022658706,,,
12.6406250000,1,-0.2626189888,,,
12.6562500000,1,-0.1343993992,,,
12.6718750000,1,-0.1484450996,,,
12.6875000000,1,-0.2710114121,,,
12.7031250000,1,-0.4366913140,,,
12.7187500000,1,-0.5461196899,,,
12.7343750000,1,-0.5197905898,,,
12.7500000000,1,-0.3074035943,,,
12.7656250000,1,0.0671157837,,,
12.7812500000,1,0.5285416245,,,
12.7968750000,1,0.9619904160,,,
12.8125000000,1,1.2771910429,,,
12.8281250000,1,1.4197460413,,,
12.8437500000,1,1.3973850012,,,
12.8593750000,1,1.2619249821,,,
12.8750000000,1,1.0571750402,,,
12.8906250000,1,0.7979813218,,,
12.9062500000,1,0.4757080078,,,
12.9218750000,1,0.0970077515,,,
12.9375000000,1,-0.3039779961,,,
12.9531250000,1,-0.6413651109,,,
12.9687500000,1,-0.8235015869,,,
12.9843750000,1,-0.7844390869,,,
13.0000000000,1,-0.5535659790,,,
13.0156250000,1,-0.2411804050,,,
13.0312500000,1,0.0229186993,,,
13.0468750000,1,0.1453323066,,,
13.0625000000,1,0.1321410984,,,
13.0781250000,1,0.0764465332,,,
13.0937500000,1,0.0725936890,,,
13.1093750000,1,0.1633453071,,,
13.1250000000,1,0.2745513916,,,
13.1406250000,1,0.2927856147,,,
13.1562500000,1,0.1344452053,,,
13.1718750000,1,-0.1768569946,,,
13.1875000000,1,-0.4927443862,,,
13.2031250000,1,-0.6329650879,,,
13.2187500000,1,-0.4843750000,,,
13.2343750000,1,-0.0716247633,,,
13.2500000000,1,0.4545746148,,,
13.2656250000,1,0.8905410767,,,
13.2812500000,1,1.0919109583,,,
13.2968750000,1,1.0307079554,,,
13.3125000000,1,0.7873383164,,,
13.3281250000,1,0.4588623047,,,
13.3437500000,1,0.1132277995,,,
13.3593750000,1,-0.2509231865,,,
13.3750000000,1,-0.6448745728,,,
13.3906250000,1,-1.0466920137,,,
13.4062500000,1,-1.3789370060,,,
13.4218750000,1,-1.5311280489,,,
13.4375000000,1,-1.4483339787,,,
13.4531250000,1,-1.1606980562,,,
13.4687500000,1,-0.7963942885,,,
13.4843750000,1,-0.5082169175,,,
13.5000000000,1,-0.3936234117,,,
13.5156250000,1,-0.4402846992,,,
13.5312500000,1,-0.5321959853,,,
13.5468750000,1,-0.5254135132,,,
13.5625000000,1,-0.3356322944,,,
13.5781250000,1,0.0112381000,,,
13.5937500000,1,0.3936690986,,,
13.6093750000,1,0.6607741714,,,
13.6250000000,1,0.7207717896,,,
13.6406250000,1,0.5917664170,,,
13.6562500000,1,0.3655472100,,,
13.6718750000,1,0.1548538059,,,
13.6875000000,1,0.0274353009,,,
13.7031250000,1,-0.0139007596,,,
13.7187500000,1,-0.0093383789,,,
13.7343750000,1,0.0000457764,,,
13.7500000000,1,0.0023117070,,,
13.7656250000,1,0.0044021611,,,
13.7812500000,1,0.0179443397,,,
13.7968750000,1,0.0412292518,,,
13.8125000000,1,0.0713500977,,,
13.8281250000,1,0.1010283977,,,
13.8437500000,1,0.1597747952,,,
13.8593750000,1,0.2563171089,,,
13.8750000000,1,0.3894195855,,,
13.8906250000,1,0.5113297105,,,
13.9062500000,1,0.5410460830,,,
13.9218750000,1,0.4326553047,,,
13.9375000000,1,0.1953506023,,,
13.9531250000,1,-0.0679016113,,,
13.9687500000,1,-0.2263641059,,,
13.9843750000,1,-0.1853484958,,,
14.0000000000,1,0.0492324792,,,
14.0156250000,1,0.3847351074,,,
14.0312500000,1,0.6922072768,,,
14.0468750000,1,0.8691483140,,,
14.0625000000,1,0.8979721069,,,
14.0781250000,1,0.8314437866,,,
14.0937500000,1,0.7682343125,,,
14.1093750000,1,0.7821655273,,,
14.1250000000,1,0.8886260986,,,
14.1406250000,1,1.0401309729,,,
14.1562500000,1,1.1496119499,,,
14.1718750000,1,1.1449660063,,,
14.1875000000,1,0.9973449707,,,
14.2031250000,1,0.7381209731,,,
14.2187500000,1,0.4277648926,,,
14.2343750000,1,0.1233443990,,,
14.2500000000,1,-0.1617203057,,,
14.2656250000,1,-0.4404220879,,,
14.2812500000,1,-0.7174605727,,,
14.2968750000,1,-0.9742202759,,,
14.3125000000,1,-1.1388850212,,,
14.3281250000,1,-1.1260449886,,,
14.3437500000,1,-0.8775253296,,,
14.3593750000,1,-0.4275588989,,,
14.3750000000,1,0.1013260037,,,
14.3906250000,1,0.5190277100,,,
14.4062500000,1,0.6424713135,,,
14.4218750000,1,0.3876495063,,,
14.4375000000,1,-0.1874924004,,,
14.4531250000,1,-0.8991851807,,,
14.4687500000,1,-1.5225299597,,,
14.4843750000,1,-1.8774869442,,,
14.5000000000,1,-1.8944089413,,,
14.5156250000,1,-1.6295850277,,,
14.5312500000,1,-1.2008670568,,,
14.5468750000,1,-0.7229309082,,,
14.5625000000,1,-0.2763138115,,,
14.5781250000,1,0.1132965013,,,
14.5937500000,1,0.4318541884,,,
14.6093750000,1,0.6746978760,,,
14.6250000000,1,0.8412094116,,,
14.6406250000,1,0.9361953735,,,
14.6562500000,1,0.9856110215,,,
14.6718750000,1,1.0198669434,,,
14.6875000000,1,1.0355069637,,,
14.7031250000,1,0.9859390259,,,
14.7187500000,1,0.8112792969,,,
14.7343750000,1,0.5062255859,,,
14.7500000000,1,0.1494904011,,,
14.7656250000,1,-0.1156082004,,,
14.7812500000,1,-0.1392592937,,,
14.7968750000,1,0.1164017022,,,
14.8125000000,1,0.5578842163,,,
14.8281250000,1,1.0021209717,,,
14.8437500000,1,1.2808150053,,,
14.8593750000,1,1.3114089966,,,
14.8750000000,1,1.1308289766,,,
14.8906250000,1,0.8441162109,,,
14.9062500000,1,0.5459594727,,,
14.9218750000,1,0.2636489868,,,
14.9375000000,1,-0.0237197895,,,
14.9531250000,1,-0.3509292901,,,
14.9687500000,1,-0.7199478149,,,
14.9843750000,1,-1.0708080530,,,
15.0000000000,1,-1.2893450260,,,
15.0156250000,1,-1.2818449736,,,
15.0312500000,1,-1.0222630501,,,
15.0468750000,1,-0.5877150893,,,
15.0625000000,1,-0.1565704048,,,
15.0781250000,1,0.0889739990,,,
15.0937500000,1,0.0283203106,,,
15.1093750000,1,-0.3093338013,,,
15.1250000000,1,-0.7553710938,,,
15.1406250000,1,-1.0944290161,,,
15.1562500000,1,-1.1858060360,,,
15.1718750000,1,-1.0415040255,,,
15.1875000000,1,-0.8258438110,,,
15.2031250000,1,-0.7305526733,,,
15.2187500000,1,-0.8485947251,,,
15.2343750000,1,-1.0949480534,,,
15.2500000000,1,-1.2406920195,,,
15.2656250000,1,-1.0715099573,,,
15.2812500000,1,-0.5173950195,,,
15.2968750000,1,0.2835999131,,,
15.3125000000,1,1.0651860237,,,
15.3281250000,1,1.5629650354,,,
15.3437500000,1,1.6525650024,,,
15.3593750000,1,1.3823620081,,,
15.3750000000,1,0.9200820923,,,
15.3906250000,1,0.4487380981,,,
15.4062500000,1,0.1016082987,,,
15.4218750000,1,-0.0836715698,,,
15.4375000000,1,-0.1231003031,,,
15.4531250000,1,-0.0434036292,,,
15.4687500000,1,0.1159821004,,,
15.4843750000,1,0.3056640923,,,
15.5000000000,1,0.4647445977,,,
15.5156250000,1,0.5198975205,,,
15.5312500000,1,0.4307326972,,,
15.5468750000,1,0.2329102010,,,
15.5625000000,1,0.0096435547,,,
15.5781250000,1,-0.1153336018,,,
15.5937500000,1,-0.0610656701,,,
15.6093750000,1,0.1699447930,,,
15.6250000000,1,0.5042343140,,,
15.6406250000,1,0.8362578750,,,
15.6562500000,1,1.0600659847,,,
15.6718750000,1,1.1313170195,,,
15.6875000000,1,1.0444790125,,,
15.7031250000,1,0.8339766860,,,
15.7187500000,1,0.5546951294,,,
15.7343750000,1,0.2692183852,,,
15.7500000000,1,0.0578689612,,,
15.7656250000,1,-0.0236663800,,,
15.7812500000,1,0.0305252094,,,
15.7968750000,1,0.1516647041,,,
15.8125000000,1,0.2289275974,,,
15.8281250000,1,0.1751632988,,,
15.8437500000,1,-0.0264205895,,,
15.8593750000,1,-0.3158951104,,,
15.8750000000,1,-0.5786132813,,,
15.8906250000,1,-0.7439957261,,,
15.9062500000,1,-0.8104019165,,,
15.9218750000,1,-0.8524016738,,,
15.9375000000,1,-0.9620131850,,,
15.9531250000,1,-1.1777340174,,,
15.9687500000,1,-1.4471360445,,,
15.9843750000,1,-1.6581189632,,,
16.0000000000,2,-1.7014919519,,,
16.0156250000,2,-1.5268479586,,,
16.0312500000,2,-1.1674959660,,,
16.0468750000,2,-0.7116013169,,,
16.0625000000,2,-0.2606276870,,,
16.0781250000,2,0.1321410984,,,
16.0937500000,2,0.4432143867,,,
16.1093750000,2,0.6715927124,,,
16.1250000000,2,0.8096771240,,,
16.1406250000,2,0.8421173096,,,
16.1562500000,2,0.7394257188,,,
16.1718750000,2,0.5040053725,,,
16.1875000000,2,0.1797637939,,,
16.2031250000,2,-0.1415939033,,,
16.2187500000,2,-0.3519591987,,,
16.2343750000,2,-0.3732300103,,,
16.2500000000,2,-0.1867904961,,,
16.2656250000,2,0.1485747993,,,
16.2812500000,2,0.5281372070,,,
16.2968750000,2,0.8512877822,,,
16.3125000000,2,1.0515589714,,,
16.3281250000,2,1.1111600399,,,
16.3437500000,2,1.0605469942,,,
16.3593750000,2,0.9293212891,,,
16.3750000000,2,0.7446135879,,,
16.3906250000,2,0.5086746216,,,
16.4062500000,2,0.2120361030,,,
16.4218750000,2,-0.1393433064,,,
16.4375000000,2,-0.5260543823,,,
16.4531250000,2,-0.9032363892,,,
16.4687500000,2,-1.2229160070,,,
16.4843750000,2,-1.4171220064,,,
16.5000000000,2,-1.4398189783,,,
16.5156250000,2,-1.2563929558,,,
16.5312500000,2,-0.8857498169,,,
16.5468750000,2,-0.4056777954,,,
16.5625000000,2,0.0536193810,,,
16.5781250000,2,0.3701323867,,,
16.5937500000,2,0.4721221924,,,
16.6093750000,2,0.3820190132,,,
16.6250000000,2,0.2017516941,,,
16.6406250000,2,0.0371856689,,,
16.6562500000,2,-0.0560913086,,,
16.6718750000,2,-0.0953826904,,,
16.6875000000,2,-0.1440735012,,,
16.7031250000,2,-0.2378997952,,,
16.7187500000,2,-0.3722305000,,,
16.7343750000,2,-0.4900817871,,,
16.7500000000,2,-0.5353469849,,,
16.7656250000,2,-0.4881744087,,,
16.7812500000,2,-0.3789749146,,,
16.7968750000,2,-0.2593688965,,,
16.8125000000,2,-0.1641540974,,,
16.8281250000,2,-0.1002959982,,,
16.8437500000,2,-0.0503921509,,,
16.8593750000,2,-0.0078506470,,,
16.8750000000,2,0.0148239098,,,
16.8906250000,2,-0.0046997070,,,
16.9062500000,2,-0.0660018921,,,
16.9218750000,2,-0.1330032051,,,
16.9375000000,2,-0.1550522000,,,
16.9531250000,2,-0.0792999268,,,
16.9687500000,2,0.1061554030,,,
16.9843750000,2,0.3750610054,,,
17.0000000000,2,0.6693419814,,,
17.0156250000,2,0.9353256226,,,
17.0312500000,2,1.1300890446,,,
17.0468750000,2,1.2299649715,,,
17.0625000000,2,1.2185440063,,,
17.0781250000,2,1.0851819515,,,
17.0937500000,2,0.8390502930,,,
17.1093750000,2,0.5004730225,,,
17.1250000000,2,0.1166381985,,,
17.1406250000,2,-0.2634659111,,,
17.1562500000,2,-0.5966644287,,,
17.1718750000,2,-0.8667374253,,,
17.1875000000,2,-1.0681840181,,,
17.2031250000,2,-1.1760480404,,,
17.2187500000,2,-1.1578450203,,,
17.2343750000,2,-0.9892197251,,,
17.2500000000,2,-0.6866683960,,,
17.2656250000,2,-0.3305130005,,,
17.2812500000,2,-0.0239334106,,,
17.2968750000,2,0.1525344998,,,
17.3125000000,2,0.1955260932,,,
17.3281250000,2,0.1813659966,,,
17.3437500000,2,0.2210464031,,,
17.3593750000,2,0.3841705024,,,
17.3750000000,2,0.6620635986,,,
17.3906250000,2,0.9539108276,,,
17.4062500000,2,1.1494899988,,,
17.4218750000,2,1.1757659912,,,
17.4375000000,2,1.0420759916,,,
17.4531250000,2,0.8088684082,,,
17.4687500000,2,0.5537567139,,,
17.4843750000,2,0.3329772949,,,
17.5000000000,2,0.1687241048,,,
17.5156250000,2,0.0748138428,,,
17.5312500000,2,0.0480194092,,,
17.5468750000,2,0.0804595873,,,
17.5625000000,2,0.1435393989,,,
17.5781250000,2,0.1997527927,,,
17.5937500000,2,0.2240906060,,,
17.6093750000,2,0.1985397041,,,
17.6250000000,2,0.1262131035,,,
17.6406250000,2,0.0028686521,,,
17.6562500000,2,-0.1638489068,,,
17.6718750000,2,-0.3782806098,,,
17.6875000000,2,-0.6562653184,,,
17.7031250000,2,-0.9923018813,,,
17.7187500000,2,-1.3474880457,,,
17.7343750000,2,-1.6488339901,,,
17.7500000000,2,-1.7892910242,,,
17.7656250000,2,-1.6836780310,,,
17.7812500000,2,-1.3205569983,,,
17.7968750000,2,-0.7828598022,,,
17.8125000000,2,-0.2239913940,,,
17.8281250000,2,0.1915740967,,,
17.8437500000,2,0.3838805854,,,
17.8593750000,2,0.3856048882,,,
17.8750000000,2,0.3230971992,,,
17.8906250000,2,0.3217544854,,,
17.9062500000,2,0.4483489990,,,
17.9218750000,2,0.6595916748,,,
17.9375000000,2,0.8488997817,,,
17.9531250000,2,0.9216843247,,,
17.9687500000,2,0.8502197266,,,
17.9843750000,2,0.6876373291,,,
18.0000000000,2,0.5033264160,,,
18.0156250000,2,0.3555297852,,,
18.0312500000,2,0.2538375854,,,
18.0468750000,2,0.1897429973,,,
18.0625000000,2,0.1529922038,,,
18.0781250000,2,0.1485977024,,,
18.0937500000,2,0.1936111003,,,
18.1093750000,2,0.2947083116,,,
18.1250000000,2,0.4370728135,,,
18.1406250000,2,0.5791168213,,,
18.1562500000,2,0.6756591797,,,
18.1718750000,2,0.6717606187,,,
18.1875000000,2,0.5359497070,,,
18.2031250000,2,0.2661590874,,,
18.2187500000,2,-0.0703582764,,,
18.2343750000,2,-0.3420104980,,,
18.2500000000,2,-0.4036712945,,,
18.2656250000,2,-0.1672592014,,,
18.2812500000,2,0.2954865098,,,
18.2968750000,2,0.7656707764,,,
18.3125000000,2,0.9740142822,,,
18.3281250000,2,0.7455368042,,,
18.3437500000,2,0.1177368015,,,
18.3593750000,2,-0.6714782715,,,
18.3750000000,2,-1.3160860538,,,
18.3906250000,2,-1.6135710478,,,
18.4062500000,2,-1.5747070313,,,
18.4218750000,2,-1.3665770292,,,
18.4375000000,2,-1.1781159639,,,
18.4531250000,2,-1.0780719519,,,
18.4687500000,2,-0.9861907959,,,
18.4843750000,2,-0.7575759888,,,
18.5000000000,2,-0.3183059990,,,
18.5156250000,2,0.2506943047,,,
18.5312500000,2,0.7429047227,,,
18.5468750000,2,0.9743499756,,,
18.5625000000,2,0.8804398179,,,
18.5781250000,2,0.5580368042,,,
18.5937500000,2,0.1907653958,,,
18.6093750000,2,-0.0638046265,,,
18.6250000000,2,-0.1580886990,,,
18.6406250000,2,-0.1718444973,,,
18.6562500000,2,-0.2205124050,,,
18.6718750000,2,-0.3943481147,,,
18.6875000000,2,-0.6718062758,,,
18.7031250000,2,-0.9572448730,,,
18.7187500000,2,-1.1360629797,,,
18.7343750000,2,-1.1589200497,,,
18.7500000000,2,-1.0495990515,,,
18.7656250000,2,-0.8651351929,,,
18.7812500000,2,-0.6568375230,,,
18.7968750000,2,-0.4366683960,,,
18.8125000000,2,-0.1965256035,,,
18.8281250000,2,0.0618667603,,,
18.8437500000,2,0.3076553047,,,
18.8593750000,2,0.4706268013,,,
18.8750000000,2,0.4833374023,,,
18.8906250000,2,0.3255768120,,,
18.9062500000,2,0.0193023700,,,
18.9218750000,2,-0.3846664131,,,
18.9375000000,2,-0.8268660903,,,
18.9531250000,2,-1.2420040369,,,
18.9687500000,2,-1.5818250179,,,
18.9843750000,2,-1.7922519445,,,
19.0000000000,2,-1.8339689970,,,
19.0156250000,2,-1.6919560432,,,
19.0312500000,2,-1.4207990170,,,
19.0468750000,2,-1.0993800163,,,
19.0625000000,2,-0.8162155151,,,
19.0781250000,2,-0.6016234756,,,
19.0937500000,2,-0.4400405884,,,
19.1093750000,2,-0.2850112915,,,
19.1250000000,2,-0.1097794026,,,
19.1406250000,2,0.0635299683,,,
19.1562500000,2,0.2047957927,,,
19.1718750000,2,0.2948760986,,,
19.1875000000,2,0.3436507881,,,
19.2031250000,2,0.3693465889,,,
19.2187500000,2,0.3757934868,,,
19.2343750000,2,0.3310698867,,,
19.2500000000,2,0.1771773994,,,
19.2656250000,2,-0.1059646979,,,
19.2812500000,2,-0.4666594863,,,
19.2968750000,2,-0.7818145752,,,
19.3125000000,2,-0.9168167114,,,
19.3281250000,2,-0.7922211289,,,
19.3437500000,2,-0.4156875908,,,
19.3593750000,2,0.1168823019,,,
19.3750000000,2,0.6658629775,,,
19.3906250000,2,1.1158070564,,,
19.4062500000,2,1.4224849939,,,
19.4218750000,2,1.6009370089,,,
19.4375000000,2,1.6947560310,,,
19.4531250000,2,1.7580339909,,,
19.4687500000,2,1.8208309412,,,
19.4843750000,2,1.8957669735,,,
19.5000000000,2,1.9762569666,,,
19.5156250000,2,2.0470280647,,,
19.5312500000,2,2.0540471077,,,
19.5468750000,2,1.9628909826,,,
19.5625000000,2,1.7472690344,,,
19.5781250000,2,1.4191360474,,,
19.5937500000,2,1.0276030302,,,
19.6093750000,2,0.6458129883,,,
19.6250000000,2,0.3327026069,,,
19.6406250000,2,0.1053313985,,,
19.6562500000,2,-0.0735626221,,,
19.6718750000,2,-0.2441329956,,,
19.6875000000,2,-0.4236831963,,,
19.7031250000,2,-0.5798491836,,,
19.7187500000,2,-0.6744155884,,,
19.7343750000,2,-0.6612930298,,,
19.7500000000,2,-0.5593947768,,,
19.7656250000,2,-0.4435119927,,,
19.7812500000,2,-0.4077911079,,,
19.7968750000,2,-0.5075911880,,,
19.8125000000,2,-0.7138900757,,,
19.8281250000,2,-0.9279633164,,,
19.8437500000,2,-1.0285259485,,,
19.8593750000,2,-0.9526749253,,,
19.8750000000,2,-0.7202147841,,,
19.8906250000,2,-0.4396820068,,,
19.9062500000,2,-0.2418289036,,,
19.9218750000,2,-0.2152328044,,,
19.9375000000,2,-0.3702315986,,,
19.9531250000,2,-0.6309586167,,,
19.9687500000,2,-0.8834763169,,,
19.9843750000,2,-1.0216979980,,,
20.0000000000,2,-0.9972305298,,,
20.0156250000,2,-0.7997512817,,,
20.0312500000,2,-0.4883117974,,,
20.0468750000,2,-0.1056976020,,,
20.0625000000,2,0.3019714057,,,
20.0781250000,2,0.6930313110,,,
20.0937500000,2,1.0255889893,,,
20.1093750000,2,1.2539980412,,,
20.1250000000,2,1.3458329439,,,
20.1406250000,2,1.3027189970,,,
20.1562500000,2,1.1760330200,,,
20.1718750000,2,1.0212550163,,,
20.1875000000,2,0.8776854873,,,
20.2031250000,2,0.7389755249,,,
20.2187500000,2,0.5542755127,,,
20.2343750000,2,0.2887650132,,,
20.2500000000,2,-0.0181579608,,,
20.2656250000,2,-0.2474669963,,,
20.2812500000,2,-0.2681579888,,,
20.2968750000,2,-0.0151672401,,,
20.3125000000,2,0.4358367920,,,
20.3281250000,2,0.9034652710,,,
20.3437500000,2,1.1974259615,,,
20.3593750000,2,1.2126389742,,,
20.3750000000,2,0.9936218262,,,
20.3906250000,2,0.6702576280,,,
20.4062500000,2,0.3788681030,,,
20.4218750000,2,0.1725845039,,,
20.4375000000,2,0.0318679810,,,
20.4531250000,2,-0.1059722975,,,
20.4687500000,2,-0.2622604072,,,
20.4843750000,2,-0.4080657959,,,
20.5000000000,2,-0.4839706123,,,
20.5156250000,2,-0.4448929131,,,
20.5312500000,2,-0.3099670112,,,
20.5468750000,2,-0.1235809028,,,
20.5625000000,2,0.0623550415,,,
20.5781250000,2,0.2458878011,,,
20.5937500000,2,0.4298324883,,,
20.6093750000,2,0.6295700073,,,
20.6250000000,2,0.8173599243,,,
20.6406250000,2,0.9240189195,,,
20.6562500000,2,0.8923491836,,,
20.6718750000,2,0.7011185288,,,
20.6875000000,2,0.4002838135,,,
20.7031250000,2,0.0702667236,,,
20.7187500000,2,-0.2135848999,,,
20.7343750000,2,-0.4303970039,,,
20.7500000000,2,-0.5977249146,,,
20.7656250000,2,-0.7389907837,,,
20.7812500000,2,-0.8536986709,,,
20.7968750000,2,-0.9067153931,,,
20.8125000000,2,-0.8486632705,,,
20.8281250000,2,-0.6546782851,,,
20.8437500000,2,-0.3549500108,,,
20.8593750000,2,-0.0239181500,,,
20.8750000000,2,0.2643204033,,,
20.8906250000,2,0.4728546143,,,
20.9062500000,2,0.6028594971,,,
20.9218750000,2,0.6600952148,,,
20.9375000000,2,0.6349564195,,,
20.9531250000,2,0.4894638062,,,
20.9687500000,2,0.2004317939,,,
20.9843750000,2,-0.2159042060,,,
21.0000000000,2,-0.6765366197,,,
21.0156250000,2,-1.0719219446,,,
21.0312500000,2,-1.3042759895,,,
21.0468750000,2,-1.3226469755,,,
21.0625000000,2,-1.1483149529,,,
21.0781250000,2,-0.8292769790,,,
21.0937500000,2,-0.4651794136,,,
21.1093750000,2,-0.1525269002,,,
21.1250000000,2,0.0252304096,,,
21.1406250000,2,0.0384597816,,,
21.1562500000,2,-0.0873031616,,,
21.1718750000,2,-0.2563934028,,,
21.1875000000,2,-0.3565062881,,,
21.2031250000,2,-0.2899932861,,,
21.2187500000,2,-0.0415420495,,,
21.2343750000,2,0.3213348091,,,
21.2500000000,2,0.6797562242,,,
21.2656250000,2,0.9151458740,,,
21.2812500000,2,0.9815825820,,,
21.2968750000,2,0.9001998901,,,
21.3125000000,2,0.7299727798,,,
21.3281250000,2,0.5286560059,,,
21.3437500000,2,0.3198929131,,,
21.3593750000,2,0.1104812995,,,
21.3750000000,2,-0.0971908569,,,
21.3906250000,2,-0.2828445137,,,
21.4062500000,2,-0.4213866889,,,
21.4218750000,2,-0.4904784858,,,
21.4375000000,2,-0.4848099053,,,
21.4531250000,2,-0.4399796128,,,
21.4687500000,2,-0.4038009942,,,
21.4843750000,2,-0.4372558892,,,
21.5000000000,2,-0.5525969863,,,
21.5156250000,2,-0.7065734863,,,
21.5312500000,2,-0.8059005737,,,
21.5468750000,2,-0.7575377822,,,
21.5625000000,2,-0.5259171128,,,
21.5781250000,2,-0.1536407024,,,
21.5937500000,2,0.2257767022,,,
21.6093750000,2,0.4671782851,,,
21.6250000000,2,0.4785461128,,,
21.6406250000,2,0.2882767022,,,
21.6562500000,2,0.0111389197,,,
21.6718750000,2,-0.1917725056,,,
21.6875000000,2,-0.2055206001,,,
21.7031250000,2,-0.0032653811,,,
21.7187500000,2,0.3433304131,,,
21.7343750000,2,0.7176818848,,,
21.7500000000,2,1.0207669735,,,
21.7656250000,2,1.1795879602,,,
21.7812500000,2,1.1654740572,,,
21.7968750000,2,0.9744338989,,,
21.8125000000,2,0.6274642944,,,
21.8281250000,2,0.1821822971,,,
21.8437500000,2,-0.2691422105,,,
21.8593750000,2,-0.6249619126,,,
21.8750000000,2,-0.7957916260,,,
21.8906250000,2,-0.7529830933,,,
21.9062500000,2,-0.5534744263,,,
21.9218750000,2,-0.3012847900,,,
21.9375000000,2,-0.1055603027,,,
21.9531250000,2,-0.0359725989,,,
21.9687500000,2,-0.0874862671,,,
21.9843750000,2,-0.1964797974,,,
22.0000000000,2,-0.2719802856,,,
22.0156250000,2,-0.2328033000,,,
22.0312500000,2,-0.0406036414,,,
22.0468750000,2,0.2843245864,,,
22.0625000000,2,0.6754683852,,,
22.0781250000,2,1.0489649773,,,
22.0937500000,2,1.3209079504,,,
22.1093750000,2,1.4440230131,,,
22.1250000000,2,1.4035110474,,,
22.1406250000,2,1.2244030237,,,
22.1562500000,2,0.9649353027,,,
22.1718750000,2,0.6942977905,,,
22.1875000000,2,0.4859772027,,,
22.2031250000,2,0.3890990913,,,
22.2187500000,2,0.3897095025,,,
22.2343750000,2,0.4173507988,,,
22.2500000000,2,0.3740386963,,,
22.2656250000,2,0.1859360039,,,
22.2812500000,2,-0.1331939995,,,
22.2968750000,2,-0.4707717896,,,
22.3125000000,2,-0.6873168945,,,
22.3281250000,2,-0.6747742295,,,
22.3437500000,2,-0.4399948120,,,
22.3593750000,2,-0.1150207967,,,
22.3750000000,2,0.1379089057,,,
22.3906250000,2,0.2022324055,,,
22.4062500000,2,0.0703582764,,,
22.4218750000,2,-0.1704559028,,,
22.4375000000,2,-0.4052810967,,,
22.4531250000,2,-0.5734940171,,,
22.4687500000,2,-0.6794509888,,,
22.4843750000,2,-0.7754898071,,,
22.5000000000,2,-0.8916397095,,,
22.5156250000,2,-0.9938812256,,,
22.5312500000,2,-0.9990692139,,,
22.5468750000,2,-0.8327559829,,,
22.5625000000,2,-0.4670180976,,,
22.5781250000,2,0.0502319299,,,
22.5937500000,2,0.6114959717,,,
22.6093750000,2,1.0836329460,,,
22.6250000000,2,1.3403780460,,,
22.6406250000,2,1.3037949800,,,
22.6562500000,2,0.9892426133,,,
22.6718750000,2,0.4798279107,,,
22.6875000000,2,-0.0650329590,,,
22.7031250000,2,-0.4682616889,,,
22.7187500000,2,-0.6259688735,,,
22.7343750000,2,-0.5365601182,,,
22.7500000000,2,-0.3043136895,,,
22.7656250000,2,-0.0800933763,,,
22.7812500000,2,0.0421218909,,,
22.7968750000,2,0.0692138672,,,
22.8125000000,2,0.0720062330,,,
22.8281250000,2,0.1282120049,,,
22.8437500000,2,0.2335204929,,,
22.8593750000,2,0.2889938056,,,
22.8750000000,2,0.1749573052,,,
22.8906250000,2,-0.1753159016,,,
22.9062500000,2,-0.6888961792,,,
22.9218750000,2,-1.1986540556,,,
22.9375000000,2,-1.5297620296,,,
22.9531250000,2,-1.6065900326,,,
22.9687500000,2,-1.4729080200,,,
22.9843750000,2,-1.2566599846,,,
23.0000000000,2,-1.0674129725,,,
23.0156250000,2,-0.9300612807,,,
23.0312500000,2,-0.8031539917,,,
23.0468750000,2,-0.6263046265,,,
23.0625000000,2,-0.4117125869,,,
23.0781250000,2,-0.2314987034,,,
23.0937500000,2,-0.1802825928,,,
23.1093750000,2,-0.2794876099,,,
23.1250000000,2,-0.4524612129,,,
23.1406250000,2,-0.5365982056,,,
23.1562500000,2,-0.3792267144,,,
23.1718750000,2,0.0726165771,,,
23.1875000000,2,0.7366713881,,,
23.2031250000,2,1.4316179752,,,
23.2187500000,2,1.9578779936,,,
23.2343750000,2,2.1786189079,,,
23.2500000000,2,2.0785899162,,,
23.2656250000,2,1.7420649529,,,
23.2812500000,2,1.3133389950,,,
23.2968750000,2,0.9278336167,,,
23.3125000000,2,0.6789321899,,,
23.3281250000,2,0.5984191895,,,
23.3437500000,2,0.6672440171,,,
23.3593750000,2,0.8415145874,,,
23.3750000000,2,1.0594940186,,,
23.3906250000,2,1.2586289644,,,
23.4062500000,2,1.3685760498,,,
23.4218750000,2,1.3254469633,,,
23.4375000000,2,1.0975719690,,,
23.4531250000,2,0.6899796128,,,
23.4687500000,2,0.1795043945,,,
23.4843750000,2,-0.3113861084,,,
23.5000000000,2,-0.6598969102,,,
23.5156250000,2,-0.7917404175,,,
23.5312500000,2,-0.7103118896,,,
23.5468750000,2,-0.4963760078,,,
23.5625000000,2,-0.2709045112,,,
23.5781250000,2,-0.1523589939,,,
23.5937500000,2,-0.2189483941,,,
23.6093750000,2,-0.4668731987,,,
23.6250000000,2,-0.8368682861,,,
23.6406250000,2,-1.2067339420,,,
23.6562500000,2,-1.4653780460,,,
23.6718750000,2,-1.5237580538,,,
23.6875000000,2,-1.3653490543,,,
23.7031250000,2,-1.0363310575,,,
23.7187500000,2,-0.6275405884,,,
23.7343750000,2,-0.2416305989,,,
23.7500000000,2,0.0390396118,,,
23.7656250000,2,0.1776732951,,,
23.7812500000,2,0.1961517036,,,
23.7968750000,2,0.1336593926,,,
23.8125000000,2,0.0363311805,,,
23.8281250000,2,-0.0818176270,,,
23.8437500000,2,-0.2126846015,,,
23.8593750000,2,-0.3532561958,,,
23.8750000000,2,-0.4817886055,,,
23.8906250000,2,-0.5553054810,,,
23.9062500000,2,-0.5433654785,,,
23.9218750000,2,-0.4524230957,,,
23.9375000000,2,-0.3309859931,,,
23.9531250000,2,-0.2582626045,,,
23.9687500000,2,-0.3028106987,,,
23.9843750000,2,-0.4645766914,,,
24.0000000000,3,-0.6762390137,,,
24.0156250000,3,-0.8354949951,,,
24.0312500000,3,-0.8522109985,,,
24.0468750000,3,-0.7112808228,,,
24.0625000000,3,-0.4619216919,,,
24.0781250000,3,-0.1904067993,,,
24.0937500000,3,0.0312728882,,,
24.1093750000,3,0.1678238064,,,
24.1250000000,3,0.2080993950,,,
24.1406250000,3,0.1668471992,,,
24.1562500000,3,0.0505218506,,,
24.1718750000,3,-0.1224976033,,,
24.1875000000,3,-0.3193741143,,,
24.2031250000,3,-0.4751816094,,,
24.2187500000,3,-0.5245438218,,,
24.2343750000,3,-0.4169540107,,,
24.2500000000,3,-0.1658858955,,,
24.2656250000,3,0.1458816975,,,
24.2812500000,3,0.4056319892,,,
24.2968750000,3,0.4961090088,,,
24.3125000000,3,0.3630599976,,,
24.3281250000,3,0.0514831506,,,
24.3437500000,3,-0.3085021973,,,
24.3593750000,3,-0.5332717896,,,
24.3750000000,3,-0.4895096123,,,
24.3906250000,3,-0.1580352932,,,
24.4062500000,3,0.3248671889,,,
24.4218750000,3,0.7393798828,,,
24.4375000000,3,0.8956069946,,,
24.4531250000,3,0.7341765761,,,
24.4687500000,3,0.3614273071,,,
24.4843750000,3,-0.0039596562,,,
24.5000000000,3,-0.1575469971,,,
24.5156250000,3,-0.0355300903,,,
24.5312500000,3,0.2645950019,,,
24.5468750000,3,0.5465164185,,,
24.5625000000,3,0.6342772841,,,
24.5781250000,3,0.4736785889,,,
24.5937500000,3,0.1574860066,,,
24.6093750000,3,-0.1494445950,,,
24.6250000000,3,-0.3032912910,,,
24.6406250000,3,-0.2580871880,,,
24.6562500000,3,-0.0712585375,,,
24.6718750000,3,0.1363220066,,,
24.6875000000,3,0.2558135986,,,
24.7031250000,3,0.2246017009,,,
24.7187500000,3,0.0506820716,,,
24.7343750000,3,-0.2026138008,,,
24.7500000000,3,-0.4530563056,,,
24.7656250000,3,-0.6461182237,,,
24.7812500000,3,-0.7391356826,,,
24.7968750000,3,-0.7227324843,,,
24.8125000000,3,-0.6001204848,,,
24.8281250000,3,-0.3777999878,,,
24.8437500000,3,-0.0837936401,,,
24.8593750000,3,0.2408446968,,,
24.8750000000,3,0.5410614014,,,
24.8906250000,3,0.7711486816,,,
24.9062500000,3,0.8987960815,,,
24.9218750000,3,0.9106215835,,,
24.9375000000,3,0.8154221177,,,
24.9531250000,3,0.6460648179,,,
24.9687500000,3,0.4425888062,,,
24.9843750000,3,0.2476730049,,,
25.0000000000,3,0.0921401978,,,
25.0156250000,3,0.0142593402,,,
25.0312500000,3,0.0419311486,,,
25.0468750000,3,0.2043762058,,,
25.0625000000,3,0.4819489121,,,
25.0781250000,3,0.8055037856,,,
25.0937500000,3,1.0461349487,,,
25.1093750000,3,1.0710910559,,,
25.1250000000,3,0.8111876845,,,
25.1406250000,3,0.3088760078,,,
25.1562500000,3,-0.2733306885,,,
25.1718750000,3,-0.7312316895,,,
25.1875000000,3,-0.8951873779,,,
25.2031250000,3,-0.7192078233,,,
25.2187500000,3,-0.2988586128,,,
25.2343750000,3,0.1822586060,,,
25.2500000000,3,0.5617598891,,,
25.2656250000,3,0.7528151870,,,
25.2812500000,3,0.7858734131,,,
25.2968750000,3,0.7450333238,,,
25.3125000000,3,0.7178801894,,,
25.3281250000,3,0.7164154053,,,
25.3437500000,3,0.6877440810,,,
25.3593750000,3,0.5545197129,,,
25.3750000000,3,0.2626801133,,,
25.3906250000,3,-0.1653975993,,,
25.4062500000,3,-0.6431807876,,,
25.4218750000,3,-1.0310289860,,,
25.4375000000,3,-1.2167969942,,,
25.4531250000,3,-1.1564179659,,,
25.4687500000,3,-0.9064406753,,,
25.4843750000,3,-0.5990371704,,,
25.5000000000,3,-0.3926163018,,,
25.5156250000,3,-0.3895263970,,,
25.5312500000,3,-0.6008452773,,,
25.5468750000,3,-0.9396361709,,,
25.5625000000,3,-1.2772059441,,,
25.5781250000,3,-1.4846650362,,,
25.5937500000,3,-1.5010679960,,,
25.6093750000,3,-1.3371659517,,,
25.6250000000,3,-1.0709079504,,,
25.6406250000,3,-0.8074799180,,,
25.6562500000,3,-0.6356583238,,,
25.6718750000,3,-0.5856093764,,,
25.6875000000,3,-0.6331099868,,,
25.7031250000,3,-0.6986237168,,,
25.7187500000,3,-0.7104567885,,,
25.7343750000,3,-0.6117705703,,,
25.7500000000,3,-0.4003677070,,,
25.7656250000,3,-0.1088332981,,,
25.7812500000,3,0.2275467068,,,
25.7968750000,3,0.5639647841,,,
25.8125000000,3,0.8782805800,,,
25.8281250000,3,1.1277389526,,,
25.8437500000,3,1.2735209465,,,
25.8593750000,3,1.2855910063,,,
25.8750000000,3,1.1726000309,,,
25.8906250000,3,1.0167540312,,,
25.9062500000,3,0.9236754775,,,
25.9218750000,3,0.9570236206,,,
25.9375000000,3,1.0855790377,,,
25.9531250000,3,1.1602020264,,,
25.9687500000,3,1.0085910559,,,
25.9843750000,3,0.5352324843,,,
26.0000000000,3,-0.1868972927,,,
26.0156250000,3,-0.9355620742,,,
26.0312500000,3,-1.4436260462,,,
26.0468750000,3,-1.5511779785,,,
26.0625000000,3,-1.2828830481,,,
26.0781250000,3,-0.8214722276,,,
26.0937500000,3,-0.3984222114,,,
26.1093750000,3,-0.1623383015,,,
26.1250000000,3,-0.1238707975,,,
26.1406250000,3,-0.1883240044,,,
26.1562500000,3,-0.2353820950,,,
26.1718750000,3,-0.2026596069,,,
26.1875000000,3,-0.1126784980,,,
26.2031250000,3,-0.0094451904,,,
26.2187500000,3,0.0559387207,,,
26.2343750000,3,0.1023940966,,,
26.2500000000,3,0.1681824028,,,
26.2656250000,3,0.2820434868,,,
26.2812500000,3,0.4344100952,,,
26.2968750000,3,0.5659943223,,,
26.3125000000,3,0.6219863892,,,
26.3281250000,3,0.5755463243,,,
26.3437500000,3,0.4608764946,,,
26.3593750000,3,0.3473433852,,,
26.3750000000,3,0.2771911919,,,
26.3906250000,3,0.2459259033,,,
26.4062500000,3,0.1964111030,,,
26.4218750000,3,0.0426483192,,,
26.4375000000,3,-0.2514725029,,,
26.4531250000,3,-0.6579818726,,,
26.4687500000,3,-1.0825730562,,,
26.4843750000,3,-1.4043660164,,,
26.5000000000,3,-1.5381009579,,,
26.5156250000,3,-1.4639430046,,,
26.5312500000,3,-1.2335360050,,,
26.5468750000,3,-0.9409790039,,,
26.5625000000,3,-0.6712265015,,,
26.5781250000,3,-0.4669876099,,,
26.5937500000,3,-0.3165664971,,,
26.6093750000,3,-0.1657714993,,,
26.6250000000,3,0.0182952899,,,
26.6406250000,3,0.2205505073,,,
26.6562500000,3,0.3967972100,,,
26.6718750000,3,0.4912720025,,,
26.6875000000,3,0.4850615859,,,
26.7031250000,3,0.3965911865,,,
26.7187500000,3,0.2728118896,,,
26.7343750000,3,0.1698990017,,,
26.7500000000,3,0.1149291992,,,
26.7656250000,3,0.1148070991,,,
26.7812500000,3,0.1682815999,,,
26.7968750000,3,0.2664031982,,,
26.8125000000,3,0.4079208076,,,
26.8281250000,3,0.5862349868,,,
26.8437500000,3,0.7644500732,,,
26.8593750000,3,0.8740996718,,,
26.8750000000,3,0.8496475220,,,
26.8906250000,3,0.6621016860,,,
26.9062500000,3,0.3672179878,,,
26.9218750000,3,0.0711898804,,,
26.9375000000,3,-0.1304779053,,,
26.9531250000,3,-0.2098159939,,,
26.9687500000,3,-0.2201385051,,,
26.9843750000,3,-0.2682419121,,,
27.0000000000,3,-0.4275284111,,,
27.0156250000,3,-0.6770629883,,,
27.0312500000,3,-0.9157866836,,,
27.0468750000,3,-0.9919356704,,,
27.0625000000,3,-0.8136292100,,,
27.0781250000,3,-0.3959656060,,,
27.0937500000,3,0.1266327053,,,
27.1093750000,3,0.5723571777,,,
27.1250000000,3,0.7980803847,,,
27.1406250000,3,0.7746505737,,,
27.1562500000,3,0.5897521973,,,
27.1718750000,3,0.3677521050,,,
27.1875000000,3,0.2190628052,,,
27.2031250000,3,0.1633224040,,,
27.2187500000,3,0.1389998943,,,
27.2343750000,3,0.0536270104,,,
27.2500000000,3,-0.1654434055,,,
27.2656250000,3,-0.4968033135,,,
27.2812500000,3,-0.8229979873,,,
27.2968750000,3,-0.9852753282,,,
27.3125000000,3,-0.8805770874,,,
27.3281250000,3,-0.5226364136,,,
27.3437500000,3,-0.0537872314,,,
27.3593750000,3,0.3238449097,,,
27.3750000000,3,0.4691010118,,,
27.3906250000,3,0.3593902886,,,
27.4062500000,3,0.1154403985,,,
27.4218750000,3,-0.0663146973,,,
27.4375000000,3,-0.0397262610,,,
27.4531250000,3,0.2214355022,,,
27.4687500000,3,0.6272658706,,,
27.4843750000,3,0.9933624268,,,
27.5000000000,3,1.1610109806,,,
27.5156250000,3,1.0762480497,,,
27.5312500000,3,0.7993469238,,,
27.5468750000,3,0.4809646904,,,
27.5625000000,3,0.2786712945,,,
27.5781250000,3,0.2936707139,,,
27.5937500000,3,0.5305634141,,,
27.6093750000,3,0.9065856934,,,
27.6250000000,3,1.2785719633,,,
27.6406250000,3,1.4977339506,,,
27.6562500000,3,1.4815059900,,,
27.6718750000,3,1.2194290161,,,
27.6875000000,3,0.7832564712,,,
27.7031250000,3,0.2778472900,,,
27.7187500000,3,-0.1935805976,,,
27.7343750000,3,-0.5623474121,,,
27.7500000000,3,-0.7910004258,,,
27.7656250000,3,-0.8724746704,,,
27.7812500000,3,-0.8123856187,,,
27.7968750000,3,-0.6180496216,,,
27.8125000000,3,-0.3203505874,,,
27.8281250000,3,0.0299606305,,,
27.8437500000,3,0.3651351929,,,
27.8593750000,3,0.6111602783,,,
27.8750000000,3,0.7214279175,,,
27.8906250000,3,0.6855850220,,,
27.9062500000,3,0.5256500244,,,
27.9218750000,3,0.3039627075,,,
27.9375000000,3,0.0748748779,,,
27.9531250000,3,-0.1289902031,,,
27.9687500000,3,-0.2878799140,,,
27.9843750000,3,-0.4092636108,,,
28.0000000000,3,-0.4919891059,,,
28.0156250000,3,-0.5281525254,,,
28.0312500000,3,-0.4970397949,,,
28.0468750000,3,-0.3853073120,,,
28.0625000000,3,-0.2119826972,,,
28.0781250000,3,-0.0117187500,,,
28.0937500000,3,0.1598663032,,,
28.1093750000,3,0.2745743096,,,
28.1250000000,3,0.3501052856,,,
28.1406250000,3,0.4251404107,,,
28.1562500000,3,0.5476074219,,,
28.1718750000,3,0.7252655029,,,
28.1875000000,3,0.9201201797,,,
28.2031250000,3,1.0766680241,,,
28.2187500000,3,1.1577529907,,,
28.2343750000,3,1.1539759636,,,
28.2500000000,3,1.0861359835,,,
28.2656250000,3,0.9675292969,,,
28.2812500000,3,0.7908477783,,,
28.2968750000,3,0.5392150879,,,
28.3125000000,3,0.2071228027,,,
28.3281250000,3,-0.1741562039,,,
28.3437500000,3,-0.5304871202,,,
28.3593750000,3,-0.7815093994,,,
28.3750000000,3,-0.8692017198,,,
28.3906250000,3,-0.7798615098,,,
28.4062500000,3,-0.5494232178,,,
28.4218750000,3,-0.2697753906,,,
28.4375000000,3,-0.0536727905,,,
28.4531250000,3,-0.0070800781,,,
28.4687500000,3,-0.1647185981,,,
28.4843750000,3,-0.4649963081,,,
28.5000000000,3,-0.7432097793,,,
28.5156250000,3,-0.8059464097,,,
28.5312500000,3,-0.5363770127,,,
28.5468750000,3,0.0195083600,,,
28.5625000000,3,0.6445847154,,,
28.5781250000,3,1.0711519718,,,
28.5937500000,3,1.1101000309,,,
28.6093750000,3,0.7514191270,,,
28.6250000000,3,0.1537247002,,,
28.6406250000,3,-0.4465179145,,,
28.6562500000,3,-0.8669586182,,,
28.6718750000,3,-1.0323790312,,,
28.6875000000,3,-0.9944686890,,,
28.7031250000,3,-0.8508834839,,,
28.7187500000,3,-0.6993712783,,,
28.7343750000,3,-0.5874099731,,,
28.7500000000,3,-0.5270844102,,,
28.7656250000,3,-0.5089263916,,,
28.7812500000,3,-0.4953841865,,,
28.7968750000,3,-0.4533233941,,,
28.8125000000,3,-0.3304291070,,,
28.8281250000,3,-0.0980529785,,,
28.8437500000,3,0.2336883992,,,
28.8593750000,3,0.6086121202,,,
28.8750000000,3,0.9487761855,,,
28.8906250000,3,1.1834180355,,,
28.9062500000,3,1.2787020206,,,
28.9218750000,3,1.2157590389,,,
28.9375000000,3,0.9822692871,,,
28.9531250000,3,0.5687636733,,,
28.9687500000,3,-0.0148467999,,,
28.9843750000,3,-0.7029572129,,,
29.0000000000,3,-1.3670959473,,,
29.0156250000,3,-1.8511509895,,,
29.0312500000,3,-2.0291669369,,,
29.0468750000,3,-1.8777619600,,,
29.0625000000,3,-1.4745479822,,,
29.0781250000,3,-0.9668273926,,,
29.0937500000,3,-0.5002747178,,,
29.1093750000,3,-0.1513137966,,,
29.1250000000,3,0.0579986610,,,
29.1406250000,3,0.1528930962,,,
29.1562500000,3,0.1603851020,,,
29.1718750000,3,0.1091232002,,,
29.1875000000,3,0.0419540405,,,
29.2031250000,3,0.0360946693,,,
29.2187500000,3,0.1495818943,,,
29.2343750000,3,0.3843842149,,,
29.2500000000,3,0.6424484253,,,
29.2656250000,3,0.7521895766,,,
29.2812500000,3,0.5840911865,,,
29.2968750000,3,0.1145782024,,,
29.3125000000,3,-0.5058593750,,,
29.3281250000,3,-1.0345760584,,,
29.3437500000,3,-1.2509989738,,,
29.3593750000,3,-1.0821379423,,,
29.3750000000,3,-0.6228942871,,,
29.3906250000,3,-0.0822372437,,,
29.4062500000,3,0.3432007134,,,
29.4218750000,3,0.5681992173,,,
29.4375000000,3,0.6398468018,,,
29.4531250000,3,0.6604309082,,,
29.4687500000,3,0.7032470703,,,
29.4843750000,3,0.7602921128,,,
29.5000000000,3,0.7691268921,,,
29.5156250000,3,0.6821442246,,,
29.5312500000,3,0.5345993042,,,
29.5468750000,3,0.4258346856,,,
29.5625000000,3,0.4646835029,,,
29.5781250000,3,0.6971054077,,,
29.5937500000,3,1.0443340540,,,
29.6093750000,3,1.3643569946,,,
29.6250000000,3,1.5075229406,,,
29.6406250000,3,1.3912199736,,,
29.6562500000,3,1.0301359892,,,
29.6718750000,3,0.5252761841,,,
29.6875000000,3,0.0062408452,,,
29.7031250000,3,-0.4159775078,,,
29.7187500000,3,-0.6881942749,,,
29.7343750000,3,-0.8131942749,,,
29.7500000000,3,-0.8301314712,,,
29.7656250000,3,-0.8071060181,,,
29.7812500000,3,-0.7904129028,,,
29.7968750000,3,-0.8052672744,,,
29.8125000000,3,-0.8142318726,,,
29.8281250000,3,-0.7729033828,,,
29.8437500000,3,-0.6433258057,,,
29.8593750000,3,-0.4479827881,,,
29.8750000000,3,-0.2554625869,,,
29.8906250000,3,-0.1430206001,,,
29.9062500000,3,-0.1634597927,,,
29.9218750000,3,-0.3036346138,,,
29.9375000000,3,-0.4933700860,,,
29.9531250000,3,-0.6574326158,,,
29.9687500000,3,-0.7503890991,,,
29.9843750000,3,-0.7551804185,,,
30.0000000000,3,-0.6914672852,,,
30.0156250000,3,-0.5822830200,,,
30.0312500000,3,-0.4531708062,,,
30.0468750000,3,-0.3289718926,,,
30.0625000000,3,-0.2473601997,,,
30.0781250000,3,-0.2293090969,,,
30.0937500000,3,-0.2743377984,,,
30.1093750000,3,-0.3363037109,,,
30.1250000000,3,-0.3500289917,,,
30.1406250000,3,-0.2518844903,,,
30.1562500000,3,-0.0384063683,,,
30.1718750000,3,0.2570953071,,,
30.1875000000,3,0.5787429810,,,
30.2031250000,3,0.8840332031,,,
30.2187500000,3,1.1534650326,,,
30.2343750000,3,1.3825229406,,,
30.2500000000,3,1.5470429659,,,
30.2656250000,3,1.5961300135,,,
30.2812500000,3,1.4618070126,,,
30.2968750000,3,1.1115570068,,,
30.3125000000,3,0.5780792236,,,
30.3281250000,3,-0.0528869592,,,
30.3437500000,3,-0.6356430054,,,
30.3593750000,3,-1.0403670073,,,
30.3750000000,3,-1.1944429874,,,
30.3906250000,3,-1.0892560482,,,
30.4062500000,3,-0.7990645766,,,
30.4218750000,3,-0.4291458130,,,
30.4375000000,3,-0.0803680420,,,
30.4531250000,3,0.1876450032,,,
30.4687500000,3,0.3622437119,,,
30.4843750000,3,0.4679107964,,,
30.5000000000,3,0.5098876953,,,
30.5156250000,3,0.4466933906,,,
30.5312500000,3,0.2137984931,,,
30.5468750000,3,-0.2215805054,,,
30.5625000000,3,-0.8096085191,,,
30.5781250000,3,-1.3932340145,,,
30.5937500000,3,-1.7823719978,,,
30.6093750000,3,-1.8428729773,,,
30.6250000000,3,-1.5721280575,,,
30.6406250000,3,-1.0912779570,,,
30.6562500000,3,-0.5776519775,,,
30.6718750000,3,-0.1660767049,,,
30.6875000000,3,0.1031951979,,,
30.7031250000,3,0.2618103027,,,
30.7187500000,3,0.3590697944,,,
30.7343750000,3,0.4137038887,,,
30.7500000000,3,0.3989638984,,,
30.7656250000,3,0.2833938897,,,
30.7812500000,3,0.0722808763,,,
30.7968750000,3,-0.1615372002,,,
30.8125000000,3,-0.3101730049,,,
30.8281250000,3,-0.3021926880,,,
30.8437500000,3,-0.1113051996,,,
30.8593750000,3,0.1955337971,,,
30.8750000000,3,0.5110396743,,,
30.8906250000,3,0.7346801758,,,
30.9062500000,3,0.8011093140,,,
30.9218750000,3,0.7113342285,,,
30.9375000000,3,0.5314406753,,,
30.9531250000,3,0.3491210938,,,
30.9687500000,3,0.2630920112,,,
30.9843750000,3,0.3196029961,,,
31.0000000000,3,0.5044708252,,,
31.0156250000,3,0.7433776855,,,
31.0312500000,3,0.9579697251,,,
31.0468750000,3,1.0786130428,,,
31.0625000000,3,1.0846860409,,,
31.0781250000,3,1.0044939518,,,
31.0937500000,3,0.8970795274,,,
31.1093750000,3,0.8049240112,,,
31.1250000000,3,0.7229614258,,,
31.1406250000,3,0.6242752075,,,
31.1562500000,3,0.4528732002,,,
31.1718750000,3,0.1836318970,,,
31.1875000000,3,-0.1704024971,,,
31.2031250000,3,-0.5650100708,,,
31.2187500000,3,-0.9560775757,,,
31.2343750000,3,-1.3074259758,,,
31.2500000000,3,-1.6097179651,,,
31.2656250000,3,-1.8274769783,,,
31.2812500000,3,-1.9205780029,,,
31.2968750000,3,-1.8433990479,,,
31.3125000000,3,-1.5897899866,,,
31.3281250000,3,-1.2086260319,,,
31.3437500000,3,-0.8018035889,,,
31.3593750000,3,-0.4732437134,,,
31.3750000000,3,-0.2818526924,,,
31.3906250000,3,-0.2014313042,,,
31.4062500000,3,-0.1550597996,,,
31.4218750000,3,-0.0680389404,,,
31.4375000000,3,0.0794525072,,,
31.4531250000,3,0.2207335979,,,
31.4687500000,3,0.2708587945,,,
31.4843750000,3,0.1804810017,,,
31.5000000000,3,-0.0276718102,,,
31.5156250000,3,-0.2567290962,,,
31.5312500000,3,-0.3842697144,,,
31.5468750000,3,-0.3489303887,,,
31.5625000000,3,-0.1691437066,,,
31.5781250000,3,0.0586395301,,,
31.5937500000,3,0.2283325046,,,
31.6093750000,3,0.2926406860,,,
31.6250000000,3,0.2675018013,,,
31.6406250000,3,0.2315520942,,,
31.6562500000,3,0.2413939983,,,
31.6718750000,3,0.3232573867,,,
31.6875000000,3,0.4508666992,,,
31.7031250000,3,0.6023406982,,,
31.7187500000,3,0.7777481079,,,
31.7343750000,3,1.0060269833,,,
31.7500000000,3,1.2984620333,,,
31.7656250000,3,1.6184159517,,,
31.7812500000,3,1.8558880091,,,
31.7968750000,3,1.8777389526,,,
31.8125000000,3,1.6035920382,,,
31.8281250000,3,1.0668330193,,,
31.8437500000,3,0.4032821953,,,
31.8593750000,3,-0.1992568970,,,
31.8750000000,3,-0.5920333862,,,
31.8906250000,3,-0.7373505235,,,
31.9062500000,3,-0.6992949843,,,
31.9218750000,3,-0.5791625977,,,
31.9375000000,3,-0.4389801025,,,
31.9531250000,3,-0.2855910957,,,
31.9687500000,3,-0.0785369873,,,
31.9843750000,3,0.2133408040,,,
32.0000000000,4,0.5540999770,,,
32.0156250000,4,0.8348389268,,,
32.0312500000,4,0.9325180054,,,
32.0468750000,4,0.7658156753,,,
32.0625000000,4,0.3736648858,,,
32.0781250000,4,-0.1139296964,,,
32.0937500000,4,-0.5346755981,,,
32.1093750000,4,-0.7665253282,,,
32.1250000000,4,-0.7940902710,,,
32.1406250000,4,-0.6932219863,,,
32.1562500000,4,-0.5786057115,,,
32.1718750000,4,-0.5157318115,,,
32.1875000000,4,-0.5169907212,,,
32.2031250000,4,-0.5285720825,,,
32.2187500000,4,-0.4857558906,,,
32.2343750000,4,-0.3712233901,,,
32.2500000000,4,-0.2235184014,,,
32.2656250000,4,-0.1130829006,,,
32.2812500000,4,-0.1037520990,,,
32.2968750000,4,-0.1945419014,,,
32.3125000000,4,-0.2970657051,,,
32.3281250000,4,-0.3004683852,,,
32.3437500000,4,-0.1237106025,,,
32.3593750000,4,0.2328719944,,,
32.3750000000,4,0.6649475098,,,
32.3906250000,4,1.0120090246,,,
32.4062500000,4,1.1486129761,,,
32.4218750000,4,1.0612720251,,,
32.4375000000,4,0.8453369141,,,
32.4531250000,4,0.6523818970,,,
32.4687500000,4,0.5828400254,,,
32.4843750000,4,0.6174011230,,,
32.5000000000,4,0.6393814087,,,
32.5156250000,4,0.5089569092,,,
32.5312500000,4,0.1883925945,,,
32.5468750000,4,-0.2409058064,,,
32.5625000000,4,-0.6036605835,,,
32.5781250000,4,-0.7617493272,,,
32.5937500000,4,-0.7034606934,,,
32.6093750000,4,-0.5387496948,,,
32.6250000000,4,-0.4202804863,,,
32.6406250000,4,-0.4245986938,,,
32.6562500000,4,-0.5001906753,,,
32.6718750000,4,-0.5035247803,,,
32.6875000000,4,-0.3249435127,,,
32.7031250000,4,0.0391464196,,,
32.7187500000,4,0.4668427110,,,
32.7343750000,4,0.7760772705,,,
32.7500000000,4,0.8282012939,,,
32.7656250000,4,0.5921096802,,,
32.7812500000,4,0.1338271946,,,
32.7968750000,4,-0.4281311035,,,
32.8125000000,4,-0.9580307007,,,
32.8281250000,4,-1.3586039543,,,
32.8437500000,4,-1.5846480131,,,
32.8593750000,4,-1.6279449463,,,
32.8750000000,4,-1.5013279915,,,
32.8906250000,4,-1.2324680090,,,
32.9062500000,4,-0.8544083238,,,
32.9218750000,4,-0.4131011963,,,
32.9375000000,4,0.0311737098,,,
32.9531250000,4,0.3888092041,,,
32.9687500000,4,0.5585861206,,,
32.9843750000,4,0.4658051133,,,
33.0000000000,4,0.1035308987,,,
33.0156250000,4,-0.4340209961,,,
33.0312500000,4,-0.9719696045,,,
33.0468750000,4,-1.3443759680,,,
33.0625000000,4,-1.4631040096,,,
33.0781250000,4,-1.3648450375,,,
33.0937500000,4,-1.1871110201,,,
33.1093750000,4,-1.0706410408,,,
33.1250000000,4,-1.0838470459,,,
33.1406250000,4,-1.1693569422,,,
33.1562500000,4,-1.1867599487,,,
33.1718750000,4,-0.9965363145,,,
33.1875000000,4,-0.5455474854,,,
33.2031250000,4,0.1111373976,,,
33.2187500000,4,0.8280715942,,,
33.2343750000,4,1.4185260534,,,
33.2500000000,4,1.7272109985,,,
33.2656250000,4,1.6858600378,,,
33.2812500000,4,1.3280409575,,,
33.2968750000,4,0.7848892212,,,
33.3125000000,4,0.2168502957,,,
33.3281250000,4,-0.2172165066,,,
33.3437500000,4,-0.4196395874,,,
33.3593750000,4,-0.3737792969,,,
33.3750000000,4,-0.1184082031,,,
33.3906250000,4,0.2639693916,,,
33.4062500000,4,0.6756362915,,,
33.4218750000,4,1.0184630156,,,
33.4375000000,4,1.2199170589,,,
33.4531250000,4,1.2200319767,,,
33.4687500000,4,1.0093610287,,,
33.4843750000,4,0.6395493150,,,
33.5000000000,4,0.1952819973,,,
33.5156250000,4,-0.2279434055,,,
33.5312500000,4,-0.5812377930,,,
33.5468750000,4,-0.8732299805,,,
33.5625000000,4,-1.1506199837,,,
33.5781250000,4,-1.4238510132,,,
33.5937500000,4,-1.6294709444,,,
33.6093750000,4,-1.6501690149,,,
33.6250000000,4,-1.3949739933,,,
33.6406250000,4,-0.8948975205,,,
33.6562500000,4,-0.3080368042,,,
33.6718750000,4,0.1465758979,,,
33.6875000000,4,0.3115692139,,,
33.7031250000,4,0.1880646050,,,
33.7187500000,4,-0.0702514574,,,
33.7343750000,4,-0.2534179986,,,
33.7500000000,4,-0.2408446968,,,
33.7656250000,4,-0.0678100586,,,
33.7812500000,4,0.0861968994,,,
33.7968750000,4,0.0418090783,,,
33.8125000000,4,-0.2801131904,,,
33.8281250000,4,-0.7707443237,,,
33.8437500000,4,-1.1896209717,,,
33.8593750000,4,-1.3008040190,,,
33.8750000000,4,-0.9939727783,,,
33.8906250000,4,-0.3742828071,,,
33.9062500000,4,0.3100967109,,,
33.9218750000,4,0.7757720947,,,
33.9375000000,4,0.8847351074,,,
33.9531250000,4,0.6782761216,,,
33.9687500000,4,0.3285064995,,,
33.9843750000,4,0.0263977107,,,
34.0000000000,4,-0.1319579929,,,
34.0156250000,4,-0.1725616008,,,
34.0312500000,4,-0.1887664944,,,
34.0468750000,4,-0.2379456013,,,
34.0625000000,4,-0.3024063110,,,
34.0781250000,4,-0.3036803901,,,
34.0937500000,4,-0.1826096028,,,
34.1093750000,4,0.0431823693,,,
34.1250000000,4,0.2777939141,,,
34.1406250000,4,0.4109421074,,,
34.1562500000,4,0.3901748955,,,
34.1718750000,4,0.2576675117,,,
34.1875000000,4,0.1106873006,,,
34.2031250000,4,0.0218200702,,,
34.2187500000,4,0.0205841102,,,
34.2343750000,4,0.0856552124,,,
34.2500000000,4,0.1671295017,,,
34.2656250000,4,0.2309188992,,,
34.2812500000,4,0.2737044990,,,
34.2968750000,4,0.3144454956,,,
34.3125000000,4,0.3738707900,,,
34.3281250000,4,0.4688796997,,,
34.3437500000,4,0.5986557007,,,
34.3593750000,4,0.7491530776,,,
34.3750000000,4,0.9060974121,,,
34.3906250000,4,1.0430450439,,,
34.4062500000,4,1.1547700167,,,
34.4218750000,4,1.2365109921,,,
34.4375000000,4,1.2877349854,,,
34.4531250000,4,1.2910460234,,,
34.4687500000,4,1.2210309505,,,
34.4843750000,4,1.0552059412,,,
34.5000000000,4,0.8023604751,,,
34.5156250000,4,0.5021895766,,,
34.5312500000,4,0.2225722969,,,
34.5468750000,4,0.0373611487,,,
34.5625000000,4,-0.0044403081,,,
34.5781250000,4,0.1018600017,,,
34.5937500000,4,0.3313522041,,,
34.6093750000,4,0.6437377930,,,
34.6250000000,4,0.9794312119,,,
34.6406250000,4,1.2641299963,,,
34.6562500000,4,1.3834229708,,,
34.6718750000,4,1.2563019991,,,
34.6875000000,4,0.8512039185,,,
34.7031250000,4,0.2468567044,,,
34.7187500000,4,-0.3625716865,,,
34.7343750000,4,-0.7453917861,,,
34.7500000000,4,-0.7375869751,,,
34.7656250000,4,-0.3449325860,,,
34.7812500000,4,0.2765120864,,,
34.7968750000,4,0.8665618896,,,
34.8125000000,4,1.1959379911,,,
34.8281250000,4,1.1702270508,,,
34.8437500000,4,0.8522263169,,,
34.8593750000,4,0.4008483887,,,
34.8750000000,4,0.0070266719,,,
34.8906250000,4,-0.2124709934,,,
34.9062500000,4,-0.2379149944,,,
34.9218750000,4,-0.1148070991,,,
34.9375000000,4,0.0840148926,,,
34.9531250000,4,0.2954330146,,,
34.9687500000,4,0.4896011055,,,
34.9843750000,4,0.6435089111,,,
35.0000000000,4,0.7419890761,,,
35.0156250000,4,0.7819365859,,,
35.0312500000,4,0.7577515244,,,
35.0468750000,4,0.6825942993,,,
35.0625000000,4,0.5825499892,,,
35.0781250000,4,0.4646606147,,,
35.0937500000,4,0.3249968886,,,
35.1093750000,4,0.1390915066,,,
35.1250000000,4,-0.1224898994,,,
35.1406250000,4,-0.4515151978,,,
35.1562500000,4,-0.8011931777,,,
35.1718750000,4,-1.0812530518,,,
35.1875000000,4,-1.2344969511,,,
35.2031250000,4,-1.2566759586,,,
35.2187500000,4,-1.2168500423,,,
35.2343750000,4,-1.2268069983,,,
35.2500000000,4,-1.3700100183,,,
35.2656250000,4,-1.6359560490,,,
35.2812500000,4,-1.9136509895,,,
35.2968750000,4,-2.0464398861,,,
35.3125000000,4,-1.9336780310,,,
35.3281250000,4,-1.5743410587,,,
35.3437500000,4,-1.0826569796,,,
35.3593750000,4,-0.6158599854,,,
35.3750000000,4,-0.2762298882,,,
35.3906250000,4,-0.0760879517,,,
35.4062500000,4,0.0545654297,,,
35.4218750000,4,0.2036132962,,,
35.4375000000,4,0.4012908936,,,
35.4531250000,4,0.5997924805,,,
35.4687500000,4,0.7364196777,,,
35.4843750000,4,0.7766494751,,,
35.5000000000,4,0.7529067993,,,
35.5156250000,4,0.7565230727,,,
35.5312500000,4,0.8420029283,,,
35.5468750000,4,0.9860991836,,,
35.5625000000,4,1.0803829432,,,
35.5781250000,4,0.9940490723,,,
35.5937500000,4,0.6812438965,,,
35.6093750000,4,0.2371979058,,,
35.6250000000,4,-0.1327209026,,,
35.6406250000,4,-0.2111282051,,,
35.6562500000,4,0.1046065986,,,
35.6718750000,4,0.7399749756,,,
35.6875000000,4,1.4729080200,,,
35.7031250000,4,2.0417399406,,,
35.7187500000,4,2.2765960693,,,
35.7343750000,4,2.1682429314,,,
35.7500000000,4,1.8316270113,,,
35.7656250000,4,1.4316250086,,,
35.7812500000,4,1.0818940401,,,
35.7968750000,4,0.8122252822,,,
35.8125000000,4,0.5809326172,,,
35.8281250000,4,0.3542098999,,,
35.8437500000,4,0.1313018948,,,
35.8593750000,4,-0.0509796105,,,
35.8750000000,4,-0.1539611965,,,
35.8906250000,4,-0.1790924072,,,
35.9062500000,4,-0.1566161960,,,
35.9218750000,4,-0.1419449002,,,
35.9375000000,4,-0.1769485027,,,
35.9531250000,4,-0.2865676880,,,
35.9687500000,4,-0.4611130059,,,
35.9843750000,4,-0.6822357178,,,
36.0000000000,4,-0.9259262085,,,
36.0156250000,4,-1.1387939453,,,
36.0312500000,4,-1.2820889950,,,
36.0468750000,4,-1.3341749907,,,
36.0625000000,4,-1.3054579496,,,
36.0781250000,4,-1.2579040527,,,
36.0937500000,4,-1.2498550415,,,
36.1093750000,4,-1.3052829504,,,
36.1250000000,4,-1.3845139742,,,
36.1406250000,4,-1.3915940523,,,
36.1562500000,4,-1.2337720394,,,
36.1718750000,4,-0.8797379136,,,
36.1875000000,4,-0.3732604980,,,
36.2031250000,4,0.1755599976,,,
36.2187500000,4,0.6421890259,,,
36.2343750000,4,0.9634171128,,,
36.2500000000,4,1.1335910559,,,
36.2656250000,4,1.1768950224,,,
36.2812500000,4,1.1173709631,,,
36.2968750000,4,0.9602127075,,,
36.3125000000,4,0.6825867295,,,
36.3281250000,4,0.2818680108,,,
36.3437500000,4,-0.2081985027,,,
36.3593750000,4,-0.7136458755,,,
36.3750000000,4,-1.1428220272,,,
36.3906250000,4,-1.4219440222,,,
36.4062500000,4,-1.5089260340,,,
36.4218750000,4,-1.4039310217,,,
36.4375000000,4,-1.1383060217,,,
36.4531250000,4,-0.7897186279,,,
36.4687500000,4,-0.4380492866,,,
36.4843750000,4,-0.1661148071,,,
36.5000000000,4,-0.0299072303,,,
36.5156250000,4,-0.0053329468,,,
36.5312500000,4,-0.0181045495,,,
36.5468750000,4,0.0426178016,,,
36.5625000000,4,0.2521896064,,,
36.5781250000,4,0.5867614746,,,
36.5937500000,4,0.9188994765,,,
36.6093750000,4,1.0796200037,,,
36.6250000000,4,0.9509354234,,,
36.6406250000,4,0.5641326904,,,
36.6562500000,4,0.0838317871,,,
36.6718750000,4,-0.2741088867,,,
36.6875000000,4,-0.3565444946,,,
36.7031250000,4,-0.1522751004,,,
36.7187500000,4,0.1896515042,,,
36.7343750000,4,0.4537810981,,,
36.7500000000,4,0.4800033867,,,
36.7656250000,4,0.2313461006,,,
36.7812500000,4,-0.1978912055,,,
36.7968750000,4,-0.6362305284,,,
36.8125000000,4,-0.9360352159,,,
36.8281250000,4,-1.0321500301,,,
36.8437500000,4,-0.9473571777,,,
36.8593750000,4,-0.7642745972,,,
36.8750000000,4,-0.5677947998,,,
36.8906250000,4,-0.4299010932,,,
36.9062500000,4,-0.3950805962,,,
36.9218750000,4,-0.4805068970,,,
36.9375000000,4,-0.6575546265,,,
36.9531250000,4,-0.8751984239,,,
36.9687500000,4,-1.0491410494,,,
36.9843750000,4,-1.0821150541,,,
37.0000000000,4,-0.9167861938,,,
37.0156250000,4,-0.5554351807,,,
37.0312500000,4,-0.0746231079,,,
37.0468750000,4,0.3694153130,,,
37.0625000000,4,0.6098403931,,,
37.0781250000,4,0.5252457261,,,
37.0937500000,4,0.1298903972,,,
37.1093750000,4,-0.4353713989,,,
37.1250000000,4,-0.9613571167,,,
37.1406250000,4,-1.2355879545,,,
37.1562500000,4,-1.1676789522,,,
37.1718750000,4,-0.7952498794,,,
37.1875000000,4,-0.2663421929,,,
37.2031250000,4,0.2544327080,,,
37.2187500000,4,0.6355208755,,,
37.2343750000,4,0.8141937256,,,
37.2500000000,4,0.8059082031,,,
37.2656250000,4,0.6751480103,,,
37.2812500000,4,0.5115432739,,,
37.2968750000,4,0.4073714912,,,
37.3125000000,4,0.4294433892,,,
37.3281250000,4,0.5920944214,,,
37.3437500000,4,0.8302230835,,,
37.3593750000,4,1.0234220028,,,
37.3750000000,4,1.0494920015,,,
37.3906250000,4,0.8542175293,,,
37.4062500000,4,0.4831542969,,,
37.4218750000,4,0.0655136108,,,
37.4375000000,4,-0.2460021973,,,
37.4531250000,4,-0.3445205986,,,
37.4687500000,4,-0.2067642063,,,
37.4843750000,4,0.1216811985,,,
37.5000000000,4,0.5439910889,,,
37.5156250000,4,0.9450759888,,,
37.5312500000,4,1.2216490507,,,
37.5468750000,4,1.2865220308,,,
37.5625000000,4,1.1152950525,,,
37.5781250000,4,0.7474594116,,,
37.5937500000,4,0.3069686890,,,
37.6093750000,4,-0.0602111816,,,
37.6250000000,4,-0.2606812119,,,
37.6406250000,4,-0.2667998970,,,
37.6562500000,4,-0.1639098972,,,
37.6718750000,4,-0.0662384033,,,
37.6875000000,4,-0.0781250000,,,
37.7031250000,4,-0.2116927952,,,
37.7187500000,4,-0.4008255005,,,
37.7343750000,4,-0.5628815293,,,
37.7500000000,4,-0.6408004761,,,
37.7656250000,4,-0.6331862807,,,
37.7812500000,4,-0.5621489882,,,
37.7968750000,4,-0.4566116035,,,
37.8125000000,4,-0.3104782104,,,
37.8281250000,4,-0.1064452976,,,
37.8437500000,4,0.1446685940,,,
37.8593750000,4,0.4106827080,,,
37.8750000000,4,0.6136322021,,,
37.8906250000,4,0.6910858154,,,
37.9062500000,4,0.6326828003,,,
37.9218750000,4,0.4825438857,,,
37.9375000000,4,0.3158875108,,,
37.9531250000,4,0.2049026042,,,
37.9687500000,4,0.1952514946,,,
37.9843750000,4,0.2913970947,,,
38.0000000000,4,0.4787215889,,,
38.0156250000,4,0.7121047974,,,
38.0312500000,4,0.9369812012,,,
38.0468750000,4,1.0841900110,,,
38.0625000000,4,1.0930789709,,,
38.0781250000,4,0.9244080186,,,
38.0937500000,4,0.6034240723,,,
38.1093750000,4,0.1974411011,,,
38.1250000000,4,-0.2102584988,,,
38.1406250000,4,-0.5328978896,,,
38.1562500000,4,-0.7408599854,,,
38.1718750000,4,-0.8407440186,,,
38.1875000000,4,-0.8863449097,,,
38.2031250000,4,-0.9399489760,,,
38.2187500000,4,-1.0473020077,,,
38.2343750000,4,-1.2195739746,,,
38.2500000000,4,-1.4205399752,,,
38.2656250000,4,-1.5877380371,,,
38.2812500000,4,-1.6424410343,,,
38.2968750000,4,-1.5403980017,,,
38.3125000000,4,-1.2654880285,,,
38.3281250000,4,-0.8660659790,,,
38.3437500000,4,-0.4390181899,,,
38.3593750000,4,-0.0854187012,,,
38.3750000000,4,0.1044998020,,,
38.3906250000,4,0.0838394165,,,
38.4062500000,4,-0.1254958957,,,
38.4218750000,4,-0.4495086968,,,
38.4375000000,4,-0.8030930161,,,
38.4531250000,4,-1.1053470373,,,
38.4687500000,4,-1.3237760067,,,
38.4843750000,4,-1.4664540291,,,
38.5000000000,4,-1.5342860222,,,
38.5156250000,4,-1.5083160400,,,
38.5312500000,4,-1.3205640316,,,
38.5468750000,4,-0.8995438218,,,
38.5625000000,4,-0.2537308037,,,
38.5781250000,4,0.4778976142,,,
38.5937500000,4,1.0766450167,,,
38.6093750000,4,1.3215030432,,,
38.6250000000,4,1.1436840296,,,
38.6406250000,4,0.6872025132,,,
38.6562500000,4,0.2364425957,,,
38.6718750000,4,0.0574874915,,,
38.6875000000,4,0.2415771037,,,
38.7031250000,4,0.6533278823,,,
38.7187500000,4,1.0224610567,,,
38.7343750000,4,1.1118470430,,,
38.7500000000,4,0.8579254150,,,
38.7656250000,4,0.3995055854,,,
38.7812500000,4,-0.0357284509,,,
38.7968750000,4,-0.2853088081,,,
38.8125000000,4,-0.3363494873,,,
38.8281250000,4,-0.3063583076,,,
38.8437500000,4,-0.3361664116,,,
38.8593750000,4,-0.4852828979,,,
38.8750000000,4,-0.6977385879,,,
38.8906250000,4,-0.8449553847,,,
38.9062500000,4,-0.8198090196,,,
38.9218750000,4,-0.6025161743,,,
38.9375000000,4,-0.2636032104,,,
38.9531250000,4,0.0968093872,,,
38.9687500000,4,0.3937835991,,,
38.9843750000,4,0.5897216797,,,
39.0000000000,4,0.6912307739,,,
39.0156250000,4,0.7191696167,,,
39.0312500000,4,0.6718978882,,,
39.0468750000,4,0.5519027710,,,
39.0625000000,4,0.3568420112,,,
39.0781250000,4,0.1102904975,,,
39.0937500000,4,-0.1381835938,,,
39.1093750000,4,-0.3480452895,,,
39.1250000000,4,-0.4895553887,,,
39.1406250000,4,-0.5766068101,,,
39.1562500000,4,-0.6376494765,,,
39.1718750000,4,-0.7098007202,,,
39.1875000000,4,-0.7879332900,,,
39.2031250000,4,-0.8425139785,,,
39.2187500000,4,-0.8076552749,,,
39.2343750000,4,-0.6305541992,,,
39.2500000000,4,-0.3067092896,,,
39.2656250000,4,0.1177596971,,,
39.2812500000,4,0.5531311035,,,
39.2968750000,4,0.9012299180,,,
39.3125000000,4,1.1127699614,,,
39.3281250000,4,1.1850659847,,,
39.3437500000,4,1.1427609921,,,
39.3593750000,4,1.0059130192,,,
39.3750000000,4,0.7789307237,,,
39.3906250000,4,0.4628601074,,,
39.4062500000,4,0.0871810913,,,
39.4218750000,4,-0.2959823906,,,
39.4375000000,4,-0.6060866714,,,
39.4531250000,4,-0.7936248779,,,
39.4687500000,4,-0.8441315293,,,
39.4843750000,4,-0.8040847778,,,
39.5000000000,4,-0.7336196899,,,
39.5156250000,4,-0.6550217271,,,
39.5312500000,4,-0.5551528931,,,
39.5468750000,4,-0.3886719048,,,
39.5625000000,4,-0.1355209053,,,
39.5781250000,4,0.1908950955,,,
39.5937500000,4,0.5172423720,,,
39.6093750000,4,0.7714614868,,,
39.6250000000,4,0.9083480835,,,
39.6406250000,4,0.9268646240,,,
39.6562500000,4,0.8502655029,,,
39.6718750000,4,0.6878433228,,,
39.6875000000,4,0.4391174018,,,
39.7031250000,4,0.1056442037,,,
39.7187500000,4,-0.2546615899,,,
39.7343750000,4,-0.5385283828,,,
39.7500000000,4,-0.6112442017,,,
39.7656250000,4,-0.3741073906,,,
39.7812500000,4,0.1788482964,,,
39.7968750000,4,0.9136124253,,,
39.8125000000,4,1.6245959997,,,
39.8281250000,4,2.1153340340,,,
39.8437500000,4,2.2690958977,,,
39.8593750000,4,2.0885848999,,,
39.8750000000,4,1.6825790405,,,
39.8906250000,4,1.1984250546,,,
39.9062500000,4,0.7699202895,,,
39.9218750000,4,0.4606400132,,,
39.9375000000,4,0.2730025947,,,
39.9531250000,4,0.1640319973,,,
39.9687500000,4,0.0933914185,,,
39.9843750000,4,0.0227508508,,,
40.0000000000,5,-0.0588378906,,,
40.0156250000,5,-0.1388244927,,,
40.0312500000,5,-0.1708220989,,,
40.0468750000,5,-0.1064376980,,,
40.0625000000,5,0.0725021437,,,
40.0781250000,5,0.3314895928,,,
40.0937500000,5,0.5774918199,,,
40.1093750000,5,0.7160491943,,,
40.1250000000,5,0.6814575195,,,
40.1406250000,5,0.4865188897,,,
40.1562500000,5,0.2071304023,,,
40.1718750000,5,-0.0707015991,,,
40.1875000000,5,-0.3029784858,,,
40.2031250000,5,-0.4877395928,,,
40.2187500000,5,-0.6310806274,,,
40.2343750000,5,-0.7221450806,,,
40.2500000000,5,-0.7087249756,,,
40.2656250000,5,-0.5605391860,,,
40.2812500000,5,-0.2873610854,,,
40.2968750000,5,0.0058746338,,,
40.3125000000,5,0.1716842949,,,
40.3281250000,5,0.1172408983,,,
40.3437500000,5,-0.1175232008,,,
40.3593750000,5,-0.3595122993,,,
40.3750000000,5,-0.4145736992,,,
40.3906250000,5,-0.1880722046,,,
40.4062500000,5,0.2394333035,,,
40.4218750000,5,0.6471939087,,,
40.4375000000,5,0.8075867295,,,
40.4531250000,5,0.6250534058,,,
40.4687500000,5,0.1961365044,,,
40.4843750000,5,-0.2635650933,,,
40.5000000000,5,-0.5212860107,,,
40.5156250000,5,-0.4714278877,,,
40.5312500000,5,-0.1611098945,,,
40.5468750000,5,0.2380523980,,,
40.5625000000,5,0.5378417969,,,
40.5781250000,5,0.6225357056,,,
40.5937500000,5,0.4741744995,,,
40.6093750000,5,0.1685791016,,,
40.6250000000,5,-0.1798858941,,,
40.6406250000,5,-0.4640578926,,,
40.6562500000,5,-0.6138839722,,,
40.6718750000,5,-0.5982360840,,,
40.6875000000,5,-0.4310759902,,,
40.7031250000,5,-0.1606902927,,,
40.7187500000,5,0.1298065037,,,
40.7343750000,5,0.3624495864,,,
40.7500000000,5,0.5017775893,,,
40.7656250000,5,0.5551453233,,,
40.7812500000,5,0.5813751221,,,
40.7968750000,5,0.6282501221,,,
40.8125000000,5,0.7042083740,,,
40.8281250000,5,0.7560501099,,,
40.8437500000,5,0.7070540786,,,
40.8593750000,5,0.5025253296,,,
40.8750000000,5,0.1524353027,,,
40.8906250000,5,-0.2740097046,,,
40.9062500000,5,-0.6809844971,,,
40.9218750000,5,-1.0034259558,,,
40.9375000000,5,-1.2239689827,,,
40.9531250000,5,-1.3701169491,,,
40.9687500000,5,-1.4813840389,,,
40.9843750000,5,-1.5729370117,,,
41.0000000000,5,-1.6115649939,,,
41.0156250000,5,-1.5316540003,,,
41.0312500000,5,-1.2947540283,,,
41.0468750000,5,-0.9253463745,,,
41.0625000000,5,-0.5163422227,,,
41.0781250000,5,-0.1969985962,,,
41.0937500000,5,-0.0584335290,,,
41.1093750000,5,-0.1086502001,,,
41.1250000000,5,-0.2583236992,,,
41.1406250000,5,-0.3741531074,,,
41.1562500000,5,-0.3454742134,,,
41.1718750000,5,-0.1548614949,,,
41.1875000000,5,0.1257400960,,,
41.2031250000,5,0.3811646104,,,
41.2187500000,5,0.5265883803,,,
41.2343750000,5,0.5684738159,,,
41.2500000000,5,0.5873488784,,,
41.2656250000,5,0.6877059937,,,
41.2812500000,5,0.9085922241,,,
41.2968750000,5,1.1937099695,,,
41.3125000000,5,1.4112169743,,,
41.3281250000,5,1.4394609928,,,
41.3437500000,5,1.2371289730,,,
41.3593750000,5,0.8796538711,,,
41.3750000000,5,0.5141143799,,,
41.3906250000,5,0.2711181939,,,
41.4062500000,5,0.2000503987,,,
41.4218750000,5,0.2383804023,,,
41.4375000000,5,0.2789688110,,,
41.4531250000,5,0.2592163086,,,
41.4687500000,5,0.2078780979,,,
41.4843750000,5,0.2134705037,,,
41.5000000000,5,0.3495559990,,,
41.5156250000,5,0.5985260010,,,
41.5312500000,5,0.8237000108,,,
41.5468750000,5,0.8538588881,,,
41.5625000000,5,0.6169815063,,,
41.5781250000,5,0.1948775947,,,
41.5937500000,5,-0.2090301961,,,
41.6093750000,5,-0.4020766914,,,
41.6250000000,5,-0.3305510879,,,
41.6406250000,5,-0.1070327982,,,
41.6562500000,5,0.0705032274,,,
41.6718750000,5,0.0698852465,,,
41.6875000000,5,-0.0700683594,,,
41.7031250000,5,-0.1905288994,,,
41.7187500000,5,-0.1215896979,,,
41.7343750000,5,0.1560516059,,,
41.7500000000,5,0.4777908027,,,
41.7656250000,5,0.6011962891,,,
41.7812500000,5,0.3567734063,,,
41.7968750000,5,-0.2289199978,,,
41.8125000000,5,-0.9350432754,,,
41.8281250000,5,-1.4749599695,,,
41.8437500000,5,-1.6469119787,,,
41.8593750000,5,-1.4349900484,,,
41.8750000000,5,-1.0058209896,,,
41.8906250000,5,-0.6045302749,,,
41.9062500000,5,-0.4325562119,,,
41.9218750000,5,-0.5596619248,,,
41.9375000000,5,-0.9235076904,,,
41.9531250000,5,-1.3691250086,,,
41.9687500000,5,-1.7322920561,,,
41.9843750000,5,-1.9243320227,,,
42.0000000000,5,-1.9313130379,,,
42.0156250000,5,-1.8006900549,,,
42.0312500000,5,-1.5906070471,,,
42.0468750000,5,-1.3449939489,,,
42.0625000000,5,-1.0580830574,,,
42.0781250000,5,-0.7154998779,,,
42.0937500000,5,-0.3129195869,,,
42.1093750000,5,0.1239013970,,,
42.1250000000,5,0.5345153809,,,
42.1406250000,5,0.8454132080,,,
42.1562500000,5,0.9921265244,,,
42.1718750000,5,0.9440155029,,,
42.1875000000,5,0.7215424180,,,
42.2031250000,5,0.3962020874,,,
42.2187500000,5,0.0926895067,,,
42.2343750000,5,-0.0478057899,,,
42.2500000000,5,0.0686798096,,,
42.2656250000,5,0.4396590889,,,
42.2812500000,5,0.9594650269,,,
42.2968750000,5,1.4692920446,,,
42.3125000000,5,1.8270419836,,,
42.3281250000,5,1.9652329683,,,
42.3437500000,5,1.9109799862,,,
42.3593750000,5,1.7331310511,,,
42.3750000000,5,1.4903179407,,,
42.3906250000,5,1.2189249992,,,
42.4062500000,5,0.9405364990,,,
42.4218750000,5,0.6953201294,,,
42.4375000000,5,0.5364913940,,,
42.4531250000,5,0.5079041123,,,
42.4687500000,5,0.5899658203,,,
42.4843750000,5,0.6907119751,,,
42.5000000000,5,0.7005004883,,,
42.5156250000,5,0.5521317124,,,
42.5312500000,5,0.2925567925,,,
42.5468750000,5,0.0483779907,,,
42.5625000000,5,-0.0267562903,,,
42.5781250000,5,0.1144791022,,,
42.5937500000,5,0.3894805908,,,
42.6093750000,5,0.6108856201,,,
42.6250000000,5,0.5877761841,,,
42.6406250000,5,0.2327346951,,,
42.6562500000,5,-0.3848952949,,,
42.6718750000,5,-1.0717769861,,,
42.6875000000,5,-1.6080780029,,,
42.7031250000,5,-1.8595809937,,,
42.7187500000,5,-1.8434679508,,,
42.7343750000,5,-1.6747740507,,,
42.7500000000,5,-1.5031809807,,,
42.7656250000,5,-1.4102250338,,,
42.7812500000,5,-1.4006350040,,,
42.7968750000,5,-1.4111100435,,,
42.8125000000,5,-1.3905719519,,,
42.8281250000,5,-1.3318790197,,,
42.8437500000,5,-1.2470400333,,,
42.8593750000,5,-1.1557309628,,,
42.8750000000,5,-1.0414049625,,,
42.8906250000,5,-0.8617020249,,,
42.9062500000,5,-0.5925217271,,,
42.9218750000,5,-0.2617644966,,,
42.9375000000,5,0.0390090905,,,
42.9531250000,5,0.2096558064,,,
42.9687500000,5,0.1725234985,,,
42.9843750000,5,-0.0573348999,,,
43.0000000000,5,-0.3907546997,,,
43.0156250000,5,-0.7010498047,,,
43.0312500000,5,-0.8737410903,,,
43.0468750000,5,-0.8668746948,,,
43.0625000000,5,-0.6947708130,,,
43.0781250000,5,-0.4212265015,,,
43.0937500000,5,-0.1040344015,,,
43.1093750000,5,0.2160339057,,,
43.1250000000,5,0.5225219727,,,
43.1406250000,5,0.8004149795,,,
43.1562500000,5,1.0409619808,,,
43.1718750000,5,1.2136230469,,,
43.1875000000,5,1.2895129919,,,
43.2031250000,5,1.2544020414,,,
43.2187500000,5,1.1225889921,,,
43.2343750000,5,0.9551696777,,,
43.2500000000,5,0.8358687758,,,
43.2656250000,5,0.8433837891,,,
43.2812500000,5,0.9772338867,,,
43.2968750000,5,1.1498179436,,,
43.3125000000,5,1.1996079683,,,
43.3281250000,5,0.9838333130,,,
43.3437500000,5,0.4771499932,,,
43.3593750000,5,-0.1962050945,,,
43.3750000000,5,-0.7851790786,,,
43.3906250000,5,-1.0459369421,,,
43.4062500000,5,-0.8548583984,,,
43.4218750000,5,-0.2986831963,,,
43.4375000000,5,0.3557738960,,,
43.4531250000,5,0.8043823242,,,
43.4687500000,5,0.8392180800,,,
43.4843750000,5,0.4548797905,,,
43.5000000000,5,-0.1785964966,,,
43.5156250000,5,-0.8114929199,,,
43.5312500000,5,-1.2383270264,,,
43.5468750000,5,-1.3823169470,,,
43.5625000000,5,-1.2874369621,,,
43.5781250000,5,-1.0672299862,,,
43.5937500000,5,-0.8288269043,,,
43.6093750000,5,-0.6111068726,,,
43.6250000000,5,-0.3909530938,,,
43.6406250000,5,-0.1452483982,,,
43.6562500000,5,0.1122208014,,,
43.6718750000,5,0.2812271118,,,
43.6875000000,5,0.2354125977,,,
43.7031250000,5,-0.1047668010,,,
43.7187500000,5,-0.6701049805,,,
43.7343750000,5,-1.2734600306,,,
43.7500000000,5,-1.6529239416,,,
43.7656250000,5,-1.6241070032,,,
43.7812500000,5,-1.1711269617,,,
43.7968750000,5,-0.4602051079,,,
43.8125000000,5,0.2301636040,,,
43.8281250000,5,0.6716079712,,,
43.8437500000,5,0.7668685913,,,
43.8593750000,5,0.5675734878,,,
43.8750000000,5,0.2139053047,,,
43.8906250000,5,-0.1616286933,,,
43.9062500000,5,-0.4659194946,,,
43.9218750000,5,-0.6573485732,,,
43.9375000000,5,-0.7336502075,,,
43.9531250000,5,-0.6913300157,,,
43.9687500000,5,-0.5377578735,,,
43.9843750000,5,-0.3068008125,,,
44.0000000000,5,-0.0399398804,,,
44.0156250000,5,0.2361755073,,,
44.0312500000,5,0.5221862793,,,
44.0468750000,5,0.8201751709,,,
44.0625000000,5,1.1105040312,,,
44.0781250000,5,1.3294910192,,,
44.0937500000,5,1.3742680550,,,
44.1093750000,5,1.1874469519,,,
44.1250000000,5,0.7900161743,,,
44.1406250000,5,0.2986755073,,,
44.1562500000,5,-0.1343993992,,,
44.1718750000,5,-0.4087296128,,,
44.1875000000,5,-0.4990158081,,,
44.2031250000,5,-0.4745788872,,,
44.2187500000,5,-0.4107742012,,,
44.2343750000,5,-0.3675003052,,,
44.2500000000,5,-0.3554153144,,,
44.2656250000,5,-0.3824996948,,,
44.2812500000,5,-0.4591521919,,,
44.2968750000,5,-0.5883635879,,,
44.3125000000,5,-0.7528305054,,,
44.3281250000,5,-0.8785324097,,,
44.3437500000,5,-0.8633574843,,,
44.3593750000,5,-0.6216735840,,,
44.3750000000,5,-0.1560364068,,,
44.3906250000,5,0.4351500869,,,
44.4062500000,5,1.0039139986,,,
44.4218750000,5,1.4130100012,,,
44.4375000000,5,1.5659259558,,,
44.4531250000,5,1.4505000114,,,
44.4687500000,5,1.0966260433,,,
44.4843750000,5,0.5679702759,,,
44.5000000000,5,-0.0186615009,,,
44.5156250000,5,-0.5055847168,,,
44.5312500000,5,-0.7147064209,,,
44.5468750000,5,-0.5129088759,,,
44.5625000000,5,0.1114272997,,,
44.5781250000,5,1.0303189754,,,
44.5937500000,5,1.9900510311,,,
44.6093750000,5,2.7017591000,,,
44.6250000000,5,2.9450299740,,,
44.6406250000,5,2.6378629208,,,
44.6562500000,5,1.8592989445,,,
44.6718750000,5,0.8014221191,,,
44.6875000000,5,-0.2885284126,,,
44.7031250000,5,-1.1816710234,,,
44.7187500000,5,-1.7368849516,,,
44.7343750000,5,-1.9218139648,,,
44.7500000000,5,-1.8042299747,,,
44.7656250000,5,-1.5063019991,,,
44.7812500000,5,-1.1444319487,,,
44.7968750000,5,-0.7772293091,,,
44.8125000000,5,-0.4018172920,,,
44.8281250000,5,0.0054855351,,,
44.8437500000,5,0.4445877075,,,
44.8593750000,5,0.8864974976,,,
44.8750000000,5,1.2783809900,,,
44.8906250000,5,1.5899200439,,,
44.9062500000,5,1.8322069645,,,
44.9218750000,5,2.0386888981,,,
44.9375000000,5,2.2174909115,,,
44.9531250000,5,2.3382189274,,,
44.9687500000,5,2.3199460506,,,
44.9843750000,5,2.0912859440,,,
45.0000000000,5,1.6253509521,,,
45.0156250000,5,0.9882506728,,,
45.0312500000,5,0.3096084893,,,
45.0468750000,5,-0.2532806098,,,
45.0625000000,5,-0.5872269273,,,
45.0781250000,5,-0.6396636963,,,
45.0937500000,5,-0.4274444878,,,
45.1093750000,5,-0.0343627892,,,
45.1250000000,5,0.4406433105,,,
45.1406250000,5,0.8762360215,,,
45.1562500000,5,1.1558459997,,,
45.1718750000,5,1.1855239868,,,
45.1875000000,5,0.9002761841,,,
45.2031250000,5,0.3077698052,,,
45.2187500000,5,-0.4983977973,,,
45.2343750000,5,-1.3632810116,,,
45.2500000000,5,-2.0887680054,,,
45.2656250000,5,-2.5168609619,,,
45.2812500000,5,-2.5650711060,,,
45.2968750000,5,-2.2694699764,,,
45.3125000000,5,-1.7225420475,,,
45.3281250000,5,-1.0490880013,,,
45.3437500000,5,-0.3728637993,,,
45.3593750000,5,0.2180175930,,,
45.3750000000,5,0.6548461914,,,
45.3906250000,5,0.9021759033,,,
45.4062500000,5,0.9538115859,,,
45.4218750000,5,0.8365479112,,,
45.4375000000,5,0.6085510254,,,
45.4531250000,5,0.3552398980,,,
45.4687500000,5,0.1388701946,,,
45.4843750000,5,-0.0053482060,,,
45.5000000000,5,-0.0843582228,,,
45.5156250000,5,-0.1329116970,,,
45.5312500000,5,-0.2090758979,,,
45.5468750000,5,-0.3445662856,,,
45.5625000000,5,-0.5505753160,,,
45.5781250000,5,-0.8127593994,,,
45.5937500000,5,-1.0785219669,,,
45.6093750000,5,-1.2741849422,,,
45.6250000000,5,-1.3266830444,,,
45.6406250000,5,-1.1802519560,,,
45.6562500000,5,-0.8278731704,,,
45.6718750000,5,-0.3348923028,,,
45.6875000000,5,0.1857604980,,,
45.7031250000,5,0.6126328111,,,
45.7187500000,5,0.8606719971,,,
45.7343750000,5,0.8899077773,,,
45.7500000000,5,0.7210770249,,,
45.7656250000,5,0.4105910957,,,
45.7812500000,5,0.0461273193,,,
45.7968750000,5,-0.3092193902,,,
45.8125000000,5,-0.6093062758,,,
45.8281250000,5,-0.8182755113,,,
45.8437500000,5,-0.9255065918,,,
45.8593750000,5,-0.9224014282,,,
45.8750000000,5,-0.8209609985,,,
45.8906250000,5,-0.6588897705,,,
45.9062500000,5,-0.4856185913,,,
45.9218750000,5,-0.3555983901,,,
45.9375000000,5,-0.2917023003,,,
45.9531250000,5,-0.2708893120,,,
45.9687500000,5,-0.2376479954,,,
45.9843750000,5,-0.1522521973,,,
46.0000000000,5,0.0045318599,,,
46.0156250000,5,0.2002258003,,,
46.0312500000,5,0.3627013862,,,
46.0468750000,5,0.4392699897,,,
46.0625000000,5,0.4319992065,,,
46.0781250000,5,0.3980712891,,,
46.0937500000,5,0.4202956855,,,
46.1093750000,5,0.5564650893,,,
46.1250000000,5,0.7789459229,,,
46.1406250000,5,1.0041199923,,,
46.1562500000,5,1.1585010290,,,
46.1718750000,5,1.2033920288,,,
46.1875000000,5,1.1731189489,,,
46.2031250000,5,1.1260989904,,,
46.2187500000,5,1.0852890015,,,
46.2343750000,5,1.0266569853,,,
46.2500000000,5,0.8890914917,,,
46.2656250000,5,0.6302031875,,,
46.2812500000,5,0.2766875923,,,
46.2968750000,5,-0.0773010328,,,
46.3125000000,5,-0.3346557915,,,
46.3281250000,5,-0.4237976074,,,
46.3437500000,5,-0.3659667969,,,
46.3593750000,5,-0.2403336018,,,
46.3750000000,5,-0.1505050957,,,
46.3906250000,5,-0.1720046997,,,
46.4062500000,5,-0.3083420098,,,
46.4218750000,5,-0.5037384033,,,
46.4375000000,5,-0.6577529907,,,
46.4531250000,5,-0.6860808730,,,
46.4687500000,5,-0.5513306260,,,
46.4843750000,5,-0.3179855049,,,
46.5000000000,5,-0.1149825975,,,
46.5156250000,5,-0.0732727125,,,
46.5312500000,5,-0.2531281114,,,
46.5468750000,5,-0.5722122192,,,
46.5625000000,5,-0.8389434814,,,
46.5781250000,5,-0.8606719971,,,
46.5937500000,5,-0.5528792739,,,
46.6093750000,5,-0.0022201540,,,
46.6250000000,5,0.5633850098,,,
46.6406250000,5,0.9109954834,,,
46.6562500000,5,0.9270477295,,,
46.6718750000,5,0.6599274278,,,
46.6875000000,5,0.2718963921,,,
46.7031250000,5,-0.0554962195,,,
46.7187500000,5,-0.2365036011,,,
46.7343750000,5,-0.2843933105,,,
46.7500000000,5,-0.2858200073,,,
46.7656250000,5,-0.3264235854,,,
46.7812500000,5,-0.4306258857,,,
46.7968750000,5,-0.5565413833,,,
46.8125000000,5,-0.6320266724,,,
46.8281250000,5,-0.5862197876,,,
46.8437500000,5,-0.4028015137,,,
46.8593750000,5,-0.1165618971,,,
46.8750000000,5,0.1776504964,,,
46.8906250000,5,0.3887633979,,,
46.9062500000,5,0.4335327148,,,
46.9218750000,5,0.2864609063,,,
46.9375000000,5,-0.0066223140,,,
46.9531250000,5,-0.3649139106,,,
46.9687500000,5,-0.6834716797,,,
46.9843750000,5,-0.8805541992,,,
47.0000000000,5,-0.9309769273,,,
47.0156250000,5,-0.8581314087,,,
47.0312500000,5,-0.7352294922,,,
47.0468750000,5,-0.6246948242,,,
47.0625000000,5,-0.5469818115,,,
47.0781250000,5,-0.4767532051,,,
47.0937500000,5,-0.3560332954,,,
47.1093750000,5,-0.1415404975,,,
47.1250000000,5,0.1477966011,,,
47.1406250000,5,0.4431686103,,,
47.1562500000,5,0.6544417739,,,
47.1718750000,5,0.7325745225,,,
47.1875000000,5,0.6957092285,,,
47.2031250000,5,0.6045380235,,,
47.2187500000,5,0.5190886855,,,
47.2343750000,5,0.4643250108,,,
47.2500000000,5,0.4046325982,,,
47.2656250000,5,0.3034897149,,,
47.2812500000,5,0.1594772041,,,
47.2968750000,5,0.0208053607,,,
47.3125000000,5,-0.0530700684,,,
47.3281250000,5,-0.0274963398,,,
47.3437500000,5,0.0659332275,,,
47.3593750000,5,0.1667174995,,,
47.3750000000,5,0.2097397000,,,
47.3906250000,5,0.1954268962,,,
47.4062500000,5,0.1611481011,,,
47.4218750000,5,0.1587142944,,,
47.4375000000,5,0.2120514065,,,
47.4531250000,5,0.2881850898,,,
47.4687500000,5,0.3166427910,,,
47.4843750000,5,0.2254638970,,,
47.5000000000,5,-0.0128707904,,,
47.5156250000,5,-0.3707656860,,,
47.5312500000,5,-0.7739409804,,,
47.5468750000,5,-1.1143649817,,,
47.5625000000,5,-1.3071440458,,,
47.5781250000,5,-1.3211590052,,,
47.5937500000,5,-1.1903229952,,,
47.6093750000,5,-0.9846420288,,,
47.6250000000,5,-0.7702178955,,,
47.6406250000,5,-0.5575103760,,,
47.6562500000,5,-0.3065643013,,,
47.6718750000,5,0.0202789307,,,
47.6875000000,5,0.4116744995,,,
47.7031250000,5,0.7760086060,,,
47.7187500000,5,0.9954453111,,,
47.7343750000,5,0.9958801270,,,
47.7500000000,5,0.7814713120,,,
47.7656250000,5,0.4340972900,,,
47.7812500000,5,0.0548858605,,,
47.7968750000,5,-0.2863464057,,,
47.8125000000,5,-0.5629044175,,,
47.8281250000,5,-0.7644882202,,,
47.8437500000,5,-0.8792343140,,,
47.8593750000,5,-0.8929290771,,,
47.8750000000,5,-0.8181992173,,,
47.8906250000,5,-0.6971892715,,,
47.9062500000,5,-0.5874404907,,,
47.9218750000,5,-0.5062407851,,,
47.9375000000,5,-0.3992537856,,,
47.9531250000,5,-0.1739501953,,,
47.9687500000,5,0.2219543010,,,
47.9843750000,5,0.7345275879,,,
48.0000000000,6,1.2066960335,,,
48.0156250000,6,1.4664230347,,,
48.0312500000,6,1.4394760132,,,
48.0468750000,6,1.1926729679,,,
48.0625000000,6,0.8924102783,,,
48.0781250000,6,0.6923751831,,,
48.0937500000,6,0.6245499253,,,
48.1093750000,6,0.6126555800,,,
48.1250000000,6,0.5415496826,,,
48.1406250000,6,0.3493194878,,,
48.1562500000,6,0.0774688721,,,
48.1718750000,6,-0.1689452976,,,
48.1875000000,6,-0.2981033027,,,
48.2031250000,6,-0.3087921143,,,
48.2187500000,6,-0.2811507881,,,
48.2343750000,6,-0.3375549018,,,
48.2500000000,6,-0.5409622192,,,
48.2656250000,6,-0.8515015244,,,
48.2812500000,6,-1.1334760189,,,
48.2968750000,6,-1.2354660034,,,
48.3125000000,6,-1.0745090246,,,
48.3281250000,6,-0.6911087036,,,
48.3437500000,6,-0.2413711995,,,
48.3593750000,6,0.1029205024,,,
48.3750000000,6,0.2109909058,,,
48.3906250000,6,0.0705413818,,,
48.4062500000,6,-0.2290726006,,,
48.4218750000,6,-0.5408095717,,,
48.4375000000,6,-0.7419127822,,,
48.4531250000,6,-0.7778244019,,,
48.4687500000,6,-0.6603850722,,,
48.4843750000,6,-0.4359588921,,,
48.5000000000,6,-0.1674880981,,,
48.5156250000,6,0.1103667989,,,
48.5312500000,6,0.3825683892,,,
48.5468750000,6,0.6344451904,,,
48.5625000000,6,0.8265609741,,,
48.5781250000,6,0.9273529053,,,
48.5937500000,6,0.9010161757,,,
48.6093750000,6,0.7442092896,,,
48.6250000000,6,0.4965285957,,,
48.6406250000,6,0.2260055989,,,
48.6562500000,6,0.0164108295,,,
48.6718750000,6,-0.0687408373,,,
48.6875000000,6,-0.0113830604,,,
48.7031250000,6,0.1483231038,,,
48.7187500000,6,0.3402175903,,,
48.7343750000,6,0.4864425957,,,
48.7500000000,6,0.5357894897,,,
48.7656250000,6,0.4779357910,,,
48.7812500000,6,0.3226624131,,,
48.7968750000,6,0.0836563110,,,
48.8125000000,6,-0.2346190959,,,
48.8281250000,6,-0.6166687012,,,
48.8437500000,6,-1.0365370512,,,
48.8593750000,6,-1.4232029915,,,
48.8750000000,6,-1.6939090490,,,
48.8906250000,6,-1.7849730253,,,
48.9062500000,6,-1.6748429537,,,
48.9218750000,6,-1.3884810209,,,
48.9375000000,6,-0.9964675903,,,
48.9531250000,6,-0.5897521973,,,
48.9687500000,6,-0.2606048882,,,
48.9843750000,6,-0.0705642700,,,
49.0000000000,6,-0.0498275794,,,
49.0156250000,6,-0.1611938030,,,
49.0312500000,6,-0.3403624892,,,
49.0468750000,6,-0.4920197129,,,
49.0625000000,6,-0.5558319092,,,
49.0781250000,6,-0.5045775771,,,
49.0937500000,6,-0.3842009902,,,
49.1093750000,6,-0.2761001885,,,
49.1250000000,6,-0.2481766045,,,
49.1406250000,6,-0.3268127143,,,
49.1562500000,6,-0.4602661133,,,
49.1718750000,6,-0.5733414292,,,
49.1875000000,6,-0.5793991089,,,
49.2031250000,6,-0.4583053887,,,
49.2187500000,6,-0.2322158962,,,
49.2343750000,6,0.0307235699,,,
49.2500000000,6,0.2706984878,,,
49.2656250000,6,0.4599837959,,,
49.2812500000,6,0.6028441787,,,
49.2968750000,6,0.7236099243,,,
49.3125000000,6,0.8337554932,,,
49.3281250000,6,0.9122849107,,,
49.3437500000,6,0.9013519287,,,
49.3593750000,6,0.7711945176,,,
49.3750000000,6,0.5336989760,,,
49.3906250000,6,0.2693786919,,,
49.4062500000,6,0.1069869995,,,
49.4218750000,6,0.1520233005,,,
49.4375000000,6,0.4294357002,,,
49.4531250000,6,0.8619461060,,,
49.4687500000,6,1.3064960241,,,
49.4843750000,6,1.6164929867,,,
49.5000000000,6,1.6915049553,,,
49.5156250000,6,1.5377730131,,,
49.5312500000,6,1.2554470301,,,
49.5468750000,6,1.0036239624,,,
49.5625000000,6,0.9011917114,,,
49.5781250000,6,0.9839324951,,,
49.5937500000,6,1.1693270206,,,
49.6093750000,6,1.3254619837,,,
49.6250000000,6,1.3298189640,,,
49.6406250000,6,1.1406019926,,,
49.6562500000,6,0.8148880005,,,
49.6718750000,6,0.4426803887,,,
49.6875000000,6,0.1072617024,,,
49.7031250000,6,-0.1705856025,,,
49.7187500000,6,-0.3935776055,,,
49.7343750000,6,-0.5522078872,,,
49.7500000000,6,-0.6058577895,,,
49.7656250000,6,-0.4979400933,,,
49.7812500000,6,-0.2299727947,,,
49.7968750000,6,0.1023788005,,,
49.8125000000,6,0.3522338867,,,
49.8281250000,6,0.4004288018,,,
49.8437500000,6,0.2336121053,,,
49.8593750000,6,-0.0295639001,,,
49.8750000000,6,-0.2146988064,,,
49.8906250000,6,-0.2185897976,,,
49.9062500000,6,-0.0584564209,,,
49.9218750000,6,0.1378325969,,,
49.9375000000,6,0.2098083049,,,
49.9531250000,6,0.0521545410,,,
49.9687500000,6,-0.3238449097,,,
49.9843750000,6,-0.8124312758,,,
50.0000000000,6,-1.2759859562,,,
50.0156250000,6,-1.5874789953,,,
50.0312500000,6,-1.6750639677,,,
50.0468750000,6,-1.5222469568,,,
50.0625000000,6,-1.1791839600,,,
50.0781250000,6,-0.7288588881,,,
50.0937500000,6,-0.2724303901,,,
50.1093750000,6,0.1086883992,,,
50.1250000000,6,0.3702468872,,,
50.1406250000,6,0.5308074951,,,
50.1562500000,6,0.6155776978,,,
50.1718750000,6,0.6499329209,,,
50.1875000000,6,0.6370391846,,,
50.2031250000,6,0.5774459839,,,
50.2187500000,6,0.4867249131,,,
50.2343750000,6,0.4317244887,,,
50.2500000000,6,0.4905242920,,,
50.2656250000,6,0.7090529799,,,
50.2812500000,6,1.0567400455,,,
50.2968750000,6,1.4185559750,,,
50.3125000000,6,1.6329569817,,,
50.3281250000,6,1.5800399780,,,
50.3437500000,6,1.2478940487,,,
50.3593750000,6,0.7310181260,,,
50.3750000000,6,0.1952971965,,,
50.3906250000,6,-0.2277373970,,,
50.4062500000,6,-0.4675979912,,,
50.4218750000,6,-0.5374146104,,,
50.4375000000,6,-0.5008391738,,,
50.4531250000,6,-0.4347991943,,,
50.4687500000,6,-0.3755722046,,,
50.4843750000,6,-0.3164902031,,,
50.5000000000,6,-0.2409821004,,,
50.5156250000,6,-0.1114197001,,,
50.5312500000,6,0.0733795166,,,
50.5468750000,6,0.2830353081,,,
50.5625000000,6,0.4497986138,,,
50.5781250000,6,0.4911194146,,,
50.5937500000,6,0.3669739068,,,
50.6093750000,6,0.1027603000,,,
50.6250000000,6,-0.2076416016,,,
50.6406250000,6,-0.4351348877,,,
50.6562500000,6,-0.5047072768,,,
50.6718750000,6,-0.4219588935,,,
50.6875000000,6,-0.3022232056,,,
50.7031250000,6,-0.2810364068,,,
50.7187500000,6,-0.4425049126,,,
50.7343750000,6,-0.7652282715,,,
50.7500000000,6,-1.1282650232,,,
50.7656250000,6,-1.3894879818,,,
50.7812500000,6,-1.4627989531,,,
50.7968750000,6,-1.3442150354,,,
50.8125000000,6,-1.1002039909,,,
50.8281250000,6,-0.8138579726,,,
50.8437500000,6,-0.5445709229,,,
50.8593750000,6,-0.3187789917,,,
50.8750000000,6,-0.1395493001,,,
50.8906250000,6,0.0005645752,,,
50.9062500000,6,0.1076050028,,,
50.9218750000,6,0.1958007962,,,
50.9375000000,6,0.2853164971,,,
50.9531250000,6,0.3929137886,,,
50.9687500000,6,0.5380783081,,,
50.9843750000,6,0.7449874878,,,
51.0000000000,6,1.0239030123,,,
51.0156250000,6,1.3665770292,,,
51.0312500000,6,1.7179490328,,,
51.0468750000,6,1.9799269438,,,
51.0625000000,6,2.0370559692,,,
51.0781250000,6,1.8148269653,,,
51.0937500000,6,1.3269499540,,,
51.1093750000,6,0.6881638169,,,
51.1250000000,6,0.0718612671,,,
51.1406250000,6,-0.3709945977,,,
51.1562500000,6,-0.5847014785,,,
51.1718750000,6,-0.6066436768,,,
51.1875000000,6,-0.5256348252,,,
51.2031250000,6,-0.4280776978,,,
51.2187500000,6,-0.3478393853,,,
51.2343750000,6,-0.2842178047,,,
51.2500000000,6,-0.2076721042,,,
51.2656250000,6,-0.0975418091,,,
51.2812500000,6,0.0573806800,,,
51.2968750000,6,0.2426224053,,,
51.3125000000,6,0.4113922119,,,
51.3281250000,6,0.4757232964,,,
51.3437500000,6,0.3609313965,,,
51.3593750000,6,0.0404968299,,,
51.3750000000,6,-0.4286423028,,,
51.3906250000,6,-0.8990250230,,,
51.4062500000,6,-1.2147220373,,,
51.4218750000,6,-1.2705760002,,,
51.4375000000,6,-1.0795140266,,,
51.4531250000,6,-0.7679213881,,,
51.4687500000,6,-0.5017014146,,,
51.4843750000,6,-0.3943938911,,,
51.5000000000,6,-0.4412078857,,,
51.5156250000,6,-0.5532608032,,,
51.5312500000,6,-0.6128845215,,,
51.5468750000,6,-0.5715178847,,,
51.5625000000,6,-0.4663619995,,,
51.5781250000,6,-0.3675994873,,,
51.5937500000,6,-0.3448028862,,,
51.6093750000,6,-0.3935393989,,,
51.6250000000,6,-0.4434585869,,,
51.6406250000,6,-0.4171906114,,,
51.6562500000,6,-0.2851563096,,,
51.6718750000,6,-0.0991287231,,,
51.6875000000,6,0.0299835205,,,
51.7031250000,6,0.0000228882,,,
51.7187500000,6,-0.2117080986,,,
51.7343750000,6,-0.5194625854,,,
51.7500000000,6,-0.7668151855,,,
51.7656250000,6,-0.8059844971,,,
51.7812500000,6,-0.5809174180,,,
51.7968750000,6,-0.1640778035,,,
51.8125000000,6,0.3078460991,,,
51.8281250000,6,0.6678618789,,,
51.8437500000,6,0.8407822251,,,
51.8593750000,6,0.8395615220,,,
51.8750000000,6,0.7416229248,,,
51.8906250000,6,0.6244583130,,,
51.9062500000,6,0.5162277222,,,
51.9218750000,6,0.3900986016,,,
51.9375000000,6,0.2071685940,,,
51.9531250000,6,-0.0346450806,,,
51.9687500000,6,-0.2905121148,,,
51.9843750000,6,-0.4850769043,,,
52.0000000000,6,-0.5790100098,,,
52.0156250000,6,-0.6012650132,,,
52.0312500000,6,-0.6252440810,,,
52.0468750000,6,-0.7088394165,,,
52.0625000000,6,-0.8362274170,,,
52.0781250000,6,-0.8836975098,,,
52.0937500000,6,-0.7072600722,,,
52.1093750000,6,-0.2259750068,,,
52.1250000000,6,0.5006256104,,,
52.1406250000,6,1.2656860352,,,
52.1562500000,6,1.7956390381,,,
52.1718750000,6,1.8950270414,,,
52.1875000000,6,1.5294419527,,,
52.2031250000,6,0.8422927856,,,
52.2187500000,6,0.0903854370,,,
52.2343750000,6,-0.4698486030,,,
52.2500000000,6,-0.7062149048,,,
52.2656250000,6,-0.6160507202,,,
52.2812500000,6,-0.3272857964,,,
52.2968750000,6,0.0000381470,,,
52.3125000000,6,0.2479934990,,,
52.3281250000,6,0.3539657891,,,
52.3437500000,6,0.3248595893,,,
52.3593750000,6,0.1960373074,,,
52.3750000000,6,0.0298996009,,,
52.3906250000,6,-0.1169510037,,,
52.4062500000,6,-0.1777953953,,,
52.4218750000,6,-0.1161041036,,,
52.4375000000,6,0.0487976111,,,
52.4531250000,6,0.2435760051,,,
52.4687500000,6,0.3472748101,,,
52.4843750000,6,0.2817992866,,,
52.5000000000,6,0.0696792603,,,
52.5156250000,6,-0.1760863960,,,
52.5312500000,6,-0.3028182983,,,
52.5468750000,6,-0.2183227986,,,
52.5625000000,6,0.0395812988,,,
52.5781250000,6,0.3414230049,,,
52.5937500000,6,0.5319061279,,,
52.6093750000,6,0.5456085205,,,
52.6250000000,6,0.4292908013,,,
52.6406250000,6,0.3144608140,,,
52.6562500000,6,0.3065032959,,,
52.6718750000,6,0.4091567993,,,
52.6875000000,6,0.5340805054,,,
52.7031250000,6,0.5539780259,,,
52.7187500000,6,0.4009627998,,,
52.7343750000,6,0.1208420023,,,
52.7500000000,6,-0.1709747016,,,
52.7656250000,6,-0.3444823921,,,
52.7812500000,6,-0.3483046889,,,
52.7968750000,6,-0.2346802056,,,
52.8125000000,6,-0.1386719048,,,
52.8281250000,6,-0.1790619045,,,
52.8437500000,6,-0.3924103081,,,
52.8593750000,6,-0.7107468247,,,
52.8750000000,6,-0.9965438843,,,
52.8906250000,6,-1.1390990019,,,
52.9062500000,6,-1.1238559484,,,
52.9218750000,6,-1.0306090117,,,
52.9375000000,6,-0.9684066772,,,
52.9531250000,6,-1.0092240572,,,
52.9687500000,6,-1.1147229671,,,
52.9843750000,6,-1.1995389462,,,
53.0000000000,6,-1.1727219820,,,
53.0156250000,6,-1.0239260197,,,
53.0312500000,6,-0.8167952895,,,
53.0468750000,6,-0.6370850205,,,
53.0625000000,6,-0.5193939209,,,
53.0781250000,6,-0.4159012139,,,
53.0937500000,6,-0.2422561944,,,
53.1093750000,6,0.0658035278,,,
53.1250000000,6,0.4707869887,,,
53.1406250000,6,0.8700026870,,,
53.1562500000,6,1.1279300451,,,
53.1718750000,6,1.1574020386,,,
53.1875000000,6,0.9466400146,,,
53.2031250000,6,0.5697020888,,,
53.2187500000,6,0.1426544040,,,
53.2343750000,6,-0.2189407051,,,
53.2500000000,6,-0.4299927056,,,
53.2656250000,6,-0.4770660102,,,
53.2812500000,6,-0.3930664063,,,
53.2968750000,6,-0.2417297065,,,
53.3125000000,6,-0.0993728563,,,
53.3281250000,6,0.0031890869,,,
53.3437500000,6,0.0786666870,,,
53.3593750000,6,0.1664505005,,,
53.3750000000,6,0.3034057915,,,
53.3906250000,6,0.4781494141,,,
53.4062500000,6,0.6333847046,,,
53.4218750000,6,0.7127150893,,,
53.4375000000,6,0.6827697754,,,
53.4531250000,6,0.5632628798,,,
53.4687500000,6,0.4306029975,,,
53.4843750000,6,0.3340148926,,,
53.5000000000,6,0.2845078111,,,
53.5156250000,6,0.2506943047,,,
53.5312500000,6,0.1888733059,,,
53.5468750000,6,0.0875091627,,,
53.5625000000,6,-0.0079650879,,,
53.5781250000,6,-0.0298843402,,,
53.5937500000,6,0.0700149536,,,
53.6093750000,6,0.2742156982,,,
53.6250000000,6,0.4977797866,,,
53.6406250000,6,0.6382369995,,,
53.6562500000,6,0.6278687119,,,
53.6718750000,6,0.4880523980,,,
53.6875000000,6,0.3004607856,,,
53.7031250000,6,0.1678085029,,,
53.7187500000,6,0.1405944973,,,
53.7343750000,6,0.1932906955,,,
53.7500000000,6,0.2406464070,,,
53.7656250000,6,0.2025832981,,,
53.7812500000,6,0.0634765625,,,
53.7968750000,6,-0.1203766018,,,
53.8125000000,6,-0.2729263008,,,
53.8281250000,6,-0.3406218886,,,
53.8437500000,6,-0.3249435127,,,
53.8593750000,6,-0.2798691094,,,
53.8750000000,6,-0.2697677910,,,
53.8906250000,6,-0.3325195014,,,
53.9062500000,6,-0.4887008965,,,
53.9218750000,6,-0.7308425903,,,
53.9375000000,6,-1.0310130119,,,
53.9531250000,6,-1.3451999426,,,
53.9687500000,6,-1.5838929415,,,
53.9843750000,6,-1.6567610502,,,
54.0000000000,6,-1.5071870089,,,
54.0156250000,6,-1.1587070227,,,
54.0312500000,6,-0.7285689712,,,
54.0468750000,6,-0.4016036987,,,
54.0625000000,6,-0.3220978081,,,
54.0781250000,6,-0.5381011963,,,
54.0937500000,6,-0.9560852051,,,
54.1093750000,6,-1.4094010592,,,
54.1250000000,6,-1.7288130522,,,
54.1406250000,6,-1.8147280216,,,
54.1562500000,6,-1.6346130371,,,
54.1718750000,6,-1.2014620304,,,
54.1875000000,6,-0.5653762817,,,
54.2031250000,6,0.1996002048,,,
54.2187500000,6,0.9527893066,,,
54.2343750000,6,1.5341420174,,,
54.2500000000,6,1.8066099882,,,
54.2656250000,6,1.7368470430,,,
54.2812500000,6,1.4224779606,,,
54.2968750000,6,1.0559079647,,,
54.3125000000,6,0.8144379258,,,
54.3281250000,6,0.7622528076,,,
54.3437500000,6,0.8678054810,,,
54.3593750000,6,1.0246429443,,,
54.3750000000,6,1.1512299776,,,
54.3906250000,6,1.2242970467,,,
54.4062500000,6,1.2525099516,,,
54.4218750000,6,1.2235790491,,,
54.4375000000,6,1.0735470057,,,
54.4531250000,6,0.7253189087,,,
54.4687500000,6,0.1738357991,,,
54.4843750000,6,-0.4659348130,,,
54.5000000000,6,-0.9924393296,,,
54.5156250000,6,-1.2207340002,,,
54.5312500000,6,-1.0907820463,,,
54.5468750000,6,-0.7055435181,,,
54.5625000000,6,-0.2553710938,,,
54.5781250000,6,0.0633773804,,,
54.5937500000,6,0.1589508057,,,
54.6093750000,6,0.0610046387,,,
54.6250000000,6,-0.1084595025,,,
54.6406250000,6,-0.2270126045,,,
54.6562500000,6,-0.2260361016,,,
54.6718750000,6,-0.1145554036,,,
54.6875000000,6,0.0357818604,,,
54.7031250000,6,0.1566009969,,,
54.7187500000,6,0.1958771050,,,
54.7343750000,6,0.1651916951,,,
54.7500000000,6,0.1074370965,,,
54.7656250000,6,0.0748138428,,,
54.7812500000,6,0.0996017531,,,
54.7968750000,6,0.1749801934,,,
54.8125000000,6,0.2568129897,,,
54.8281250000,6,0.2842178047,,,
54.8437500000,6,0.2333220989,,,
54.8593750000,6,0.1229552999,,,
54.8750000000,6,0.0331115685,,,
54.8906250000,6,0.0346450806,,,
54.9062500000,6,0.1480484009,,,
54.9218750000,6,0.3275527954,,,
54.9375000000,6,0.4903411865,,,
54.9531250000,6,0.5674285889,,,
54.9687500000,6,0.5637894273,,,
54.9843750000,6,0.5472412109,,,
55.0000000000,6,0.6136168838,,,
55.0156250000,6,0.8144683838,,,
55.0312500000,6,1.1197589636,,,
55.0468750000,6,1.4405059814,,,
55.0625000000,6,1.6610950232,,,
55.0781250000,6,1.7109149694,,,
55.0937500000,6,1.5825419426,,,
55.1093750000,6,1.3217240572,,,
55.1250000000,6,0.9756088257,,,
55.1406250000,6,0.5791016221,,,
55.1562500000,6,0.1445847005,,,
55.1718750000,6,-0.3091965020,,,
55.1875000000,6,-0.7446212769,,,
55.2031250000,6,-1.0922850370,,,
55.2187500000,6,-1.2786710262,,,
55.2343750000,6,-1.2404630184,,,
55.2500000000,6,-0.9890136719,,,
55.2656250000,6,-0.6291121840,,,
55.2812500000,6,-0.3351745903,,,
55.2968750000,6,-0.2788619995,,,
55.3125000000,6,-0.5548629761,,,
55.3281250000,6,-1.1026539803,,,
55.3437500000,6,-1.7262569666,,,
55.3593750000,6,-2.1755828857,,,
55.3750000000,6,-2.2646479607,,,
55.3906250000,6,-1.9586260319,,,
55.4062500000,6,-1.3708950281,,,
55.4218750000,6,-0.6884155273,,,
55.4375000000,6,-0.0681762695,,,
55.4531250000,6,0.4358749092,,,
55.4687500000,6,0.8479232788,,,
55.4843750000,6,1.2104190588,,,
55.5000000000,6,1.5235819817,,,
55.5156250000,6,1.7346650362,,,
55.5312500000,6,1.7693250179,,,
55.5468750000,6,1.6136020422,,,
55.5625000000,6,1.3132630587,,,
55.5781250000,6,0.9647598267,,,
55.5937500000,6,0.6464157104,,,
55.6093750000,6,0.4076080024,,,
55.6250000000,6,0.2625046074,,,
55.6406250000,6,0.2075576931,,,
55.6562500000,6,0.2454376072,,,
55.6718750000,6,0.3766174018,,,
55.6875000000,6,0.5742722154,,,
55.7031250000,6,0.7719268799,,,
55.7187500000,6,0.8736495972,,,
55.7343750000,6,0.7987670898,,,
55.7500000000,6,0.5169525146,,,
55.7656250000,6,0.0888290405,,,
55.7812500000,6,-0.3741759956,,,
55.7968750000,6,-0.7408980727,,,
55.8125000000,6,-0.9339904785,,,
55.8281250000,6,-0.9477385879,,,
55.8437500000,6,-0.8292769790,,,
55.8593750000,6,-0.6420974731,,,
55.8750000000,6,-0.4306412041,,,
55.8906250000,6,-0.2029647976,,,
55.9062500000,6,0.0512008704,,,
55.9218750000,6,0.3444060981,,,
55.9375000000,6,0.6459044814,,,
55.9531250000,6,0.9078903198,,,
55.9687500000,6,1.0679399967,,,
55.9843750000,6,1.0830839872,,,
56.0000000000,7,0.9503859878,,,
56.0156250000,7,0.7164459229,,,
56.0312500000,7,0.4491195977,,,
56.0468750000,7,0.2091750950,,,
56.0625000000,7,0.0118408203,,,
56.0781250000,7,-0.1499100029,,,
56.0937500000,7,-0.2913970947,,,
56.1093750000,7,-0.3971176147,,,
56.1250000000,7,-0.4046630859,,,
56.1406250000,7,-0.2690277100,,,
56.1562500000,7,0.0143966703,,,
56.1718750000,7,0.3663634956,,,
56.1875000000,7,0.6566619873,,,
56.2031250000,7,0.7599030137,,,
56.2187500000,7,0.6317291260,,,
56.2343750000,7,0.3193283081,,,
