Time:64Hz,Epoch,Channel 1,Event Id,Event Date,Event Duration
0.0000000000,0,-2.6719279289,,,
0.0156250000,0,-2.8676910400,,,
0.0312500000,0,-3.0811769962,,,
0.0468750000,0,-3.3261721134,,,
0.0625000000,0,-3.5931470394,,,
0.0781250000,0,-3.8465189934,,,
0.0937500000,0,-4.0285191536,,,
0.1093750000,0,-4.0915598869,,,
0.1250000000,0,-4.0132060051,,,
0.1406250000,0,-3.7894289494,,,
0.1562500000,0,-3.4341280460,,,
0.1718750000,0,-2.9311599731,,,
0.1875000000,0,-2.2820360661,,,
0.2031250000,0,-1.5385440588,,,
0.2187500000,0,-0.8280792236,,,
0.2343750000,0,-0.3189773858,,,
0.2500000000,0,-0.1719055027,,,
0.2656250000,0,-0.4462890923,,,
0.2812500000,0,-1.0794069767,,,
0.2968750000,0,-1.9146649837,,,
0.3125000000,0,-2.7554550171,,,
0.3281250000,0,-3.4321820736,,,
0.3437500000,0,-3.8315429688,,,
0.3593750000,0,-3.8941800594,,,
0.3750000000,0,-3.5837628841,,,
0.3906250000,0,-2.8926849365,,,
0.4062500000,0,-1.8710559607,,,
0.4218750000,0,-0.6599196792,,,
0.4375000000,0,0.5420227051,,,
0.4531250000,0,1.5092320442,,,
0.4687500000,0,2.1088030338,,,
0.4843750000,0,2.3588409424,,,
0.5000000000,0,2.4127810001,,,
0.5156250000,0,2.4731059074,,,
0.5312500000,0,2.6590270996,,,
0.5468750000,0,2.9407041073,,,
0.5625000000,0,3.1509931087,,,
0.5781250000,0,3.0868229866,,,
0.5937500000,0,2.6507949829,,,
0.6093750000,0,1.9107819796,,,
0.6250000000,0,1.0945429802,,,
0.6406250000,0,0.4963988960,,,
0.6562500000,0,0.3204346001,,,
0.6718750000,0,0.6221771240,,,
0.6875000000,0,1.2801669836,,,
0.7031250000,0,2.0751950741,,,
0.7187500000,0,2.7865450382,,,
0.7343750000,0,3.2849431038,,,
0.7500000000,0,3.5264129639,,,
0.7656250000,0,3.5427858829,,,
0.7812500000,0,3.3851320744,,,
0.7968750000,0,3.0811460018,,,
0.8125000000,0,2.6421658993,,,
0.8281250000,0,2.1067199707,,,
0.8437500000,0,1.5307769775,,,
0.8593750000,0,0.9896544814,,,
0.8750000000,0,0.5347899795,,,
0.8906250000,0,0.1752319038,,,
0.9062500000,0,-0.1377868950,,,
0.9218750000,0,-0.4747313857,,,
0.9375000000,0,-0.8717498779,,,
0.9531250000,0,-1.3253329992,,,
0.9687500000,0,-1.7783050537,,,
0.9843750000,0,-2.1648559570,,,
1.0000000000,0,-2.4541170597,,,
1.0156250000,0,-2.6487429142,,,
1.0312500000,0,-2.7958679199,,,
1.0468750000,0,-2.9740450382,,,
1.0625000000,0,-3.2856750488,,,
1.0781250000,0,-3.8406369686,,,
1.0937500000,0,-4.7101588249,,,
1.1093750000,0,-5.8793182373,,,
1.1250000000,0,-7.1971740723,,,
1.1406250000,0,-8.4365081787,,,
1.1562500000,0,-9.3578491211,,,
1.1718750000,0,-9.8227462769,,,
1.1875000000,0,-9.8486785889,,,
1.2031250000,0,-9.5613403320,,,
1.2187500000,0,-9.1327819824,,,
1.2343750000,0,-8.6668548584,,,
1.2500000000,0,-8.2050476074,,,
1.2656250000,0,-7.7316889763,,,
1.2812500000,0,-7.2512512207,,,
1.2968750000,0,-6.7957921028,,,
1.3125000000,0,-6.4103698730,,,
1.3281250000,0,-6.0942687988,,,
1.3437500000,0,-5.8222351074,,,
1.3593750000,0,-5.5644679070,,,
1.3750000000,0,-5.3023071289,,,
1.3906250000,0,-5.0162200928,,,
1.4062500000,0,-4.5965728760,,,
1.4218750000,0,-3.8130650520,,,
1.4375000000,0,-2.3756260872,,,
1.4531250000,0,-0.1276398003,,,
1.4687500000,0,2.8073880672,,,
1.4843750000,0,5.9926152229,,,
1.5000000000,0,8.8398590088,,,
1.5156250000,0,10.8832197189,,,
1.5312500000,0,11.9936103821,,,
1.5468750000,0,12.4233999252,,,
1.5625000000,0,12.6308097839,,,
1.5781250000,0,13.0307798386,,,
1.5937500000,0,13.7806196213,,,
1.6093750000,0,14.7579498291,,,
1.6250000000,0,15.7131996155,,,
1.6406250000,0,16.4090995789,,,
1.6562500000,0,16.7470893860,,,
1.6718750000,0,16.7148303986,,,
1.6875000000,0,16.2908191681,,,
1.7031250000,0,15.3910198212,,,
1.7187500000,0,13.9151201248,,,
1.7343750000,0,11.8594999313,,,
1.7500000000,0,9.4170532227,,,
1.7656250000,0,6.9658970833,,,
1.7812500000,0,4.9385070801,,,
1.7968750000,0,3.6513669491,,,
1.8125000000,0,3.1635739803,,,
1.8281250000,0,3.2650148869,,,
1.8437500000,0,3.5798649788,,,
1.8593750000,0,3.7271881104,,,
1.8750000000,0,3.4623720646,,,
1.8906250000,0,2.7709500790,,,
1.9062500000,0,1.8151550293,,,
1.9218750000,0,0.8409271240,,,
1.9375000000,0,0.0702056885,,,
1.9531250000,0,-0.4064789116,,,
1.9687500000,0,-0.6215056777,,,
1.9843750000,0,-0.6930541992,,,
2.0000000000,0,-0.7669525146,,,
2.0156250000,0,-0.9256591797,,,
2.0312500000,0,-1.1579589844,,,
2.0468750000,0,-1.3708950281,,,
2.0625000000,0,-1.4455569983,,,
2.0781250000,0,-1.2990570068,,,
2.0937500000,0,-0.9364929199,,,
2.1093750000,0,-0.4539794922,,,
2.1250000000,0,0.0018463130,,,
2.1406250000,0,0.2775268853,,,
2.1562500000,0,0.2463683933,,,
2.1718750000,0,-0.1476746053,,,
2.1875000000,0,-0.8755797744,,,
2.2031250000,0,-1.7992860079,,,
2.2187500000,0,-2.6844789982,,,
2.2343750000,0,-3.2517700195,,,
2.2500000000,0,-3.2957758904,,,
2.2656250000,0,-2.7631840706,,,
2.2812500000,0,-1.7883909941,,,
2.2968750000,0,-0.6302642822,,,
2.3125000000,0,0.4344176948,,,
2.3281250000,0,1.1972960234,,,
2.3437500000,0,1.5856020451,,,
2.3593750000,0,1.6414029598,,,
2.3750000000,0,1.4426879883,,,
2.3906250000,0,1.0944670439,,,
2.4062500000,0,0.6899108887,,,
2.4218750000,0,0.3386077881,,,
2.4375000000,0,0.1640319973,,,
2.4531250000,0,0.2660979927,,,
2.4687500000,0,0.6573333740,,,
2.4843750000,0,1.2490839958,,,
2.5000000000,0,1.8599699736,,,
2.5156250000,0,2.2975161076,,,
2.5312500000,0,2.4456789494,,,
2.5468750000,0,2.2973940372,,,
2.5625000000,0,1.9531559944,,,
2.5781250000,0,1.5638120174,,,
2.5937500000,0,1.2908170223,,,
2.6093750000,0,1.2651209831,,,
2.6250000000,0,1.5691070557,,,
2.6406250000,0,2.2041320801,,,
2.6562500000,0,3.0813601017,,,
2.6718750000,0,4.0243377686,,,
2.6875000000,0,4.7816767693,,,
2.7031250000,0,5.1223301888,,,
2.7187500000,0,4.9138488770,,,
2.7343750000,0,4.2111358643,,,
2.7500000000,0,3.2459559441,,,
2.7656250000,0,2.3578801155,,,
2.7812500000,0,1.8412929773,,,
2.7968750000,0,1.8139189482,,,
2.8125000000,0,2.1530001163,,,
2.8281250000,0,2.5646970272,,,
2.8437500000,0,2.7557830811,,,
2.8593750000,0,2.5982511044,,,
2.8750000000,0,2.1914670467,,,
2.8906250000,0,1.7920229435,,,
2.9062500000,0,1.6324460506,,,
2.9218750000,0,1.7501070499,,,
2.9375000000,0,1.9327239990,,,
2.9531250000,0,1.8639370203,,,
2.9687500000,0,1.3313449621,,,
2.9843750000,0,0.4005585015,,,
3.0000000000,0,-0.5936583877,,,
3.0156250000,0,-1.2361760139,,,
3.0312500000,0,-1.2714999914,,,
3.0468750000,0,-0.7362061143,,,
3.0625000000,0,0.1100922003,,,
3.0781250000,0,0.9584503174,,,
3.0937500000,0,1.6604770422,,,
3.1093750000,0,2.2399981022,,,
3.1250000000,0,2.7747039795,,,
3.1406250000,0,3.2034990788,,,
3.1562500000,0,3.2891540527,,,
3.1718750000,0,2.7298810482,,,
3.1875000000,0,1.3924479485,,,
3.2031250000,0,-0.5310363770,,,
3.2187500000,0,-2.5631558895,,,
3.2343750000,0,-4.1678619385,,,
3.2500000000,0,-5.0490951538,,,
3.2656250000,0,-5.3002619743,,,
3.2812500000,0,-5.3432850838,,,
3.2968750000,0,-5.6513748169,,,
3.3125000000,0,-6.4958500862,,,
3.3281250000,0,-7.8160481453,,,
3.3437500000,0,-9.3010787964,,,
3.3593750000,0,-10.5933198929,,,
3.3750000000,0,-11.4447097778,,,
3.3906250000,0,-11.8129100800,,,
3.4062500000,0,-11.7853097916,,,
3.4218750000,0,-11.4940299988,,,
3.4375000000,0,-11.0286703110,,,
3.4531250000,0,-10.4231901169,,,
3.4687500000,0,-9.6768417358,,,
3.4843750000,0,-8.8227462769,,,
3.5000000000,0,-7.9165649414,,,
3.5156250000,0,-7.0252690315,,,
3.5312500000,0,-6.1726069450,,,
3.5468750000,0,-5.3218770027,,,
3.5625000000,0,-4.3979640007,,,
3.5781250000,0,-3.3730700016,,,
3.5937500000,0,-2.3195190430,,,
3.6093750000,0,-1.3923720121,,,
3.6250000000,0,-0.7656096816,,,
3.6406250000,0,-0.5431975722,,,
3.6562500000,0,-0.6696776748,,,
3.6718750000,0,-0.9758223891,,,
3.6875000000,0,-1.2297060490,,,
3.7031250000,0,-1.2525249720,,,
3.7187500000,0,-0.9856566787,,,
3.7343750000,0,-0.4762114882,,,
3.7500000000,0,0.1704483032,,,
3.7656250000,0,0.8547974229,,,
3.7812500000,0,1.5105589628,,,
3.7968750000,0,2.0906140804,,,
3.8125000000,0,2.5228879452,,,
3.8281250000,0,2.7350308895,,,
3.8437500000,0,2.6879200935,,,
3.8593750000,0,2.4189069271,,,
3.8750000000,0,2.0305790901,,,
3.8906250000,0,1.6523590088,,,
3.9062500000,0,1.3730390072,,,
3.9218750000,0,1.1888350248,,,
3.9375000000,0,1.0285489559,,,
3.9531250000,0,0.7913208008,,,
3.9687500000,0,0.4404602051,,,
3.9843750000,0,0.0290069599,,,
4.0000000000,0,-0.3099747002,,,
4.0156250000,0,-0.4219360054,,,
4.0312500000,0,-0.2290802002,,,
4.0468750000,0,0.2315903008,,,
4.0625000000,0,0.7974166870,,,
4.0781250000,0,1.2576830387,,,
4.0937500000,0,1.4224400520,,,
4.1093750000,0,1.2150880098,,,
4.1250000000,0,0.6924666762,,,
4.1406250000,0,-0.0047836299,,,
4.1562500000,0,-0.7097625732,,,
4.1718750000,0,-1.3151019812,,,
4.1875000000,0,-1.7776720524,,,
4.2031250000,0,-2.1122510433,,,
4.2187500000,0,-2.3364939690,,,
4.2343750000,0,-2.4473419189,,,
4.2500000000,0,-2.4268879890,,,
4.2656250000,0,-2.2789540291,,,
4.2812500000,0,-2.0561749935,,,
4.2968750000,0,-1.8338780403,,,
4.3125000000,0,-1.6917879581,,,
4.3281250000,0,-1.6697850227,,,
4.3437500000,0,-1.7689290047,,,
4.3593750000,0,-1.9543759823,,,
4.3750000000,0,-2.1986920834,,,
4.3906250000,0,-2.4959259033,,,
4.4062500000,0,-2.8583068848,,,
4.4218750000,0,-3.2918848991,,,
4.4375000000,0,-3.7682878971,,,
4.4531250000,0,-4.2222900391,,,
4.4687500000,0,-4.5685038567,,,
4.4843750000,0,-4.7006301880,,,
4.5000000000,0,-4.5102009773,,,
4.5156250000,0,-3.8853909969,,,
4.5312500000,0,-2.7426149845,,,
4.5468750000,0,-1.0992050171,,,
4.5625000000,0,0.8907775879,,,
4.5781250000,0,2.9040069580,,,
4.5937500000,0,4.5322108269,,,
4.6093750000,0,1.6053470373,,,
4.6250000000,0,1.7772829533,,,
4.6406250000,0,2.4121088982,,,
4.6562500000,0,3.3969569206,,,
4.6718750000,0,4.4552311897,,,
4.6875000000,0,5.2200012207,,,
4.7031250000,0,5.3961639404,,,
4.7187500000,0,4.8745570183,,,
4.7343750000,0,3.7838439941,,,
4.7500000000,0,2.4203639030,,,
4.7656250000,0,1.0979080200,,,
4.7812500000,0,-0.0019073490,,,
4.7968750000,0,-0.8865737915,,,
4.8125000000,0,-1.7062000036,,,
4.8281250000,0,-2.6150050163,,,
4.8437500000,0,-3.6564559937,,,
4.8593750000,0,-4.7165989876,,,
4.8750000000,0,-5.5690460205,,,
4.8906250000,0,-6.0051798820,,,
4.9062500000,0,-5.9341430664,,,
4.9218750000,0,-5.4428019524,,,
4.9375000000,0,-4.7492218018,,,
4.9531250000,0,-4.0942077637,,,
4.9687500000,0,-3.6215438843,,,
4.9843750000,0,-3.3368070126,,,
5.0000000000,0,-3.1468660831,,,
5.0156250000,0,-2.9308779240,,,
5.0312500000,0,-2.6249310970,,,
5.0468750000,0,-2.2398910522,,,
5.0625000000,0,-1.8412400484,,,
5.0781250000,0,-1.5143740177,,,
5.0937500000,0,-1.3201220036,,,
5.1093750000,0,-1.2828830481,,,
5.1250000000,0,-1.3863680363,,,
5.1406250000,0,-1.5884699821,,,
5.1562500000,0,-1.8308329582,,,
5.1718750000,0,-2.0438001156,,,
5.1875000000,0,-2.1716918945,,,
5.2031250000,0,-2.1688840389,,,
5.2187500000,0,-2.0223619938,,,
5.2343750000,0,-1.7198790312,,,
5.2500000000,0,-1.2627029419,,,
5.2656250000,0,-0.6532210708,,,
5.2812500000,0,0.0696411133,,,
5.2968750000,0,0.8341217041,,,
5.3125000000,0,1.4935070276,,,
5.3281250000,0,1.9218059778,,,
5.3437500000,0,2.0548779964,,,
5.3593750000,0,1.9367140532,,,
5.3750000000,0,1.6880949736,,,
5.3906250000,0,1.4285659790,,,
5.4062500000,0,1.2046430111,,,
5.4218750000,0,0.9709702134,,,
5.4375000000,0,0.6509932876,,,
5.4531250000,0,0.2304992974,,,
5.4687500000,0,-0.1846618950,,,
5.4843750000,0,-0.4001389146,,,
5.5000000000,0,-0.2459564060,,,
5.5156250000,0,0.2943038940,,,
5.5312500000,0,1.0199049711,,,
5.5468750000,0,1.5860979557,,,
5.5625000000,0,1.6741869450,,,
5.5781250000,0,1.1791529655,,,
5.5937500000,0,0.2843475044,,,
5.6093750000,0,-0.6311646104,,,
5.6250000000,0,-1.1839829683,,,
5.6406250000,0,-1.1913830042,,,
5.6562500000,0,-0.7496414185,,,
5.6718750000,0,-0.1480789036,,,
5.6875000000,0,0.2937698066,,,
5.7031250000,0,0.4136886895,,,
5.7187500000,0,0.2559280097,,,
5.7343750000,0,-0.0033264160,,,
5.7500000000,0,-0.1973800957,,,
5.7656250000,0,-0.2784348130,,,
5.7812500000,0,-0.3333359063,,,
5.7968750000,0,-0.4820250869,,,
5.8125000000,0,-0.8001021743,,,
5.8281250000,0,-1.2388759851,,,
5.8437500000,0,-1.7002110481,,,
5.8593750000,0,-2.0716550350,,,
5.8750000000,0,-2.2956540585,,,
5.8906250000,0,-2.3786931038,,,
5.9062500000,0,-2.3469541073,,,
5.9218750000,0,-2.2102580070,,,
5.9375000000,0,-1.9893109798,,,
5.9531250000,0,-1.7082600594,,,
5.9687500000,0,-1.4130330086,,,
5.9843750000,0,-1.1682360172,,,
6.0000000000,0,-1.0116729736,,,
6.0156250000,0,-0.9271544814,,,
6.0312500000,0,-0.8695983887,,,
6.0468750000,0,-0.7946929932,,,
6.0625000000,0,-0.7000885010,,,
6.0781250000,0,-0.6133574843,,,
6.0937500000,0,-0.5587006211,,,
6.1093750000,0,-0.5066223145,,,
6.1250000000,0,-0.3858565986,,,
6.1406250000,0,-0.1313323975,,,
6.1562500000,0,0.2616653144,,,
6.1718750000,0,0.6986160278,,,
6.1875000000,0,1.0460129976,,,
6.2031250000,0,1.2022709846,,,
6.2187500000,0,1.1637949944,,,
6.2343750000,0,1.0213849545,,,
6.2500000000,0,0.8979340196,,,
6.2656250000,0,0.8782730103,,,
6.2812500000,0,0.9424362183,,,
6.2968750000,0,1.0119630098,,,
6.3125000000,0,0.9893035889,,,
6.3281250000,0,0.8181533813,,,
6.3437500000,0,0.4999007881,,,
6.3593750000,0,0.0795669630,,,
6.3750000000,0,-0.3737258911,,,
6.3906250000,0,-0.7972869873,,,
6.4062500000,0,-1.1288679838,,,
6.4218750000,0,-1.2916339636,,,
6.4375000000,0,-1.2325819731,,,
6.4531250000,0,-0.9449005127,,,
6.4687500000,0,-0.4818801880,,,
6.4843750000,0,0.0510940589,,,
6.5000000000,0,0.5337067246,,,
6.5156250000,0,0.8760985732,,,
6.5312500000,0,1.0507889986,,,
6.5468750000,0,1.0721280575,,,
6.5625000000,0,0.9598311782,,,
6.5781250000,0,0.7269287109,,,
6.5937500000,0,0.3859176934,,,
6.6093750000,0,-0.0153655997,,,
6.6250000000,0,-0.3808746040,,,
6.6406250000,0,-0.5862731934,,,
6.6562500000,0,-0.5632781982,,,
6.6718750000,0,-0.3731688857,,,
6.6875000000,0,-0.1830063015,,,
6.7031250000,0,-0.1764069051,,,
6.7187500000,0,-0.4461287856,,,
6.7343750000,0,-0.8947905898,,,
6.7500000000,0,-1.2934950590,,,
6.7656250000,0,-1.3885500431,,,
6.7812500000,0,-1.0762020350,,,
6.7968750000,0,-0.4513626099,,,
6.8125000000,0,0.2356033027,,,
6.8281250000,0,0.7301483154,,,
6.8437500000,0,0.9236832261,,,
6.8593750000,0,0.8943634033,,,
6.8750000000,0,0.8388442993,,,
6.8906250000,0,0.9100266099,,,
6.9062500000,0,1.1036829948,,,
6.9218750000,0,1.2647550106,,,
6.9375000000,0,1.1999210119,,,
6.9531250000,0,0.8232421875,,,
6.9687500000,0,0.2347564995,,,
6.9843750000,0,-0.3144760132,,,
7.0000000000,0,-0.5852280259,,,
7.0156250000,0,-0.4824371040,,,
7.0312500000,0,-0.1029357985,,,
7.0468750000,0,0.3131026924,,,
7.0625000000,0,0.5305634141,,,
7.0781250000,0,0.4298019111,,,
7.0937500000,0,0.0644760132,,,
7.1093750000,0,-0.4069977105,,,
7.1250000000,0,-0.8175659180,,,
7.1406250000,0,-1.0520019531,,,
7.1562500000,0,-1.0607219934,,,
7.1718750000,0,-0.8436279297,,,
7.1875000000,0,-0.4171065986,,,
7.2031250000,0,0.1711730957,,,
7.2187500000,0,0.8066558838,,,
7.2343750000,0,1.3414540291,,,
7.2500000000,0,1.6293560266,,,
7.2656250000,0,1.6282730103,,,
7.2812500000,0,1.4247130156,,,
7.2968750000,0,1.2014160156,,,
7.3125000000,0,1.1310809851,,,
7.3281250000,0,1.2987979650,,,
7.3437500000,0,1.6738049984,,,
7.3593750000,0,2.1500630379,,,
7.3750000000,0,2.6194920540,,,
7.3906250000,0,3.0049738884,,,
7.4062500000,0,3.2775800228,,,
7.4218750000,0,3.4089200497,,,
7.4375000000,0,3.3965148926,,,
7.4531250000,0,3.2266850471,,,
7.4687500000,0,2.9324719906,,,
7.4843750000,0,2.5945429802,,,
7.5000000000,0,2.3058779240,,,
7.5156250000,0,2.1405560970,,,
7.5312500000,0,2.1148679256,,,
7.5468750000,0,2.1729431152,,,
7.5625000000,0,2.2126390934,,,
7.5781250000,0,2.1384739876,,,
7.5937500000,0,1.8842389584,,,
7.6093750000,0,1.4556119442,,,
7.6250000000,0,0.9409332275,,,
7.6406250000,0,0.4788742065,,,
7.6562500000,0,0.2157516032,,,
7.6718750000,0,0.2190017998,,,
7.6875000000,0,0.4524078071,,,
7.7031250000,0,0.7589569092,,,
7.7187500000,0,0.9324265122,,,
7.7343750000,0,0.8088989258,,,
7.7500000000,0,0.3161773980,,,
7.7656250000,0,-0.4840927124,,,
7.7812500000,0,-1.4384839535,,,
7.7968750000,0,-2.3510279655,,,
7.8125000000,0,-3.0594019890,,,
7.8281250000,0,-3.4495010376,,,
7.8437500000,0,-3.4774930477,,,
7.8593750000,0,-3.1642069817,,,
7.8750000000,0,-2.6067430973,,,
7.8906250000,0,-1.9640270472,,,
7.9062500000,0,-1.3888779879,,,
7.9218750000,0,-1.0201870203,,,
7.9375000000,0,-0.8926696777,,,
7.9531250000,0,-0.9860457778,,,
7.9687500000,0,-1.2194980383,,,
7.9843750000,0,-1.5070879459,,,
8.0000000000,1,-1.7685849667,,,
8.0156250000,1,-1.9366070032,,,
8.0312500000,1,-1.9484939575,,,
8.0468750000,1,-1.7723619938,,,
8.0625000000,1,-1.4392780066,,,
8.0781250000,1,-1.0441060066,,,
8.0937500000,1,-0.7315521240,,,
8.1093750000,1,-0.6277847290,,,
8.1250000000,1,-0.7930297852,,,
8.1406250000,1,-1.1827470064,,,
8.1562500000,1,-1.6669689417,,,
8.1718750000,1,-2.1175460815,,,
8.1875000000,1,-2.4389109612,,,
8.2031250000,1,-2.6040270329,,,
8.2187500000,1,-2.6156458855,,,
8.2343750000,1,-2.4498438835,,,
8.2500000000,1,-2.0522000790,,,
8.2656250000,1,-1.3822330236,,,
8.2812500000,1,-0.4937514961,,,
8.2968750000,1,0.4300231934,,,
8.3125000000,1,1.1277769804,,,
8.3281250000,1,1.3921509981,,,
8.3437500000,1,1.1735839844,,,
8.3593750000,1,0.6333466172,,,
8.3750000000,1,0.0598602295,,,
8.3906250000,1,-0.2913512886,,,
8.4062500000,1,-0.3003310859,,,
8.4218750000,1,-0.0334091187,,,
8.4375000000,1,0.3399963081,,,
8.4531250000,1,0.6407089233,,,
8.4687500000,1,0.7832031250,,,
8.4843750000,1,0.7619934082,,,
8.5000000000,1,0.6215286255,,,
8.5156250000,1,0.3995209038,,,
8.5312500000,1,0.1199264973,,,
8.5468750000,1,-0.1935272068,,,
8.5625000000,1,-0.5031738281,,,
8.5781250000,1,-0.7649307251,,,
8.5937500000,1,-0.9397429824,,,
8.6093750000,1,-1.0246729851,,,
8.6250000000,1,-1.0361789465,,,
8.6406250000,1,-0.9952468872,,,
8.6562500000,1,-0.8936157227,,,
8.6718750000,1,-0.7267379761,,,
8.6875000000,1,-0.5241240859,,,
8.7031250000,1,-0.3426589966,,,
8.7187500000,1,-0.2693023980,,,
8.7343750000,1,-0.3498992920,,,
8.7500000000,1,-0.5638961792,,,
8.7656250000,1,-0.8252182007,,,
8.7812500000,1,-1.0074690580,,,
8.7968750000,1,-1.0295100212,,,
8.8125000000,1,-0.8738098145,,,
8.8281250000,1,-0.5882263184,,,
8.8437500000,1,-0.2583236992,,,
8.8593750000,1,0.0346984901,,,
8.8750000000,1,0.2467879951,,,
8.8906250000,1,0.3491134942,,,
8.9062500000,1,0.3518371880,,,
8.9218750000,1,0.2918167114,,,
8.9375000000,1,0.2285232991,,,
8.9531250000,1,0.2321929932,,,
8.9687500000,1,0.3686752021,,,
8.9843750000,1,0.6699829102,,,
9.0000000000,1,1.1081919670,,,
9.0156250000,1,1.5906679630,,,
9.0312500000,1,1.9756770134,,,
9.0468750000,1,2.1448819637,,,
9.0625000000,1,2.0470499992,,,
9.0781250000,1,1.7145160437,,,
9.0937500000,1,1.2676090002,,,
9.1093750000,1,0.8427047729,,,
9.1250000000,1,0.5512465835,,,
9.1406250000,1,0.4318008125,,,
9.1562500000,1,0.4500198066,,,
9.1718750000,1,0.5421677232,,,
9.1875000000,1,0.6265944839,,,
9.2031250000,1,0.6621016860,,,
9.2187500000,1,0.6268845201,,,
9.2343750000,1,0.5269240737,,,
9.2500000000,1,0.3668518066,,,
9.2656250000,1,0.1353302002,,,
9.2812500000,1,-0.1749801934,,,
9.2968750000,1,-0.5530319214,,,
9.3125000000,1,-0.9360045791,,,
9.3281250000,1,-1.2250519991,,,
9.3437500000,1,-1.3274990320,,,
9.3593750000,1,-1.2154619694,,,
9.3750000000,1,-0.9567260742,,,
9.3906250000,1,-0.7061539292,,,
9.4062500000,1,-0.6278762817,,,
9.4218750000,1,-0.8078461289,,,
9.4375000000,1,-1.1875309944,,,
9.4531250000,1,-1.5819849968,,,
9.4687500000,1,-1.7620929480,,,
9.4843750000,1,-1.5662460327,,,
9.5000000000,1,-0.9810333252,,,
9.5156250000,1,-0.1227035969,,,
9.5312500000,1,0.8180695176,,,
9.5468750000,1,1.6439969540,,,
9.5625000000,1,2.2363889217,,,
9.5781250000,1,2.5407259464,,,
9.5937500000,1,2.5418930054,,,
9.6093750000,1,2.2518460751,,,
9.6250000000,1,1.7064290047,,,
9.6406250000,1,0.9986190796,,,
9.6562500000,1,0.2574996948,,,
9.6718750000,1,-0.3494949043,,,
9.6875000000,1,-0.6963272095,,,
9.7031250000,1,-0.7227172852,,,
9.7187500000,1,-0.4676742852,,,
9.7343750000,1,-0.0446014404,,,
9.7500000000,1,0.4083481133,,,
9.7656250000,1,0.7785186768,,,
9.7812500000,1,0.9824829102,,,
9.7968750000,1,0.9822769165,,,
9.8125000000,1,0.7728118896,,,
9.8281250000,1,0.3750304878,,,
9.8437500000,1,-0.1515655965,,,
9.8593750000,1,-0.7171478271,,,
9.8750000000,1,-1.2296600342,,,
9.8906250000,1,-1.6182399988,,,
9.9062500000,1,-1.8642430305,,,
9.9218750000,1,-2.0165789127,,,
9.9375000000,1,-2.1418530941,,,
9.9531250000,1,-2.2881090641,,,
9.9687500000,1,-2.4361801147,,,
9.9843750000,1,-2.5068819523,,,
10.0000000000,1,-2.3890459538,,,
10.0156250000,1,-1.9832689762,,,
10.0312500000,1,-1.2548899651,,,
10.0468750000,1,-0.2793655097,,,
10.0625000000,1,0.7709274292,,,
10.0781250000,1,1.6755369902,,,
10.0937500000,1,2.2500839233,,,
10.1093750000,1,2.4198989868,,,
10.1250000000,1,2.2443389893,,,
10.1406250000,1,1.8860239983,,,
10.1562500000,1,1.5162049532,,,
10.1718750000,1,1.2565770149,,,
10.1875000000,1,1.1203160286,,,
10.2031250000,1,1.0568009615,,,
10.2187500000,1,0.9951248169,,,
10.2343750000,1,0.8958510756,,,
10.2500000000,1,0.7572708130,,,
10.2656250000,1,0.6044158936,,,
10.2812500000,1,0.4426116943,,,
10.2968750000,1,0.2454833984,,,
10.3125000000,1,-0.0250244103,,,
10.3281250000,1,-0.3860167861,,,
10.3437500000,1,-0.8038712144,,,
10.3593750000,1,-1.2051999569,,,
10.3750000000,1,-1.5154269934,,,
10.3906250000,1,-1.7097549438,,,
10.4062500000,1,-1.8086090088,,,
10.4218750000,1,-1.8644709587,,,
10.4375000000,1,-1.9079060555,,,
10.4531250000,1,-1.9275130033,,,
10.4687500000,1,-1.8680039644,,,
10.4843750000,1,-1.6912310123,,,
10.5000000000,1,-1.4147720337,,,
10.5156250000,1,-1.1213760376,,,
10.5312500000,1,-0.9209213257,,,
10.5468750000,1,-0.8810120225,,,
10.5625000000,1,-1.0017089844,,,
10.5781250000,1,-1.2102129459,,,
10.5937500000,1,-1.4036329985,,,
10.6093750000,1,-1.4888310432,,,
10.6250000000,1,-1.3917620182,,,
10.6406250000,1,-1.0643390417,,,
10.6562500000,1,-0.4787749946,,,
10.6718750000,1,0.3538132012,,,
10.6875000000,1,1.3280409575,,,
10.7031250000,1,2.2655560970,,,
10.7187500000,1,2.9518659115,,,
10.7343750000,1,3.2403869629,,,
10.7500000000,1,3.1244580746,,,
10.7656250000,1,2.7396159172,,,
10.7812500000,1,2.3052899837,,,
10.7968750000,1,1.9744570255,,,
10.8125000000,1,1.7764359713,,,
10.8281250000,1,1.6219249964,,,
10.8437500000,1,1.3998340368,,,
10.8593750000,1,1.0710530281,,,
10.8750000000,1,0.6959075928,,,
10.8906250000,1,0.3796463013,,,
10.9062500000,1,0.1780167073,,,
10.9218750000,1,0.0500564612,,,
10.9375000000,1,-0.1136474982,,,
10.9531250000,1,-0.4058228135,,,
10.9687500000,1,-0.8202819824,,,
10.9843750000,1,-1.2482450008,,,
11.0000000000,1,-1.5378650427,,,
11.0156250000,1,-1.6060789824,,,
11.0312500000,1,-1.4846040010,,,
11.0468750000,1,-1.3088680506,,,
11.0625000000,1,-1.2146379948,,,
11.0781250000,1,-1.2687300444,,,
11.0937500000,1,-1.4071580172,,,
11.1093750000,1,-1.5033190250,,,
11.1250000000,1,-1.4193120003,,,
11.1406250000,1,-1.0991209745,,,
11.1562500000,1,-0.5725250244,,,
11.1718750000,1,0.1002959982,,,
11.1875000000,1,0.8485260010,,,
11.2031250000,1,1.6218190193,,,
11.2187500000,1,2.3689959049,,,
11.2343750000,1,3.0295329094,,,
11.2500000000,1,3.5252079964,,,
11.2656250000,1,3.7813570499,,,
11.2812500000,1,3.7620699406,,,
11.2968750000,1,3.4822158813,,,
11.3125000000,1,3.0176849365,,,
11.3281250000,1,2.4572069645,,,
11.3437500000,1,1.8854680061,,,
11.3593750000,1,1.3658829927,,,
11.3750000000,1,0.9356307983,,,
11.3906250000,1,0.6165618896,,,
11.4062500000,1,0.4146881104,,,
11.4218750000,1,0.3022384942,,,
11.4375000000,1,0.2338027954,,,
11.4531250000,1,0.1579436958,,,
11.4687500000,1,0.0469741784,,,
11.4843750000,1,-0.0937500000,,,
11.5000000000,1,-0.2148209065,,,
11.5156250000,1,-0.2704848945,,,
11.5312500000,1,-0.2480010986,,,
11.5468750000,1,-0.2110442966,,,
11.5625000000,1,-0.2447281033,,,
11.5781250000,1,-0.4245376885,,,
11.5937500000,1,-0.7465972900,,,
11.6093750000,1,-1.1447299719,,,
11.6250000000,1,-1.5033949614,,,
11.6406250000,1,-1.7313770056,,,
11.6562500000,1,-1.7877199650,,,
11.6718750000,1,-0.9212570190,,,
11.6875000000,1,-1.2802430391,,,
11.7031250000,1,-1.7405240536,,,
11.7187500000,1,-2.2077031136,,,
11.7343750000,1,-2.5590360165,,,
11.7500000000,1,-2.6937179565,,,
11.7656250000,1,-2.5578989983,,,
11.7812500000,1,-2.1552200317,,,
11.7968750000,1,-1.5431289673,,,
11.8125000000,1,-0.8151473999,,,
11.8281250000,1,-0.0980072021,,,
11.8437500000,1,0.4546355903,,,
11.8593750000,1,0.6998978257,,,
11.8750000000,1,0.5403366089,,,
11.8906250000,1,0.0067520142,,,
11.9062500000,1,-0.7454605103,,,
11.9218750000,1,-1.4533540010,,,
11.9375000000,1,-1.8673859835,,,
11.9531250000,1,-1.8336329460,,,
11.9687500000,1,-1.3759160042,,,
11.9843750000,1,-0.6736832261,,,
12.0000000000,1,0.0261383094,,,
12.0156250000,1,0.5374832153,,,
12.0312500000,1,0.8017272949,,,
12.0468750000,1,0.8845520020,,,
12.0625000000,1,0.9475783706,,,
12.0781250000,1,1.1297069788,,,
12.0937500000,1,1.4870610237,,,
12.1093750000,1,1.9550249577,,,
12.1250000000,1,2.3709340096,,,
12.1406250000,1,2.5622630119,,,
12.1562500000,1,2.4402239323,,,
12.1718750000,1,2.0529019833,,,
12.1875000000,1,1.5539549589,,,
12.2031250000,1,1.1228179932,,,
12.2187500000,1,0.8818892837,,,
12.2343750000,1,0.8462219238,,,
12.2500000000,1,0.9582595825,,,
12.2656250000,1,1.1239399910,,,
12.2812500000,1,1.2731549740,,,
12.2968750000,1,1.3741610050,,,
12.3125000000,1,1.4175029993,,,
12.3281250000,1,1.4287719727,,,
12.3437500000,1,1.4557039738,,,
12.3593750000,1,1.5803760290,,,
12.3750000000,1,1.8674930334,,,
12.3906250000,1,2.3600459099,,,
12.4062500000,1,3.0114209652,,,
12.4218750000,1,3.7022480965,,,
12.4375000000,1,4.2795028687,,,
12.4531250000,1,4.6192088127,,,
12.4687500000,1,4.6498718262,,,
12.4843750000,1,4.3512339592,,,
12.5000000000,1,3.7260971069,,,
12.5156250000,1,2.7888109684,,,
12.5312500000,1,1.6048890352,,,
12.5468750000,1,0.3089599907,,,
12.5625000000,1,-0.8855742812,,,
12.5781250000,1,-1.7802050114,,,
12.5937500000,1,-2.2694931030,,,
12.6093750000,1,-2.4016110897,,,
12.6250000000,1,-2.3261570930,,,
12.6406250000,1,-2.2069470882,,,
12.6562500000,1,-2.1084060669,,,
12.6718750000,1,-1.9882659912,,,
12.6875000000,1,-1.7551120520,,,
12.7031250000,1,-1.3611910343,,,
12.7187500000,1,-0.8494033813,,,
12.7343750000,1,-0.3305510879,,,
12.7500000000,1,0.0787124634,,,
12.7656250000,1,0.3080596924,,,
12.7812500000,1,0.3538970947,,,
12.7968750000,1,0.2634047866,,,
12.8125000000,1,0.0992813110,,,
12.8281250000,1,-0.0639343336,,,
12.8437500000,1,-0.1470641941,,,
12.8593750000,1,-0.0711975098,,,
12.8750000000,1,0.1700363010,,,
12.8906250000,1,0.4827804863,,,
12.9062500000,1,0.6794738770,,,
12.9218750000,1,0.5631790161,,,
12.9375000000,1,0.0208740197,,,
12.9531250000,1,-0.8768615723,,,
12.9687500000,1,-1.9020459652,,,
12.9843750000,1,-2.7601621151,,,
13.0000000000,1,-3.2305679321,,,
13.0156250000,1,-3.2536768913,,,
13.0312500000,1,-2.9320070744,,,
13.0468750000,1,-2.4646909237,,,
13.0625000000,1,-2.0268940926,,,
13.0781250000,1,-1.7103120089,,,
13.0937500000,1,-1.5109939575,,,
13.1093750000,1,-1.3870539665,,,
13.1250000000,1,-1.2817310095,,,
13.1406250000,1,-1.1885449886,,,
13.1562500000,1,-1.1187740564,,,
13.1718750000,1,-1.1179959774,,,
13.1875000000,1,-1.2382739782,,,
13.2031250000,1,-1.4963680506,,,
13.2187500000,1,-1.8843150139,,,
13.2343750000,1,-2.3322141171,,,
13.2500000000,1,-2.7502140999,,,
13.2656250000,1,-3.0478739738,,,
13.2812500000,1,-3.1974260807,,,
13.2968750000,1,-3.2338869572,,,
13.3125000000,1,-3.2434160709,,,
13.3281250000,1,-3.2963790894,,,
13.3437500000,1,-3.4020690918,,,
13.3593750000,1,-3.4948348999,,,
13.3750000000,1,-3.4691390991,,,
13.3906250000,1,-3.2659230232,,,
13.4062500000,1,-2.9260480404,,,
13.4218750000,1,-2.5863039494,,,
13.4375000000,1,-2.4320220947,,,
13.4531250000,1,-2.5845029354,,,
13.4687500000,1,-3.0659940243,,,
13.4843750000,1,-3.7624208927,,,
13.5000000000,1,-4.4625091553,,,
13.5156250000,1,-4.9311218262,,,
13.5312500000,1,-5.0013198853,,,
13.5468750000,1,-4.6341710091,,,
13.5625000000,1,-3.9523539543,,,
13.5781250000,1,-3.2031331062,,,
13.5937500000,1,-2.6586759090,,,
13.6093750000,1,-2.5162959099,,,
13.6250000000,1,-2.8221209049,,,
13.6406250000,1,-3.4633030891,,,
13.6562500000,1,-4.1941909790,,,
13.6718750000,1,-4.7710418701,,,
13.6875000000,1,-5.0355381966,,,
13.7031250000,1,-4.9402241707,,,
13.7187500000,1,-4.5564727783,,,
13.7343750000,1,-3.9849779606,,,
13.7500000000,1,-3.3126599789,,,
13.7656250000,1,-2.5800170898,,,
13.7812500000,1,-1.8332209587,,,
13.7968750000,1,-1.1360859871,,,
13.8125000000,1,-0.5752410889,,,
13.8281250000,1,-0.2017516941,,,
13.8437500000,1,0.0344009399,,,
13.8593750000,1,0.3171615899,,,
13.8750000000,1,0.8972777724,,,
13.8906250000,1,1.9923709631,,,
13.9062500000,1,3.6593630314,,,
13.9218750000,1,5.7262268066,,,
13.9375000000,1,7.8687291145,,,
13.9531250000,1,9.7640905380,,,
13.9687500000,1,11.2453498840,,,
13.9843750000,1,12.3163404465,,,
14.0000000000,1,13.0844001770,,,
14.0156250000,1,13.6281099319,,,
14.0312500000,1,13.9122695923,,,
14.0468750000,1,13.8443002701,,,
14.0625000000,1,13.3824596405,,,
14.0781250000,1,12.6450796127,,,
14.0937500000,1,11.8744001389,,,
14.1093750000,1,11.3222103119,,,
14.1250000000,1,11.0887804031,,,
14.1406250000,1,11.0493698120,,,
14.1562500000,1,10.9281797409,,,
14.1718750000,1,10.4424896240,,,
14.1875000000,1,9.4582748413,,,
14.2031250000,1,8.0259628296,,,
14.2187500000,1,6.3132400513,,,
14.2343750000,1,4.4805679321,,,
14.2500000000,1,2.6186521053,,,
14.2656250000,1,0.7644271851,,,
14.2812500000,1,-1.0370709896,,,
14.2968750000,1,-2.6679379940,,,
14.3125000000,1,-3.9808650017,,,
14.3281250000,1,-4.8534998894,,,
14.3437500000,1,-5.2765731812,,,
14.3593750000,1,-5.3605189323,,,
14.3750000000,1,-5.2894520760,,,
14.3906250000,1,-5.2182240486,,,
14.4062500000,1,-5.1921391487,,,
14.4218750000,1,-5.1608958244,,,
14.4375000000,1,-5.0283970833,,,
14.4531250000,1,-4.7372059822,,,
14.4687500000,1,-4.2992401123,,,
14.4843750000,1,-3.7760310173,,,
14.5000000000,1,-3.2359769344,,,
14.5156250000,1,-2.7291340828,,,
14.5312500000,1,-2.2852940559,,,
14.5468750000,1,-1.9459379911,,,
14.5625000000,1,-1.7814639807,,,
14.5781250000,1,-1.8482129574,,,
14.5937500000,1,-2.1334609985,,,
14.6093750000,1,-2.5209579468,,,
14.6250000000,1,-2.8161089420,,,
14.6406250000,1,-2.8484339714,,,
14.6562500000,1,-2.5740969181,,,
14.6718750000,1,-2.1258239746,,,
14.6875000000,1,-1.7251429558,,,
14.7031250000,1,-1.5712200403,,,
14.7187500000,1,-1.7119899988,,,
14.7343750000,1,-2.0202789307,,,
14.7500000000,1,-2.2710189819,,,
14.7656250000,1,-2.2762150764,,,
14.7812500000,1,-1.9992140532,,,
14.7968750000,1,-1.5554349422,,,
14.8125000000,1,-1.1424789429,,,
14.8281250000,1,-0.9208374023,,,
14.8437500000,1,-0.9377747178,,,
14.8593750000,1,-1.1197279692,,,
14.8750000000,1,-1.3430099487,,,
14.8906250000,1,-1.5194020271,,,
14.9062500000,1,-1.6209340096,,,
14.9218750000,1,-1.6541440487,,,
14.9375000000,1,-1.6199949980,,,
14.9531250000,1,-1.4875789881,,,
14.9687500000,1,-1.2145609856,,,
14.9843750000,1,-0.8120651245,,,
15.0000000000,1,-0.3639754951,,,
15.0156250000,1,-0.0063705440,,,
15.0312500000,1,0.1477584988,,,
15.0468750000,1,0.0896682665,,,
15.0625000000,1,-0.0765533373,,,
15.0781250000,1,-0.2020263970,,,
15.0937500000,1,-0.1935500950,,,
15.1093750000,1,-0.0696945190,,,
15.1250000000,1,0.0455474891,,,
15.1406250000,1,0.0255889893,,,
15.1562500000,1,-0.1549759060,,,
15.1718750000,1,-0.4120788872,,,
15.1875000000,1,-0.5781096816,,,
15.2031250000,1,-0.5312957764,,,
15.2187500000,1,-0.2614746094,,,
15.2343750000,1,0.1026230007,,,
15.2500000000,1,0.3909148872,,,
15.2656250000,1,0.4788436890,,,
15.2812500000,1,0.3599396050,,,
15.2968750000,1,0.1427306980,,,
15.3125000000,1,-0.0334548987,,,
15.3281250000,1,-0.0802154467,,,
15.3437500000,1,-0.0090179443,,,
15.3593750000,1,0.0926818773,,,
15.3750000000,1,0.1462554932,,,
15.3906250000,1,0.1381148994,,,
15.4062500000,1,0.1098709032,,,
15.4218750000,1,0.1250915974,,,
15.4375000000,1,0.2191161960,,,
15.4531250000,1,0.3380126953,,,
15.4687500000,1,0.3965454102,,,
15.4843750000,1,0.3129577935,,,
15.5000000000,1,0.0904617310,,,
15.5156250000,1,-0.1866302043,,,
15.5312500000,1,-0.3930358887,,,
15.5468750000,1,-0.4403991997,,,
15.5625000000,1,-0.3481979072,,,
15.5781250000,1,-0.2101439983,,,
15.5937500000,1,-0.1543197930,,,
15.6093750000,1,-0.2427138984,,,
15.6250000000,1,-0.4395447075,,,
15.6406250000,1,-0.6420288086,,,
15.6562500000,1,-0.7437363267,,,
15.6718750000,1,-0.7067412734,,,
15.6875000000,1,-0.5710372925,,,
15.7031250000,1,-0.4288482964,,,
15.7187500000,1,-0.3319778144,,,
15.7343750000,1,-0.2838287055,,,
15.7500000000,1,-0.2167740017,,,
15.7656250000,1,-0.0614242591,,,
15.7812500000,1,0.1812285930,,,
15.7968750000,1,0.4114303887,,,
15.8125000000,1,0.4774323106,,,
15.8281250000,1,0.2611694038,,,
15.8437500000,1,-0.2416840047,,,
15.8593750000,1,-0.9063491821,,,
15.8750000000,1,-1.5118869543,,,
15.8906250000,1,-1.8359450102,,,
15.9062500000,1,-1.7097699642,,,
15.9218750000,1,-1.0733259916,,,
15.9375000000,1,0.0136794997,,,
15.9531250000,1,1.3712999821,,,
15.9687500000,1,2.7409210205,,,
15.9843750000,1,3.8342669010,,,
16.0000000000,2,4.4476008415,,,
16.0156250000,2,4.5025792122,,,
16.0312500000,2,4.1127471924,,,
16.0468750000,2,3.5029449463,,,
16.0625000000,2,2.8986508846,,,
16.0781250000,2,2.4047849178,,,
16.0937500000,2,1.9782329798,,,
16.1093750000,2,1.4921109676,,,
16.1250000000,2,0.8658676147,,,
16.1406250000,2,0.1602019966,,,
16.1562500000,2,-0.4341582954,,,
16.1718750000,2,-0.7137603760,,,
16.1875000000,2,-0.6103438735,,,
16.2031250000,2,-0.2471161038,,,
16.2187500000,2,0.1333618015,,,
16.2343750000,2,0.2891387939,,,
16.2500000000,2,0.1488876045,,,
16.2656250000,2,-0.1773529053,,,
16.2812500000,2,-0.4600448906,,,
16.2968750000,2,-0.5031738281,,,
16.3125000000,2,-0.2627334893,,,
16.3281250000,2,0.1317138970,,,
16.3437500000,2,0.4785918891,,,
16.3593750000,2,0.6035460830,,,
16.3750000000,2,0.4751968086,,,
16.3906250000,2,0.1933517009,,,
16.4062500000,2,-0.0539932288,,,
16.4218750000,2,-0.0846862793,,,
16.4375000000,2,0.2262420952,,,
16.4531250000,2,0.8903350830,,,
16.4687500000,2,1.8201600313,,,
16.4843750000,2,2.8425829411,,,
16.5000000000,2,3.7558670044,,,
16.5156250000,2,4.3703689575,,,
16.5312500000,2,4.5967030525,,,
16.5468750000,2,4.4669270515,,,
16.5625000000,2,4.1392588615,,,
16.5781250000,2,3.8146290779,,,
16.5937500000,2,3.6353681087,,,
16.6093750000,2,3.6443629265,,,
16.6250000000,2,3.7721331120,,,
16.6406250000,2,3.8954699039,,,
16.6562500000,2,3.9399340153,,,
16.6718750000,2,3.9037320614,,,
16.6875000000,2,3.8232350349,,,
16.7031250000,2,3.7276918888,,,
16.7187500000,2,3.6213910580,,,
16.7343750000,2,3.4691998959,,,
16.7500000000,2,3.2687530518,,,
16.7656250000,2,3.0392909050,,,
16.7812500000,2,2.7980959415,,,
16.7968750000,2,2.5208439827,,,
16.8125000000,2,2.1311800480,,,
16.8281250000,2,1.5321120024,,,
16.8437500000,2,0.6965866089,,,
16.8593750000,2,-0.2916336060,,,
16.8750000000,2,-1.2484509945,,,
16.8906250000,2,-1.9740910530,,,
16.9062500000,2,-2.3556590080,,,
16.9218750000,2,-2.4066538811,,,
16.9375000000,2,-2.2648999691,,,
16.9531250000,2,-2.1305770874,,,
16.9687500000,2,-2.1899108887,,,
16.9843750000,2,-2.5461039543,,,
17.0000000000,2,-3.1956861019,,,
17.0156250000,2,-4.0168910027,,,
17.0312500000,2,-4.8175201416,,,
17.0468750000,2,-5.4102401733,,,
17.0625000000,2,-5.6722340584,,,
17.0781250000,2,-5.5984878540,,,
17.0937500000,2,-5.2878799438,,,
17.1093750000,2,-4.8785319328,,,
17.1250000000,2,-4.4609069824,,,
17.1406250000,2,-4.0531921387,,,
17.1562500000,2,-3.6326138973,,,
17.1718750000,2,-3.1946260929,,,
17.1875000000,2,-2.8087840080,,,
17.2031250000,2,-2.6029889584,,,
17.2187500000,2,-2.6734089851,,,
17.2343750000,2,-3.0143129826,,,
17.2500000000,2,-3.4957959652,,,
17.2656250000,2,-3.9253768921,,,
17.2812500000,2,-4.1561808586,,,
17.2968750000,2,-4.1595988274,,,
17.3125000000,2,-4.0194091797,,,
17.3281250000,2,-3.8614959717,,,
17.3437500000,2,-3.7800059319,,,
17.3593750000,2,-3.7731480598,,,
17.3750000000,2,-3.7765049934,,,
17.3906250000,2,-3.6992950439,,,
17.4062500000,2,-3.4828801155,,,
17.4218750000,2,-3.1331479549,,,
17.4375000000,2,-2.7202610970,,,
17.4531250000,2,-2.3358459473,,,
17.4687500000,2,-2.0463099480,,,
17.4843750000,2,-1.8563920259,,,
17.5000000000,2,-1.6948779821,,,
17.5156250000,2,-1.4648590088,,,
17.5312500000,2,-1.1154940128,,,
17.5468750000,2,-0.6740952134,,,
17.5625000000,2,-0.2676467896,,,
17.5781250000,2,-0.0521469116,,,
17.5937500000,2,-0.1067200005,,,
17.6093750000,2,-0.3603287041,,,
17.6250000000,2,-0.5993270874,,,
17.6406250000,2,-0.5498198867,,,
17.6562500000,2,-0.0336532593,,,
17.6718750000,2,0.9267730713,,,
17.6875000000,2,2.1228640079,,,
17.7031250000,2,3.2323610783,,,
17.7187500000,2,3.9650039673,,,
17.7343750000,2,4.1772379875,,,
17.7500000000,2,3.9105219841,,,
17.7656250000,2,3.3432080746,,,
17.7812500000,2,2.7052309513,,,
17.7968750000,2,2.1806030273,,,
17.8125000000,2,1.8497090340,,,
17.8281250000,2,1.7108149529,,,
17.8437500000,2,1.6931229830,,,
17.8593750000,2,1.7405170202,,,
17.8750000000,2,1.8175129890,,,
17.8906250000,2,1.9185030460,,,
17.9062500000,2,2.0498499870,,,
17.9218750000,2,2.2105100155,,,
17.9375000000,2,2.3705830574,,,
17.9531250000,2,2.4832990170,,,
17.9687500000,2,2.5239410400,,,
17.9843750000,2,2.4939270020,,,
18.0000000000,2,2.4442141056,,,
18.0156250000,2,2.4287800789,,,
18.0312500000,2,2.4589920044,,,
18.0468750000,2,2.4773099422,,,
18.0625000000,2,2.3978118896,,,
18.0781250000,2,2.1742100716,,,
18.0937500000,2,1.8410639763,,,
18.1093750000,2,1.5156630278,,,
18.1250000000,2,1.3201290369,,,
18.1406250000,2,1.3094480038,,,
18.1562500000,2,1.4111560583,,,
18.1718750000,2,1.4442670345,,,
18.1875000000,2,1.2128520012,,,
18.2031250000,2,0.6141281128,,,
18.2187500000,2,-0.2963638008,,,
18.2343750000,2,-1.3215329647,,,
18.2500000000,2,-2.2225489616,,,
18.2656250000,2,-2.8424000740,,,
18.2812500000,2,-3.1584320068,,,
18.2968750000,2,-3.2713010311,,,
18.3125000000,2,-3.3002240658,,,
18.3281250000,2,-3.2954859734,,,
18.3437500000,2,-3.2071299553,,,
18.3593750000,2,-2.9289019108,,,
18.3750000000,2,-2.3883209229,,,
18.3906250000,2,-1.6269990206,,,
18.4062500000,2,-0.8087233901,,,
18.4218750000,2,-0.1381072998,,,
18.4375000000,2,0.2300568074,,,
18.4531250000,2,0.2868652046,,,
18.4687500000,2,0.1598587036,,,
18.4843750000,2,0.0322570801,,,
18.5000000000,2,0.0380706787,,,
18.5156250000,2,0.2103728950,,,
18.5312500000,2,0.4910430908,,,
18.5468750000,2,0.7768707275,,,
18.5625000000,2,0.9869155884,,,
18.5781250000,2,1.0688929558,,,
18.5937500000,2,1.0218960047,,,
18.6093750000,2,0.8525847793,,,
18.6250000000,2,0.5789794922,,,
18.6406250000,2,0.2350005955,,,
18.6562500000,2,-0.1324080974,,,
18.6718750000,2,-0.4474258125,,,
18.6875000000,2,-0.6222838759,,,
18.7031250000,2,-0.5914611816,,,
18.7187500000,2,-0.3360137939,,,
18.7343750000,2,0.0972671509,,,
18.7500000000,2,0.6041641235,,,
18.7656250000,2,-0.7533187866,,,
18.7812500000,2,-0.4672240913,,,
18.7968750000,2,-0.2330780029,,,
18.8125000000,2,-0.0769271925,,,
18.8281250000,2,-0.0029144289,,,
18.8437500000,2,-0.0233917199,,,
18.8593750000,2,-0.1781692952,,,
18.8750000000,2,-0.4898147881,,,
18.8906250000,2,-0.9463729858,,,
18.9062500000,2,-1.4583890438,,,
18.9218750000,2,-1.8885569572,,,
18.9375000000,2,-2.1069409847,,,
18.9531250000,2,-2.0677111149,,,
18.9687500000,2,-1.8337550163,,,
18.9843750000,2,-1.5516970158,,,
19.0000000000,2,-1.3635710478,,,
19.0156250000,2,-1.3340990543,,,
19.0312500000,2,-1.4411089420,,,
19.0468750000,2,-1.6081919670,,,
19.0625000000,2,-1.7752460241,,,
19.0781250000,2,-1.9264600277,,,
19.0937500000,2,-2.0676729679,,,
19.1093750000,2,-2.1981809139,,,
19.1250000000,2,-2.2684099674,,,
19.1406250000,2,-2.2237238884,,,
19.1562500000,2,-2.0400240421,,,
19.1718750000,2,-1.7714689970,,,
19.1875000000,2,-1.5425490141,,,
19.2031250000,2,-1.4797209501,,,
19.2187500000,2,-1.6246260405,,,
19.2343750000,2,-1.8883440495,,,
19.2500000000,2,-2.0962300301,,,
19.2656250000,2,-2.0824890137,,,
19.2812500000,2,-1.7943799496,,,
19.2968750000,2,-1.3369749784,,,
19.3125000000,2,-0.9200363159,,,
19.3281250000,2,-0.7381516099,,,
19.3437500000,2,-0.8667449951,,,
19.3593750000,2,-1.2323909998,,,
19.3750000000,2,-1.6456530094,,,
19.3906250000,2,-1.9160540104,,,
19.4062500000,2,-1.9146499634,,,
19.4218750000,2,-1.6203689575,,,
19.4375000000,2,-1.0829319954,,,
19.4531250000,2,-0.3763808906,,,
19.4687500000,2,0.4422912896,,,
19.4843750000,2,1.3227230310,,,
19.5000000000,2,2.2132720947,,,
19.5156250000,2,3.0383300781,,,
19.5312500000,2,3.7140810490,,,
19.5468750000,2,4.1931610107,,,
19.5625000000,2,4.4950709343,,,
19.5781250000,2,4.6950302124,,,
19.5937500000,2,4.8706741333,,,
19.6093750000,2,5.0610661507,,,
19.6250000000,2,5.2350621223,,,
19.6406250000,2,5.3189849854,,,
19.6562500000,2,5.2540440559,,,
19.6718750000,2,5.0331268311,,,
19.6875000000,2,4.6971359253,,,
19.7031250000,2,4.3144907951,,,
19.7187500000,2,3.9370570183,,,
19.7343750000,2,3.5983510017,,,
19.7500000000,2,3.3070979118,,,
19.7656250000,2,3.0755460262,,,
19.7812500000,2,2.9061429501,,,
19.7968750000,2,2.8156130314,,,
19.8125000000,2,2.8067779541,,,
19.8281250000,2,2.8870470524,,,
19.8437500000,2,3.0469129086,,,
19.8593750000,2,3.2250521183,,,
19.8750000000,2,3.3183059692,,,
19.8906250000,2,3.1787800789,,,
19.9062500000,2,2.6884000301,,,
19.9218750000,2,1.8202290535,,,
19.9375000000,2,0.6754760742,,,
19.9531250000,2,-0.5302124023,,,
19.9687500000,2,-1.5478290319,,,
19.9843750000,2,-2.1882479191,,,
20.0000000000,2,-2.3568570614,,,
20.0156250000,2,-2.0411069393,,,
20.0312500000,2,-1.2779459953,,,
20.0468750000,2,-0.1520919949,,,
20.0625000000,2,1.1715699434,,,
20.0781250000,2,2.4327321053,,,
20.0937500000,2,3.3224871159,,,
20.1093750000,2,3.6068499088,,,
20.1250000000,2,3.2543330193,,,
20.1406250000,2,2.4893260002,,,
20.1562500000,2,1.6811519861,,,
20.1718750000,2,1.1415100098,,,
20.1875000000,2,0.9467620850,,,
20.2031250000,2,0.9121398926,,,
20.2187500000,2,0.7242354751,,,
20.2343750000,2,0.1633376926,,,
20.2500000000,2,-0.7699890137,,,
20.2656250000,2,-1.8475110531,,,
20.2812500000,2,-2.8025739193,,,
20.2968750000,2,-3.4910199642,,,
20.3125000000,2,-3.9590609074,,,
20.3281250000,2,-4.3508148193,,,
20.3437500000,2,-4.7480468750,,,
20.3593750000,2,-5.0734710693,,,
20.3750000000,2,-5.1016159058,,,
20.3906250000,2,-4.6456151009,,,
20.4062500000,2,-3.7000429630,,,
20.4218750000,2,-2.4983520508,,,
20.4375000000,2,-1.4166179895,,,
20.4531250000,2,-0.7693253160,,,
20.4687500000,2,-0.6568145752,,,
20.4843750000,2,-0.9120482802,,,
20.5000000000,2,-1.2117539644,,,
20.5156250000,2,-1.2521129847,,,
20.5312500000,2,-0.9034194946,,,
20.5468750000,2,-0.2514190972,,,
20.5625000000,2,0.4744034111,,,
20.5781250000,2,1.0173419714,,,
20.5937500000,2,1.2333680391,,,
20.6093750000,2,1.1184840202,,,
20.6250000000,2,0.7903441787,,,
20.6406250000,2,0.3985900879,,,
20.6562500000,2,0.0662689209,,,
20.6718750000,2,-0.1568222046,,,
20.6875000000,2,-0.2634583116,,,
20.7031250000,2,-0.2843781114,,,
20.7187500000,2,-0.2603226006,,,
20.7343750000,2,-0.2252044976,,,
20.7500000000,2,-0.2245789021,,,
20.7656250000,2,-0.3025817871,,,
20.7812500000,2,-0.4508742988,,,
20.7968750000,2,-0.6327971816,,,
20.8125000000,2,-0.7659224868,,,
20.8281250000,2,-0.7710419297,,,
20.8437500000,2,-0.6350783706,,,
20.8593750000,2,-0.4254761040,,,
20.8750000000,2,-0.2383574992,,,
20.8906250000,2,-0.1567382962,,,
20.9062500000,2,-0.1735534966,,,
20.9218750000,2,-0.2138289958,,,
20.9375000000,2,-0.2044295967,,,
20.9531250000,2,-0.1307449043,,,
20.9687500000,2,-0.0916366577,,,
20.9843750000,2,-0.2075272053,,,
21.0000000000,2,-0.5725554824,,,
21.0156250000,2,-1.1735379696,,,
21.0312500000,2,-1.8899919987,,,
21.0468750000,2,-2.5572659969,,,
21.0625000000,2,-3.0222320557,,,
21.0781250000,2,-3.2000889778,,,
21.0937500000,2,-3.0652849674,,,
21.1093750000,2,-2.6673200130,,,
21.1250000000,2,-2.0966949463,,,
21.1406250000,2,-1.4894870520,,,
21.1562500000,2,-0.9994431138,,,
21.1718750000,2,-0.7565612793,,,
21.1875000000,2,-0.8112487793,,,
21.2031250000,2,-1.1393510103,,,
21.2187500000,2,-1.6646120548,,,
21.2343750000,2,-2.2898030281,,,
21.2500000000,2,-2.9232480526,,,
21.2656250000,2,-3.5012509823,,,
21.2812500000,2,-3.9657590389,,,
21.2968750000,2,-4.2648320198,,,
21.3125000000,2,-4.3664698601,,,
21.3281250000,2,-4.2838668823,,,
21.3437500000,2,-4.0645289421,,,
21.3593750000,2,-3.7715530396,,,
21.3750000000,2,-3.4278259277,,,
21.3906250000,2,-3.0020289421,,,
21.4062500000,2,-2.4372479916,,,
21.4218750000,2,-1.7292859554,,,
21.4375000000,2,-0.9560775757,,,
21.4531250000,2,-0.2639083862,,,
21.4687500000,2,0.1960906982,,,
21.4843750000,2,0.3981476128,,,
21.5000000000,2,0.4330368042,,,
21.5156250000,2,0.4877319038,,,
21.5312500000,2,0.7118834853,,,
21.5468750000,2,1.1570359468,,,
21.5625000000,2,1.7631989717,,,
21.5781250000,2,2.4304349422,,,
21.5937500000,2,3.0892329216,,,
21.6093750000,2,3.7129518986,,,
21.6250000000,2,4.3121638298,,,
21.6406250000,2,4.8767089844,,,
21.6562500000,2,5.3649139404,,,
21.6718750000,2,5.6964869499,,,
21.6875000000,2,5.8055038452,,,
21.7031250000,2,5.6598591805,,,
21.7187500000,2,5.2935180664,,,
21.7343750000,2,4.7938771248,,,
21.7500000000,2,4.2888951302,,,
21.7656250000,2,3.9081039429,,,
21.7812500000,2,3.7375180721,,,
21.7968750000,2,3.7829670906,,,
21.8125000000,2,3.9527740479,,,
21.8281250000,2,4.1087422371,,,
21.8437500000,2,4.1220779419,,,
21.8593750000,2,3.9447250366,,,
21.8750000000,2,3.6185379028,,,
21.8906250000,2,3.2541499138,,,
21.9062500000,2,2.9519810677,,,
21.9218750000,2,2.7510449886,,,
21.9375000000,2,2.6353909969,,,
21.9531250000,2,2.5507199764,,,
21.9687500000,2,2.4751129150,,,
21.9843750000,2,2.4013979435,,,
22.0000000000,2,2.3255228996,,,
22.0156250000,2,2.2368769646,,,
22.0312500000,2,2.1150510311,,,
22.0468750000,2,1.9694060087,,,
22.0625000000,2,1.8536529541,,,
22.0781250000,2,1.8455810547,,,
22.0937500000,2,1.9804149866,,,
22.1093750000,2,2.1972050667,,,
22.1250000000,2,2.3458330631,,,
22.1406250000,2,2.2610399723,,,
22.1562500000,2,1.8584589958,,,
22.1718750000,2,1.1869579554,,,
22.1875000000,2,0.4146423042,,,
22.2031250000,2,-0.2519989014,,,
22.2187500000,2,-0.6533355713,,,
22.2343750000,2,-0.7443084717,,,
22.2500000000,2,-0.5852355957,,,
22.2656250000,2,-0.3155440986,,,
22.2812500000,2,-0.0891036987,,,
22.2968750000,2,-0.0248489399,,,
22.3125000000,2,-0.1802368015,,,
22.3281250000,2,-0.5466156006,,,
22.3437500000,2,-1.0540540218,,,
22.3593750000,2,-1.6108319759,,,
22.3750000000,2,-2.1424939632,,,
22.3906250000,2,-2.6066970825,,,
22.4062500000,2,-3.0018160343,,,
22.4218750000,2,-3.3391649723,,,
22.4375000000,2,-3.6092910767,,,
22.4531250000,2,-3.7738490105,,,
22.4687500000,2,-3.7663190365,,,
22.4843750000,2,-3.5339660645,,,
22.5000000000,2,-3.0597920418,,,
22.5156250000,2,-2.3804020882,,,
22.5312500000,2,-1.5874249935,,,
22.5468750000,2,-0.8181915283,,,
22.5625000000,2,-0.2195205986,,,
22.5781250000,2,0.0745468065,,,
22.5937500000,2,-0.0092315674,,,
22.6093750000,2,-0.4370040894,,,
22.6250000000,2,-1.0649260283,,,
22.6406250000,2,-1.6621400118,,,
22.6562500000,2,-1.9922410250,,,
22.6718750000,2,-1.9097210169,,,
22.6875000000,2,-1.4301220179,,,
22.7031250000,2,-0.7051085830,,,
22.7187500000,2,0.0389709510,,,
22.7343750000,2,0.5969771743,,,
22.7500000000,2,0.8580245972,,,
22.7656250000,2,0.8127213120,,,
22.7812500000,2,0.5391541123,,,
22.7968750000,2,0.1484145969,,,
22.8125000000,2,-0.2399750054,,,
22.8281250000,2,-0.5478897095,,,
22.8437500000,2,-0.7375946045,,,
22.8593750000,2,-0.8324584961,,,
22.8750000000,2,-0.8900833130,,,
22.8906250000,2,-0.9624251723,,,
22.9062500000,2,-1.0729370117,,,
22.9218750000,2,-1.2153849602,,,
22.9375000000,2,-1.3654479980,,,
22.9531250000,2,-1.4906309843,,,
22.9687500000,2,-1.5744479895,,,
22.9843750000,2,-1.5995860100,,,
23.0000000000,2,-1.5402979851,,,
23.0156250000,2,-1.3701020479,,,
23.0312500000,2,-1.0715639591,,,
23.0468750000,2,-0.6685333252,,,
23.0625000000,2,-0.2328948975,,,
23.0781250000,2,0.1371002048,,,
23.0937500000,2,0.3606109917,,,
23.1093750000,2,0.4165191948,,,
23.1250000000,2,0.3402175903,,,
23.1406250000,2,0.1858215034,,,
23.1562500000,2,-0.0056076050,,,
23.1718750000,2,-0.2080153972,,,
23.1875000000,2,-0.4122008979,,,
23.2031250000,2,-0.5643311143,,,
23.2187500000,2,-0.5839462280,,,
23.2343750000,2,-0.4019927979,,,
23.2500000000,2,-0.0058670039,,,
23.2656250000,2,0.5146865845,,,
23.2812500000,2,0.9961090088,,,
23.2968750000,2,1.2673339844,,,
23.3125000000,2,1.2452549934,,,
23.3281250000,2,0.9558181763,,,
23.3437500000,2,0.5461196899,,,
23.3593750000,2,0.1858672947,,,
23.3750000000,2,0.0018768311,,,
23.3906250000,2,0.0429534912,,,
23.4062500000,2,0.2696456909,,,
23.4218750000,2,0.5719451904,,,
23.4375000000,2,0.8269882202,,,
23.4531250000,2,0.9176024795,,,
23.4687500000,2,0.7633057237,,,
23.4843750000,2,0.3477325141,,,
23.5000000000,2,-0.2684937119,,,
23.5156250000,2,-0.9537429810,,,
23.5312500000,2,-1.5239030123,,,
23.5468750000,2,-1.8188860416,,,
23.5625000000,2,-1.7639919519,,,
23.5781250000,2,-1.4082490206,,,
23.5937500000,2,-0.9146881104,,,
23.6093750000,2,-0.5058364868,,,
23.6250000000,2,-0.3635483086,,,
23.6406250000,2,-0.5555573106,,,
23.6562500000,2,-1.0345460176,,,
23.6718750000,2,-1.6359560490,,,
23.6875000000,2,-2.1802060604,,,
23.7031250000,2,-2.5348970890,,,
23.7187500000,2,-2.6321640015,,,
23.7343750000,2,-2.4815831184,,,
23.7500000000,2,-2.1288149357,,,
23.7656250000,2,-1.6407320499,,,
23.7812500000,2,-1.0875320435,,,
23.7968750000,2,-0.5673217773,,,
23.8125000000,2,-0.1839980930,,,
23.8281250000,2,-0.0169372596,,,
23.8437500000,2,-0.0657806396,,,
23.8593750000,2,-0.2352675945,,,
23.8750000000,2,-0.3591232002,,,
23.8906250000,2,-0.2798385918,,,
23.9062500000,2,0.0900421068,,,
23.9218750000,2,0.7128983140,,,
23.9375000000,2,1.4684749842,,,
23.9531250000,2,2.2148509026,,,
23.9687500000,2,2.8505170345,,,
23.9843750000,2,3.3508529663,,,
24.0000000000,3,3.7360310555,,,
24.0156250000,3,4.0397491455,,,
24.0312500000,3,4.2637939453,,,
24.0468750000,3,4.3813247681,,,
24.0625000000,3,4.3447880745,,,
24.0781250000,3,4.1122670174,,,
24.0937500000,3,3.6822741032,,,
24.1093750000,3,3.1018450260,,,
24.1250000000,3,2.4483029842,,,
24.1406250000,3,1.8207550049,,,
24.1562500000,3,1.2697600126,,,
24.1718750000,3,0.7927017212,,,
24.1875000000,3,0.3319855034,,,
24.2031250000,3,-0.1827774048,,,
24.2187500000,3,-0.7862091064,,,
24.2343750000,3,-1.4359819889,,,
24.2500000000,3,-2.0278089046,,,
24.2656250000,3,-2.4548110962,,,
24.2812500000,3,-2.6501851082,,,
24.2968750000,3,-2.6325910091,,,
24.3125000000,3,-2.4910199642,,,
24.3281250000,3,-2.3233408928,,,
24.3437500000,3,-2.1773829460,,,
24.3593750000,3,-2.0454640388,,,
24.3750000000,3,-1.8817059994,,,
24.3906250000,3,-1.6565779448,,,
24.4062500000,3,-1.3649749756,,,
24.4218750000,3,-1.0442810059,,,
24.4375000000,3,-0.7460250854,,,
24.4531250000,3,-0.5204467773,,,
24.4687500000,3,-0.4012984931,,,
24.4843750000,3,-0.4031372070,,,
24.5000000000,3,-0.5433731079,,,
24.5156250000,3,-0.8055037856,,,
24.5312500000,3,-1.1349109411,,,
24.5468750000,3,-1.4154280424,,,
24.5625000000,3,-1.5128099918,,,
24.5781250000,3,-1.3402860165,,,
24.5937500000,3,-0.8975830078,,,
24.6093750000,3,-0.2870864868,,,
24.6250000000,3,0.3145827949,,,
24.6406250000,3,0.7539520264,,,
24.6562500000,3,0.9626923203,,,
24.6718750000,3,0.9775695801,,,
24.6875000000,3,0.8920134902,,,
24.7031250000,3,0.7959824204,,,
24.7187500000,3,0.7254486084,,,
24.7343750000,3,0.6678391099,,,
24.7500000000,3,0.5955048203,,,
24.7656250000,3,0.4959945977,,,
24.7812500000,3,0.4079895020,,,
24.7968750000,3,0.3921355903,,,
24.8125000000,3,0.4787291884,,,
24.8281250000,3,0.6332169175,,,
24.8437500000,3,0.7714157104,,,
24.8593750000,3,0.7809600830,,,
24.8750000000,3,0.6112517715,,,
24.8906250000,3,0.2740631104,,,
24.9062500000,3,-0.1560821980,,,
24.9218750000,3,-0.5817565918,,,
24.9375000000,3,-0.9176177979,,,
24.9531250000,3,-1.1166000366,,,
24.9687500000,3,-1.1548229456,,,
24.9843750000,3,-1.0205919743,,,
25.0000000000,3,-0.7293624878,,,
25.0156250000,3,-0.3185349107,,,
25.0312500000,3,0.1388625950,,,
25.0468750000,3,0.5762329102,,,
25.0625000000,3,0.9409102798,,,
25.0781250000,3,1.2031480074,,,
25.0937500000,3,1.3459399939,,,
25.1093750000,3,1.3563920259,,,
25.1250000000,3,1.2177729607,,,
25.1406250000,3,0.9239119887,,,
25.1562500000,3,0.5180817246,,,
25.1718750000,3,0.0752410889,,,
25.1875000000,3,-0.2989119887,,,
25.2031250000,3,-0.5302277207,,,
25.2187500000,3,-0.5900955200,,,
25.2343750000,3,-0.4886322021,,,
25.2500000000,3,-0.2373047024,,,
25.2656250000,3,0.1599730998,,,
25.2812500000,3,0.6957321167,,,
25.2968750000,3,1.3302309513,,,
25.3125000000,3,1.9485780001,,,
25.3281250000,3,2.3939208984,,,
25.3437500000,3,2.5414888859,,,
25.3593750000,3,2.3605730534,,,
25.3750000000,3,1.9427720308,,,
25.3906250000,3,1.4488450289,,,
25.4062500000,3,1.0351560116,,,
25.4218750000,3,0.7711257935,,,
25.4375000000,3,0.6376038194,,,
25.4531250000,3,0.5562896729,,,
25.4687500000,3,0.4482651055,,,
25.4843750000,3,0.2664490044,,,
25.5000000000,3,0.0014190670,,,
25.5156250000,3,-0.3450393975,,,
25.5312500000,3,-0.7774428725,,,
25.5468750000,3,-1.2772829533,,,
25.5625000000,3,-1.7940829992,,,
25.5781250000,3,-2.2300419807,,,
25.5937500000,3,-2.4585270882,,,
25.6093750000,3,-2.3945620060,,,
25.6250000000,3,-2.0486299992,,,
25.6406250000,3,-1.5485310555,,,
25.6562500000,3,-1.0847630501,,,
25.6718750000,3,-0.8224182129,,,
25.6875000000,3,-0.8074645996,,,
25.7031250000,3,-0.9415283203,,,
25.7187500000,3,-1.0382770300,,,
25.7343750000,3,-0.9362410903,,,
25.7500000000,3,-0.5939788818,,,
25.7656250000,3,-0.1086577997,,,
25.7812500000,3,0.3532561958,,,
25.7968750000,3,0.6502150893,,,
25.8125000000,3,0.7606887817,,,
25.8281250000,3,-0.3555983901,,,
25.8437500000,3,-0.1870346069,,,
25.8593750000,3,0.1280899048,,,
25.8750000000,3,0.5044478774,,,
25.8906250000,3,0.7848510742,,,
25.9062500000,3,0.8381958008,,,
25.9218750000,3,0.6289901733,,,
25.9375000000,3,0.2424774021,,,
25.9531250000,3,-0.1532516032,,,
25.9687500000,3,-0.4247817993,,,
25.9843750000,3,-0.5111083984,,,
26.0000000000,3,-0.4554367065,,,
26.0156250000,3,-0.3448257148,,,
26.0312500000,3,-0.2434006035,,,
26.0468750000,3,-0.1613312066,,,
26.0625000000,3,-0.0846023634,,,
26.0781250000,3,0.0070571899,,,
26.0937500000,3,0.0825576782,,,
26.1093750000,3,0.0904083326,,,
26.1250000000,3,-0.0076141362,,,
26.1406250000,3,-0.2024841011,,,
26.1562500000,3,-0.4350739121,,,
26.1718750000,3,-0.6414412856,,,
26.1875000000,3,-0.7967376709,,,
26.2031250000,3,-0.9233397841,,,
26.2187500000,3,-1.0723799467,,,
26.2343750000,3,-1.2714309692,,,
26.2500000000,3,-1.4975810051,,,
26.2656250000,3,-1.6786119938,,,
26.2812500000,3,-1.7447049618,,,
26.2968750000,3,-1.6905210018,,,
26.3125000000,3,-1.5811229944,,,
26.3281250000,3,-1.5251539946,,,
26.3437500000,3,-1.5988769531,,,
26.3593750000,3,-1.7785029411,,,
26.3750000000,3,-1.9531019926,,,
26.3906250000,3,-1.9843519926,,,
26.4062500000,3,-1.8045200109,,,
26.4218750000,3,-1.4555890560,,,
26.4375000000,3,-1.0541230440,,,
26.4531250000,3,-0.7344741821,,,
26.4687500000,3,-0.5747985840,,,
26.4843750000,3,-0.6070632935,,,
26.5000000000,3,-0.8170853257,,,
26.5156250000,3,-1.1919250488,,,
26.5312500000,3,-1.7027510405,,,
26.5468750000,3,-2.2672650814,,,
26.5625000000,3,-2.7483139038,,,
26.5781250000,3,-2.9566729069,,,
26.5937500000,3,-2.7365190983,,,
26.6093750000,3,-2.0522539616,,,
26.6250000000,3,-1.0312960148,,,
26.6406250000,3,0.0563735999,,,
26.6562500000,3,0.9045867920,,,
26.6718750000,3,1.2846829891,,,
26.6875000000,3,1.1212769747,,,
26.7031250000,3,0.5097426772,,,
26.7187500000,3,-0.3426055908,,,
26.7343750000,3,-1.1521760225,,,
26.7500000000,3,-1.6739350557,,,
26.7656250000,3,-1.7383270264,,,
26.7812500000,3,-1.3058780432,,,
26.7968750000,3,-0.4903106987,,,
26.8125000000,3,0.4937286079,,,
26.8281250000,3,1.3692549467,,,
26.8437500000,3,1.9086990356,,,
26.8593750000,3,1.9956129789,,,
26.8750000000,3,1.6699680090,,,
26.8906250000,3,1.0930709839,,,
26.9062500000,3,0.4644699097,,,
26.9218750000,3,-0.0565414391,,,
26.9375000000,3,-0.3784027100,,,
26.9531250000,3,-0.4855118096,,,
26.9687500000,3,-0.3571319878,,,
26.9843750000,3,0.0232849102,,,
27.0000000000,3,0.6721038818,,,
27.0156250000,3,1.5631639957,,,
27.0312500000,3,2.5869750977,,,
27.0468750000,3,3.5806350708,,,
27.0625000000,3,4.3919138908,,,
27.0781250000,3,4.9395828247,,,
27.0937500000,3,5.2539291382,,,
27.1093750000,3,5.4413762093,,,
27.1250000000,3,5.6277389526,,,
27.1406250000,3,5.8789520264,,,
27.1562500000,3,6.1971969604,,,
27.1718750000,3,6.5292739868,,,
27.1875000000,3,6.8304820061,,,
27.2031250000,3,7.1072998047,,,
27.2187500000,3,7.3775792122,,,
27.2343750000,3,7.6427078247,,,
27.2500000000,3,7.8177571297,,,
27.2656250000,3,7.7433238029,,,
27.2812500000,3,7.2339482307,,,
27.2968750000,3,6.1567759514,,,
27.3125000000,3,4.5407791138,,,
27.3281250000,3,2.5907518864,,,
27.3437500000,3,0.6338654160,,,
27.3593750000,3,-1.0233689547,,,
27.3750000000,3,-2.1886980534,,,
27.3906250000,3,-2.8537371159,,,
27.4062500000,3,-3.1573181152,,,
27.4218750000,3,-3.3020861149,,,
27.4375000000,3,-3.4452290535,,,
27.4531250000,3,-3.6779859066,,,
27.4687500000,3,-4.0004730225,,,
27.4843750000,3,-4.3511118889,,,
27.5000000000,3,-4.6495289803,,,
27.5156250000,3,-4.8219990730,,,
27.5312500000,3,-4.8159031868,,,
27.5468750000,3,-4.6231231689,,,
27.5625000000,3,-4.2841491699,,,
27.5781250000,3,-3.8558039665,,,
27.5937500000,3,-3.3960421085,,,
27.6093750000,3,-2.9407200813,,,
27.6250000000,3,-2.5056149960,,,
27.6406250000,3,-2.1262130737,,,
27.6562500000,3,-1.8419339657,,,
27.6718750000,3,-1.7079770565,,,
27.6875000000,3,-1.7257770300,,,
27.7031250000,3,-1.8234859705,,,
27.7187500000,3,-1.8747940063,,,
27.7343750000,3,-1.7488329411,,,
27.7500000000,3,-1.4198609591,,,
27.7656250000,3,-0.9692307115,,,
27.7812500000,3,-0.5678253174,,,
27.7968750000,3,-0.3823013008,,,
27.8125000000,3,-0.4747925103,,,
27.8281250000,3,-0.7552794814,,,
27.8437500000,3,-1.0500409603,,,
27.8593750000,3,-1.1887819767,,,
27.8750000000,3,-1.0782999992,,,
27.8906250000,3,-0.7615737915,,,
27.9062500000,3,-0.3570022881,,,
27.9218750000,3,-0.0153503399,,,
27.9375000000,3,0.1498946995,,,
27.9531250000,3,0.1032486036,,,
27.9687500000,3,-0.1301804036,,,
27.9843750000,3,-0.4648132026,,,
28.0000000000,3,-0.7882766724,,,
28.0156250000,3,-1.0027309656,,,
28.0312500000,3,-1.0530320406,,,
28.0468750000,3,-0.9182205200,,,
28.0625000000,3,-0.6462401748,,,
28.0781250000,3,-0.3098526001,,,
28.0937500000,3,0.0180206299,,,
28.1093750000,3,0.2787322998,,,
28.1250000000,3,0.4415664971,,,
28.1406250000,3,0.4797667861,,,
28.1562500000,3,0.3825683892,,,
28.1718750000,3,0.1472321004,,,
28.1875000000,3,-0.1626663059,,,
28.2031250000,3,-0.4385528862,,,
28.2187500000,3,-0.5497664809,,,
28.2343750000,3,-0.3987273872,,,
28.2500000000,3,0.0058670039,,,
28.2656250000,3,0.5418015122,,,
28.2812500000,3,1.0232239962,,,
28.2968750000,3,1.2813340425,,,
28.3125000000,3,1.2464900017,,,
28.3281250000,3,0.9880524278,,,
28.3437500000,3,0.6471099854,,,
28.3593750000,3,0.3751677871,,,
28.3750000000,3,0.2668151855,,,
28.3906250000,3,0.3230820000,,,
28.4062500000,3,0.5013350844,,,
28.4218750000,3,0.7421721816,,,
28.4375000000,3,0.9937667847,,,
28.4531250000,3,1.2291489840,,,
28.4687500000,3,1.4296569824,,,
28.4843750000,3,1.5713499784,,,
28.5000000000,3,1.6331479549,,,
28.5156250000,3,1.5889890194,,,
28.5312500000,3,1.4164049625,,,
28.5468750000,3,1.1463550329,,,
28.5625000000,3,0.8726044297,,,
28.5781250000,3,0.7175827026,,,
28.5937500000,3,0.7697678208,,,
28.6093750000,3,1.0081100464,,,
28.6250000000,3,1.3011319637,,,
28.6406250000,3,1.4390410185,,,
28.6562500000,3,1.2621690035,,,
28.6718750000,3,0.7392272949,,,
28.6875000000,3,0.0108337402,,,
28.7031250000,3,-0.6776580811,,,
28.7187500000,3,-1.1057590246,,,
28.7343750000,3,-1.1882100105,,,
28.7500000000,3,-0.9920272827,,,
28.7656250000,3,-0.7088776231,,,
28.7812500000,3,-0.4960708916,,,
28.7968750000,3,-0.4377746880,,,
28.8125000000,3,-0.5166472793,,,
28.8281250000,3,-0.6620178223,,,
28.8437500000,3,-0.8286437988,,,
28.8593750000,3,-1.0095289946,,,
28.8750000000,3,-1.2267229557,,,
28.8906250000,3,-1.4940409660,,,
28.9062500000,3,-1.7826390266,,,
28.9218750000,3,-2.0309600830,,,
28.9375000000,3,-2.1387560368,,,
28.9531250000,3,-2.0161590576,,,
28.9687500000,3,-1.6048510075,,,
28.9843750000,3,-0.9375076294,,,
29.0000000000,3,-0.1312102973,,,
29.0156250000,3,0.6377182007,,,
29.0312500000,3,1.1999280453,,,
29.0468750000,3,1.4641649723,,,
29.0625000000,3,1.4585720301,,,
29.0781250000,3,1.2935489416,,,
29.0937500000,3,1.0886989832,,,
29.1093750000,3,0.8921967149,,,
29.1250000000,3,0.6683502197,,,
29.1406250000,3,0.3286896050,,,
29.1562500000,3,-0.1588973999,,,
29.1718750000,3,-0.7059174180,,,
29.1875000000,3,-1.1247019768,,,
29.2031250000,3,-1.2082979679,,,
29.2187500000,3,-0.8644409180,,,
29.2343750000,3,-0.2063141018,,,
29.2500000000,3,0.5206298828,,,
29.2656250000,3,1.0324859619,,,
29.2812500000,3,1.2077480555,,,
29.2968750000,3,1.1108319759,,,
29.3125000000,3,0.9382553101,,,
29.3281250000,3,0.8784332275,,,
29.3437500000,3,0.9861832261,,,
29.3593750000,3,1.1727600098,,,
29.3750000000,3,1.2684780359,,,
29.3906250000,3,1.1613080502,,,
29.4062500000,3,0.8835831285,,,
29.4218750000,3,0.5503540039,,,
29.4375000000,3,0.3077239990,,,
29.4531250000,3,0.1940384060,,,
29.4687500000,3,0.1157073975,,,
29.4843750000,3,-0.0882263184,,,
29.5000000000,3,-0.5370026231,,,
29.5156250000,3,-1.1997380257,,,
29.5312500000,3,-1.9034119844,,,
29.5468750000,3,-2.3949809074,,,
29.5625000000,3,-2.4742660522,,,
29.5781250000,3,-2.1034700871,,,
29.5937500000,3,-1.4088439941,,,
29.6093750000,3,-0.6455230713,,,
29.6250000000,3,-0.0632553101,,,
29.6406250000,3,0.1828155965,,,
29.6562500000,3,0.1037368998,,,
29.6718750000,3,-0.1581954956,,,
29.6875000000,3,-0.4322586060,,,
29.7031250000,3,-0.6053162217,,,
29.7187500000,3,-0.6626511216,,,
29.7343750000,3,-0.6671295166,,,
29.7500000000,3,-0.6911240220,,,
29.7656250000,3,-0.7596970201,,,
29.7812500000,3,-0.8422698975,,,
29.7968750000,3,-0.8669434190,,,
29.8125000000,3,-0.7631226182,,,
29.8281250000,3,-0.4922561944,,,
29.8437500000,3,-0.0721588135,,,
29.8593750000,3,0.4364089966,,,
29.8750000000,3,0.9254531860,,,
29.8906250000,3,1.2641069889,,,
29.9062500000,3,1.3750690222,,,
29.9218750000,3,1.2396620512,,,
29.9375000000,3,0.9393920898,,,
29.9531250000,3,0.6169661880,,,
29.9687500000,3,0.4026488960,,,
29.9843750000,3,0.3574371040,,,
30.0000000000,3,0.4460602105,,,
30.0156250000,3,0.5805283189,,,
30.0312500000,3,0.6761245728,,,
30.0468750000,3,0.7273101807,,,
30.0625000000,3,0.7717896104,,,
30.0781250000,3,0.8545914292,,,
30.0937500000,3,0.9741439819,,,
30.1093750000,3,1.0775990486,,,
30.1250000000,3,1.1075060368,,,
30.1406250000,3,1.0330510139,,,
30.1562500000,3,0.8727722168,,,
30.1718750000,3,0.6712111831,,,
30.1875000000,3,0.4503783882,,,
30.2031250000,3,0.2043076009,,,
30.2187500000,3,-0.0792922974,,,
30.2343750000,3,-0.3611069024,,,
30.2500000000,3,-0.5786743164,,,
30.2656250000,3,-0.6435775757,,,
30.2812500000,3,-0.5344390869,,,
30.2968750000,3,-0.3044967949,,,
30.3125000000,3,-0.0662231371,,,
30.3281250000,3,0.0614318810,,,
30.3437500000,3,0.0119094802,,,
30.3593750000,3,-0.2019272000,,,
30.3750000000,3,-0.5146331787,,,
30.3906250000,3,-0.8478012085,,,
30.4062500000,3,-1.1205749512,,,
30.4218750000,3,-1.2723540068,,,
30.4375000000,3,-1.2672270536,,,
30.4531250000,3,-1.1064449549,,,
30.4687500000,3,-0.8394240737,,,
30.4843750000,3,-0.5449677110,,,
30.5000000000,3,-0.2883301079,,,
30.5156250000,3,-0.1038208008,,,
30.5312500000,3,0.0209503192,,,
30.5468750000,3,0.1313094944,,,
30.5625000000,3,0.2630004883,,,
30.5781250000,3,0.4229964912,,,
30.5937500000,3,0.5803527832,,,
30.6093750000,3,0.7048873901,,,
30.6250000000,3,0.7890244126,,,
30.6406250000,3,0.8424376845,,,
30.6562500000,3,0.8483200073,,,
30.6718750000,3,0.7672348022,,,
30.6875000000,3,0.5496597290,,,
30.7031250000,3,0.1922606975,,,
30.7187500000,3,-0.2348708957,,,
30.7343750000,3,-0.5804367065,,,
30.7500000000,3,-0.7251052856,,,
30.7656250000,3,-0.6359786987,,,
30.7812500000,3,-0.4065552056,,,
30.7968750000,3,-0.2044754028,,,
30.8125000000,3,-0.1509017944,,,
30.8281250000,3,-0.2507857978,,,
30.8437500000,3,-0.3852385879,,,
30.8593750000,3,-0.3859634101,,,
30.8750000000,3,-0.1364212036,,,
30.8906250000,3,0.3227463067,,,
30.9062500000,3,0.8052825928,,,
30.9218750000,3,1.0785449743,,,
30.9375000000,3,0.9857100844,,,
30.9531250000,3,0.5528107285,,,
30.9687500000,3,-0.0232315101,,,
30.9843750000,3,-0.4819793999,,,
31.0000000000,3,-0.6371536255,,,
31.0156250000,3,-0.4666594863,,,
31.0312500000,3,-0.0919876099,,,
31.0468750000,3,0.3040618896,,,
31.0625000000,3,0.5901566148,,,
31.0781250000,3,0.7372742295,,,
31.0937500000,3,0.8020935059,,,
31.1093750000,3,0.8712844849,,,
31.1250000000,3,0.9848557115,,,
31.1406250000,3,1.1126940250,,,
31.1562500000,3,1.1789629459,,,
31.1718750000,3,1.1045910120,,,
31.1875000000,3,0.8559569716,,,
31.2031250000,3,0.4677276909,,,
31.2187500000,3,0.0202941895,,,
31.2343750000,3,-0.3807449043,,,
31.2500000000,3,-0.6596146226,,,
31.2656250000,3,-0.8004683852,,,
31.2812500000,3,-0.8229598999,,,
31.2968750000,3,-0.7767639160,,,
31.3125000000,3,-0.6938933730,,,
31.3281250000,3,-0.5819168091,,,
31.3437500000,3,-0.4354858100,,,
31.3593750000,3,-0.2863922119,,,
31.3750000000,3,-0.2242126018,,,
31.3906250000,3,-0.3563004136,,,
31.4062500000,3,-0.7329711914,,,
31.4218750000,3,-1.2487950325,,,
31.4375000000,3,-1.6708370447,,,
31.4531250000,3,-1.7339169979,,,
31.4687500000,3,-1.2998889685,,,
31.4843750000,3,-0.4524612129,,,
31.5000000000,3,0.5213698745,,,
31.5156250000,3,1.2704999447,,,
31.5312500000,3,1.5837099552,,,
31.5468750000,3,1.4510270357,,,
31.5625000000,3,1.0591579676,,,
31.5781250000,3,0.6320496202,,,
31.5937500000,3,0.3163375854,,,
31.6093750000,3,0.1219863966,,,
31.6250000000,3,-0.0056304932,,,
31.6406250000,3,-0.1193618998,,,
31.6562500000,3,-0.1906508952,,,
31.6718750000,3,-0.1448363960,,,
31.6875000000,3,0.0668869019,,,
31.7031250000,3,0.4030457139,,,
31.7187500000,3,0.7100449204,,,
31.7343750000,3,0.8085556030,,,
31.7500000000,3,0.5749893188,,,
31.7656250000,3,0.0041275020,,,
31.7812500000,3,-0.7743453979,,,
31.7968750000,3,-1.5379179716,,,
31.8125000000,3,-2.0645289421,,,
31.8281250000,3,-2.2159039974,,,
31.8437500000,3,-1.9644930363,,,
31.8593750000,3,-1.4155650139,,,
31.8750000000,3,-0.7560349107,,,
31.8906250000,3,-0.1736907959,,,
31.9062500000,3,0.1981811970,,,
31.9218750000,3,0.3273544014,,,
31.9375000000,3,0.2598342896,,,
31.9531250000,3,0.0905456468,,,
31.9687500000,3,-0.1275635064,,,
31.9843750000,3,-0.3831253052,,,
32.0000000000,4,-0.6735839844,,,
32.0156250000,4,-0.9705429077,,,
32.0312500000,4,-1.1835479736,,,
32.0468750000,4,-1.1932679415,,,
32.0625000000,4,-0.9332885742,,,
32.0781250000,4,-0.4583587945,,,
32.0937500000,4,0.0726470873,,,
32.1093750000,4,0.4499740899,,,
32.1250000000,4,0.5428696275,,,
32.1406250000,4,0.3418503106,,,
32.1562500000,4,-0.0270614605,,,
32.1718750000,4,-0.4017181098,,,
32.1875000000,4,-0.6769027710,,,
32.2031250000,4,-0.8314285278,,,
32.2187500000,4,-0.9099578857,,,
32.2343750000,4,-0.9466552734,,,
32.2500000000,4,-0.9322814941,,,
32.2656250000,4,-0.7820206285,,,
32.2812500000,4,-0.4027557075,,,
32.2968750000,4,0.2687225044,,,
32.3125000000,4,1.2102969885,,,
32.3281250000,4,2.2920989990,,,
32.3437500000,4,3.3118209839,,,
32.3593750000,4,4.0488429070,,,
32.3750000000,4,4.3433909416,,,
32.3906250000,4,4.1627039909,,,
32.4062500000,4,3.6328051090,,,
32.4218750000,4,2.9728240967,,,
32.4375000000,4,2.4102399349,,,
32.4531250000,4,2.1066589355,,,
32.4687500000,4,2.1056060791,,,
32.4843750000,4,2.3789520264,,,
32.5000000000,4,2.8618240356,,,
32.5156250000,4,3.4884641171,,,
32.5312500000,4,4.1498260498,,,
32.5468750000,4,4.7022018433,,,
32.5625000000,4,4.9432678223,,,
32.5781250000,4,4.6950840950,,,
32.5937500000,4,3.8940730095,,,
32.6093750000,4,2.6292650700,,,
32.6250000000,4,1.1330569983,,,
32.6406250000,4,-0.3268051147,,,
32.6562500000,4,-1.5413210392,,,
32.6718750000,4,-2.3940351009,,,
32.6875000000,4,-2.8512189388,,,
32.7031250000,4,-2.9358599186,,,
32.7187500000,4,-2.7012178898,,,
32.7343750000,4,-2.2391049862,,,
32.7500000000,4,-1.6899490356,,,
32.7656250000,4,-1.2099000216,,,
32.7812500000,4,-0.9372863770,,,
32.7968750000,4,-0.9254912734,,,
32.8125000000,4,-1.1344829798,,,
32.8281250000,4,-1.4544529915,,,
32.8437500000,4,-1.7649990320,,,
32.8593750000,4,-1.9716949463,,,
32.8750000000,4,-2.0307459831,,,
32.8906250000,4,-1.9716800451,,,
32.9062500000,4,1.7455979586,,,
32.9218750000,4,1.5105359554,,,
32.9375000000,4,1.3873519897,,,
32.9531250000,4,1.4432070255,,,
32.9687500000,4,1.7035139799,,,
32.9843750000,4,2.1172099113,,,
33.0000000000,4,2.5536270142,,,
33.0156250000,4,2.8326950073,,,
33.0312500000,4,2.8149569035,,,
33.0468750000,4,2.4732360840,,,
33.0625000000,4,1.9162600040,,,
33.0781250000,4,1.3375849724,,,
33.0937500000,4,0.9280548096,,,
33.1093750000,4,0.7915496826,,,
33.1250000000,4,0.8999938965,,,
33.1406250000,4,1.1154630184,,,
33.1562500000,4,1.2771220207,,,
33.1718750000,4,1.2825700045,,,
33.1875000000,4,1.1267470121,,,
33.2031250000,4,0.9243773818,,,
33.2187500000,4,0.8314285278,,,
33.2343750000,4,0.9612426758,,,
33.2500000000,4,1.3115459681,,,
33.2656250000,4,1.7408519983,,,
33.2812500000,4,2.0238111019,,,
33.2968750000,4,1.9783480167,,,
33.3125000000,4,1.5377960205,,,
33.3281250000,4,0.8182526231,,,
33.3437500000,4,0.0642547607,,,
33.3593750000,4,-0.4798659980,,,
33.3750000000,4,-0.6711121202,,,
33.3906250000,4,-0.5533295274,,,
33.4062500000,4,-0.2991104126,,,
33.4218750000,4,-0.1247635037,,,
33.4375000000,4,-0.1706466973,,,
33.4531250000,4,-0.4656218886,,,
33.4687500000,4,-0.9511948228,,,
33.4843750000,4,-1.5295790434,,,
33.5000000000,4,-2.0872800350,,,
33.5156250000,4,-2.4860920906,,,
33.5312500000,4,-2.5599060059,,,
33.5468750000,4,-2.1385500431,,,
33.5625000000,4,-1.1264649630,,,
33.5781250000,4,0.3953857124,,,
33.5937500000,4,2.1267399788,,,
33.6093750000,4,3.6348419189,,,
33.6250000000,4,4.5208439827,,,
33.6406250000,4,4.5915150642,,,
33.6562500000,4,3.9651410580,,,
33.6718750000,4,2.9969639778,,,
33.6875000000,4,2.0884249210,,,
33.7031250000,4,1.4934769869,,,
33.7187500000,4,1.2060619593,,,
33.7343750000,4,1.0388870239,,,
33.7500000000,4,0.7590866089,,,
33.7656250000,4,0.2642821968,,,
33.7812500000,4,-0.3687897027,,,
33.7968750000,4,-0.9397277832,,,
33.8125000000,4,-1.2849429846,,,
33.8281250000,4,-1.3581700325,,,
33.8437500000,4,-1.2576830387,,,
33.8593750000,4,-1.1332859993,,,
33.8750000000,4,-1.0780329704,,,
33.8906250000,4,-1.0754009485,,,
33.9062500000,4,-1.0088419914,,,
33.9218750000,4,-0.7816390991,,,
33.9375000000,4,-0.4017181098,,,
33.9531250000,4,-0.0019836430,,,
33.9687500000,4,0.2061080933,,,
33.9843750000,4,0.0522460900,,,
34.0000000000,4,-0.4988251030,,,
34.0156250000,4,-1.3122179508,,,
34.0312500000,4,-2.1473460197,,,
34.0468750000,4,-2.7876279354,,,
34.0625000000,4,-3.1162409782,,,
34.0781250000,4,-3.1688609123,,,
34.0937500000,4,-3.0660319328,,,
34.1093750000,4,-2.9285509586,,,
34.1250000000,4,-2.8161010742,,,
34.1406250000,4,-2.7327580452,,,
34.1562500000,4,-2.6356739998,,,
34.1718750000,4,-2.5050199032,,,
34.1875000000,4,-2.3644709587,,,
34.2031250000,4,-2.2587740421,,,
34.2187500000,4,-2.2371139526,,,
34.2343750000,4,-2.3158040047,,,
34.2500000000,4,-2.4991679192,,,
34.2656250000,4,-2.7930219173,,,
34.2812500000,4,-3.2094190121,,,
34.2968750000,4,-3.7315289974,,,
34.3125000000,4,-4.3117752075,,,
34.3281250000,4,-4.8142237663,,,
34.3437500000,4,-5.0499191284,,,
34.3593750000,4,-4.8259201050,,,
34.3750000000,4,-4.0224690437,,,
34.3906250000,4,-2.6165239811,,,
34.4062500000,4,-0.6954650879,,,
34.4218750000,4,1.5777440071,,,
34.4375000000,4,3.9627759457,,,
34.4531250000,4,6.1828989983,,,
34.4687500000,4,7.9508738518,,,
34.4843750000,4,9.0040283203,,,
34.5000000000,4,9.1788101196,,,
34.5156250000,4,8.4664764404,,,
34.5312500000,4,7.0655140877,,,
34.5468750000,4,5.3499531746,,,
34.5625000000,4,3.7594680786,,,
34.5781250000,4,2.6387329102,,,
34.5937500000,4,2.1029279232,,,
34.6093750000,4,2.0001070499,,,
34.6250000000,4,2.0106890202,,,
34.6406250000,4,1.8133239746,,,
34.6562500000,4,1.2693940401,,,
34.6718750000,4,0.4622650146,,,
34.6875000000,4,-0.3804320991,,,
34.7031250000,4,-1.0341869593,,,
34.7187500000,4,-1.3906170130,,,
34.7343750000,4,-1.4849619865,,,
34.7500000000,4,-1.4001239538,,,
34.7656250000,4,-1.1941759586,,,
34.7812500000,4,-0.8713837266,,,
34.7968750000,4,-0.4116058052,,,
34.8125000000,4,0.1221008003,,,
34.8281250000,4,0.5957031250,,,
34.8437500000,4,0.8462448120,,,
34.8593750000,4,0.7953720093,,,
34.8750000000,4,0.5018920898,,,
34.8906250000,4,0.1290207058,,,
34.9062500000,4,-0.1610870063,,,
34.9218750000,4,-0.2927550972,,,
34.9375000000,4,-0.3180237114,,,
34.9531250000,4,-0.3499068916,,,
34.9687500000,4,-0.4637604058,,,
34.9843750000,4,-0.6525650024,,,
35.0000000000,4,-0.8187561035,,,
35.0156250000,4,-0.8571854234,,,
35.0312500000,4,-0.7319641113,,,
35.0468750000,4,-0.5004348755,,,
35.0625000000,4,-0.2949447930,,,
35.0781250000,4,-0.2306824028,,,
35.0937500000,4,-0.3685989082,,,
35.1093750000,4,-0.6757659912,,,
35.1250000000,4,-1.0401610136,,,
35.1406250000,4,-1.3380579948,,,
35.1562500000,4,-1.4751509428,,,
35.1718750000,4,-1.4224779606,,,
35.1875000000,4,-1.1973340511,,,
35.2031250000,4,-0.8479995728,,,
35.2187500000,4,-0.4212799072,,,
35.2343750000,4,0.0214386005,,,
35.2500000000,4,0.4418869019,,,
35.2656250000,4,0.8168488145,,,
35.2812500000,4,1.1520839930,,,
35.2968750000,4,1.4785770178,,,
35.3125000000,4,1.8079379797,,,
35.3281250000,4,2.1194610596,,,
35.3437500000,4,2.3507308960,,,
35.3593750000,4,2.4208910465,,,
35.3750000000,4,2.2759859562,,,
35.3906250000,4,1.9276200533,,,
35.4062500000,4,1.4656519890,,,
35.4218750000,4,1.0077359676,,,
35.4375000000,4,0.6042938232,,,
35.4531250000,4,0.2097855061,,,
35.4687500000,4,-0.3061141968,,,
35.4843750000,4,-1.0703810453,,,
35.5000000000,4,-2.0877149105,,,
35.5156250000,4,-3.2072529793,,,
35.5312500000,4,-4.1475520134,,,
35.5468750000,4,-4.6304469109,,,
35.5625000000,4,-4.5199432373,,,
35.5781250000,4,-3.8814389706,,,
35.5937500000,4,-2.9641110897,,,
35.6093750000,4,-2.0980379581,,,
35.6250000000,4,-1.5391310453,,,
35.6406250000,4,-1.3896180391,,,
35.6562500000,4,-1.5881270170,,,
35.6718750000,4,-1.9797129631,,,
35.6875000000,4,-2.3989028931,,,
35.7031250000,4,-2.7634890079,,,
35.7187500000,4,-3.0501399040,,,
35.7343750000,4,-3.2607419491,,,
35.7500000000,4,-3.3699259758,,,
35.7656250000,4,-3.3324968815,,,
35.7812500000,4,-3.1240839958,,,
35.7968750000,4,-2.7814409733,,,
35.8125000000,4,-2.4284820557,,,
35.8281250000,4,-2.2226788998,,,
35.8437500000,4,-2.2688670158,,,
35.8593750000,4,-2.5253140926,,,
35.8750000000,4,-2.8079829216,,,
35.8906250000,4,-2.9044649601,,,
35.9062500000,4,-2.6894838810,,,
35.9218750000,4,-2.2181019783,,,
35.9375000000,4,-1.7020030022,,,
35.9531250000,4,-1.3774570227,,,
35.9687500000,4,-1.3588709831,,,
35.9843750000,4,-1.5641709566,,,
36.0000000000,4,-1.7692259550,,,
36.0156250000,4,-1.7502590418,,,
36.0312500000,4,-1.4141769409,,,
36.0468750000,4,-0.8409194946,,,
36.0625000000,4,-0.2100525051,,,
36.0781250000,4,0.3221512139,,,
36.0937500000,4,0.7301177979,,,
36.1093750000,4,1.1048280001,,,
36.1250000000,4,1.5813219547,,,
36.1406250000,4,2.2428820133,,,
36.1562500000,4,3.0350570679,,,
36.1718750000,4,3.7953031063,,,
36.1875000000,4,4.3475341797,,,
36.2031250000,4,4.5991129875,,,
36.2187500000,4,4.6118998528,,,
36.2343750000,4,4.5632481575,,,
36.2500000000,4,4.6627039909,,,
36.2656250000,4,5.0313868523,,,
36.2812500000,4,5.6217799187,,,
36.2968750000,4,6.2477869987,,,
36.3125000000,4,6.6888351440,,,
36.3281250000,4,6.8432540894,,,
36.3437500000,4,6.7609481812,,,
36.3593750000,4,6.6109848022,,,
36.3750000000,4,6.5604929924,,,
36.3906250000,4,6.6479110718,,,
36.4062500000,4,6.7684102058,,,
36.4218750000,4,6.7741551399,,,
36.4375000000,4,6.5773468018,,,
36.4531250000,4,6.2297520638,,,
36.4687500000,4,5.8669128418,,,
36.4843750000,4,5.5981669426,,,
36.5000000000,4,5.4098129272,,,
36.5156250000,4,5.1404500008,,,
36.5312500000,4,4.6016077995,,,
36.5468750000,4,3.6974639893,,,
36.5625000000,4,2.5100100040,,,
36.5781250000,4,1.2699509859,,,
36.5937500000,4,0.2515259087,,,
36.6093750000,4,-0.3681334853,,,
36.6250000000,4,-0.5998610854,,,
36.6406250000,4,-0.6177750230,,,
36.6562500000,4,-0.6807631850,,,
36.6718750000,4,-1.0029530525,,,
36.6875000000,4,-1.6744920015,,,
36.7031250000,4,-2.6053850651,,,
36.7187500000,4,-3.5828399658,,,
36.7343750000,4,-4.3591308594,,,
36.7500000000,4,-4.7578811646,,,
36.7656250000,4,-4.7523651123,,,
36.7812500000,4,-4.4474868774,,,
36.7968750000,4,-4.0213170052,,,
36.8125000000,4,-3.6429290771,,,
36.8281250000,4,-3.3822019100,,,
36.8437500000,4,-3.2193830013,,,
36.8593750000,4,-3.0887908936,,,
36.8750000000,4,-2.9349820614,,,
36.8906250000,4,-2.7625579834,,,
36.9062500000,4,-2.6335139275,,,
36.9218750000,4,-2.6154100895,,,
36.9375000000,4,-2.7421109676,,,
36.9531250000,4,-2.9649510384,,,
36.9687500000,4,-3.1722788811,,,
36.9843750000,4,-3.2366559505,,,
37.0000000000,4,-3.0895690918,,,
37.0156250000,4,-2.7892069817,,,
37.0312500000,4,-2.4889910221,,,
37.0468750000,4,-2.3612520695,,,
37.0625000000,4,-2.4968340397,,,
37.0781250000,4,-2.8238980770,,,
37.0937500000,4,-3.1525189877,,,
37.1093750000,4,-3.2564320564,,,
37.1250000000,4,-3.0015950203,,,
37.1406250000,4,-2.4279398918,,,
37.1562500000,4,-1.7305910587,,,
37.1718750000,4,-1.1701509953,,,
37.1875000000,4,-0.9627532959,,,
37.2031250000,4,-1.1529619694,,,
37.2187500000,4,-1.6280059814,,,
37.2343750000,4,-2.1676330566,,,
37.2500000000,4,-2.5502319336,,,
37.2656250000,4,-2.6540598869,,,
37.2812500000,4,-2.4540181160,,,
37.2968750000,4,-1.9932709932,,,
37.3125000000,4,-1.3323140144,,,
37.3281250000,4,-0.5125045776,,,
37.3437500000,4,0.4194335938,,,
37.3593750000,4,1.3682329655,,,
37.3750000000,4,2.1862790585,,,
37.3906250000,4,2.6956250668,,,
37.4062500000,4,2.7832949162,,,
37.4218750000,4,2.4599299431,,,
37.4375000000,4,1.8975980282,,,
37.4531250000,4,1.3698350191,,,
37.4687500000,4,1.0963590145,,,
37.4843750000,4,1.1839679480,,,
37.5000000000,4,1.5600889921,,,
37.5156250000,4,2.0437850952,,,
37.5312500000,4,2.4541699886,,,
37.5468750000,4,2.6718220711,,,
37.5625000000,4,2.6761250496,,,
37.5781250000,4,2.5164790154,,,
37.5937500000,4,2.2652211189,,,
37.6093750000,4,1.9801939726,,,
37.6250000000,4,1.7170939445,,,
37.6406250000,4,1.5000150204,,,
37.6562500000,4,1.3317179680,,,
37.6718750000,4,1.1934809685,,,
37.6875000000,4,1.0368419886,,,
37.7031250000,4,0.8172760010,,,
37.7187500000,4,0.5149918199,,,
37.7343750000,4,0.1481322944,,,
37.7500000000,4,-0.2296981961,,,
37.7656250000,4,-0.5490798950,,,
37.7812500000,4,-0.7575988770,,,
37.7968750000,4,-0.8626403809,,,
37.8125000000,4,-0.9192810059,,,
37.8281250000,4,-0.9758377075,,,
37.8437500000,4,-1.0596690178,,,
37.8593750000,4,-1.1506500244,,,
37.8750000000,4,-1.1843409538,,,
37.8906250000,4,-1.1093369722,,,
37.9062500000,4,-0.9171981812,,,
37.9218750000,4,-0.6725159287,,,
37.9375000000,4,-0.4544295967,,,
37.9531250000,4,-0.2984389961,,,
37.9687500000,4,-0.1906356961,,,
37.9843750000,4,-0.0416183509,,,
38.0000000000,4,0.2211761028,,,
38.0156250000,4,0.5831527710,,,
38.0312500000,4,0.9386749268,,,
38.0468750000,4,1.1255949736,,,
38.0625000000,4,1.0334700346,,,
38.0781250000,4,0.6732025146,,,
38.0937500000,4,0.2021255046,,,
38.1093750000,4,-0.1761627048,,,
38.1250000000,4,-0.2977676094,,,
38.1406250000,4,-0.1353988945,,,
38.1562500000,4,0.1964951009,,,
38.1718750000,4,0.5037230849,,,
38.1875000000,4,0.6086043715,,,
38.2031250000,4,0.4351043999,,,
38.2187500000,4,0.0528030396,,,
38.2343750000,4,-0.3642426133,,,
38.2500000000,4,-0.6310729980,,,
38.2656250000,4,-0.6148223877,,,
38.2812500000,4,-0.2972640991,,,
38.2968750000,4,0.2249373943,,,
38.3125000000,4,0.7944335938,,,
38.3281250000,4,1.2744749784,,,
38.3437500000,4,1.5832749605,,,
38.3593750000,4,1.6962510347,,,
38.3750000000,4,1.6282579899,,,
38.3906250000,4,1.3822250366,,,
38.4062500000,4,0.9732819200,,,
38.4218750000,4,0.4271697998,,,
38.4375000000,4,-0.1815720052,,,
38.4531250000,4,-0.7500305176,,,
38.4687500000,4,-1.1848750114,,,
38.4843750000,4,-1.4594420195,,,
38.5000000000,4,-1.6043399572,,,
38.5156250000,4,-1.6929700375,,,
38.5312500000,4,-1.7977290154,,,
38.5468750000,4,-1.9274220467,,,
38.5625000000,4,-2.0641100407,,,
38.5781250000,4,-2.1771008968,,,
38.5937500000,4,-2.2703480721,,,
38.6093750000,4,-2.3920669556,,,
38.6250000000,4,-2.5844419003,,,
38.6406250000,4,-2.8531188965,,,
38.6562500000,4,-3.1266479492,,,
38.6718750000,4,-3.3012850285,,,
38.6875000000,4,-3.2961580753,,,
38.7031250000,4,-3.1135709286,,,
38.7187500000,4,-2.8412020206,,,
38.7343750000,4,-2.5914309025,,,
38.7500000000,4,-2.4242548943,,,
38.7656250000,4,-2.3038179874,,,
38.7812500000,4,-2.1203770638,,,
38.7968750000,4,-1.7833100557,,,
38.8125000000,4,-1.3136290312,,,
38.8281250000,4,-0.8291702271,,,
38.8437500000,4,-0.5091400146,,,
38.8593750000,4,-0.4386748970,,,
38.8750000000,4,-0.5402985215,,,
38.8906250000,4,-0.6067885756,,,
38.9062500000,4,-0.4237061143,,,
38.9218750000,4,0.0895309374,,,
38.9375000000,4,0.8127899170,,,
38.9531250000,4,1.5066679716,,,
38.9687500000,4,1.9786150455,,,
38.9843750000,4,2.1698460579,,,
39.0000000000,4,2.1979598999,,,
39.0156250000,4,2.2305979729,,,
39.0312500000,4,2.3412859440,,,
39.0468750000,4,2.4894490242,,,
39.0625000000,4,2.5575790405,,,
39.0781250000,4,2.4787518978,,,
39.0937500000,4,2.3055191040,,,
39.1093750000,4,2.1584239006,,,
39.1250000000,4,2.1222229004,,,
39.1406250000,4,2.1744310856,,,
39.1562500000,4,2.1896359921,,,
39.1718750000,4,2.0472950935,,,
39.1875000000,4,1.7228319645,,,
39.2031250000,4,1.3246690035,,,
39.2187500000,4,1.0335079432,,,
39.2343750000,4,0.9703903198,,,
39.2500000000,4,1.1479109526,,,
39.2656250000,4,1.4649200439,,,
39.2812500000,4,1.7963709831,,,
39.2968750000,4,2.0711140633,,,
39.3125000000,4,2.2996220589,,,
39.3281250000,4,2.5689771175,,,
39.3437500000,4,2.9620211124,,,
39.3593750000,4,3.5255429745,,,
39.3750000000,4,4.2299962044,,,
39.3906250000,4,4.9683609009,,,
39.4062500000,4,5.5503687859,,,
39.4218750000,4,5.7734217644,,,
39.4375000000,4,5.4578700066,,,
39.4531250000,4,4.5486831665,,,
39.4687500000,4,3.1689760685,,,
39.4843750000,4,1.5748519897,,,
39.5000000000,4,0.0755691528,,,
39.5156250000,4,-1.0685420036,,,
39.5312500000,4,-1.7581479549,,,
39.5468750000,4,-2.0298609734,,,
39.5625000000,4,-2.0283200741,,,
39.5781250000,4,-1.9400249720,,,
39.5937500000,4,-1.9044270515,,,
39.6093750000,4,-1.9847639799,,,
39.6250000000,4,-2.1701350212,,,
39.6406250000,4,-2.3702158928,,,
39.6562500000,4,-2.4740450382,,,
39.6718750000,4,-2.3940510750,,,
39.6875000000,4,-2.1127779484,,,
39.7031250000,4,-1.7273030281,,,
39.7187500000,4,-1.4009779692,,,
39.7343750000,4,-1.3122179508,,,
39.7500000000,4,-1.5494379997,,,
39.7656250000,4,-2.0676500797,,,
39.7812500000,4,-2.7034299374,,,
39.7968750000,4,-3.2418589592,,,
39.8125000000,4,-3.5053329468,,,
39.8281250000,4,-3.4230799675,,,
39.8437500000,4,-3.0425109863,,,
39.8593750000,4,-2.4700388908,,,
39.8750000000,4,-1.8254699707,,,
39.8906250000,4,-1.2061159611,,,
39.9062500000,4,-0.7059326172,,,
39.9218750000,4,-0.4043579102,,,
39.9375000000,4,-0.3798752129,,,
39.9531250000,4,-0.6628798842,,,
39.9687500000,4,-1.6112060547,,,
39.9843750000,4,-1.8132100105,,,
40.0000000000,5,-1.6987609863,,,
40.0156250000,5,-1.4594349861,,,
40.0312500000,5,-1.3123860359,,,
40.0468750000,5,-1.3962019682,,,
40.0625000000,5,-1.6881480217,,,
40.0781250000,5,-2.0367970467,,,
40.0937500000,5,-2.2539830208,,,
40.1093750000,5,-2.2321090698,,,
40.1250000000,5,-1.9826810360,,,
40.1406250000,5,-1.6100080013,,,
40.1562500000,5,-1.2481460571,,,
40.1718750000,5,-0.9798583984,,,
40.1875000000,5,-0.8187332153,,,
40.2031250000,5,-0.7235260010,,,
40.2187500000,5,-0.6435012817,,,
40.2343750000,5,-0.5440673828,,,
40.2500000000,5,-0.4302443862,,,
40.2656250000,5,-0.3424530029,,,
40.2812500000,5,-0.3350067139,,,
40.2968750000,5,-0.4359206855,,,
40.3125000000,5,-0.6140059829,,,
40.3281250000,5,-0.7848433852,,,
40.3437500000,5,-0.8526306152,,,
40.3593750000,5,-0.7692412734,,,
40.3750000000,5,-0.5752716064,,,
40.3906250000,5,-0.3747634888,,,
40.4062500000,5,-0.2859115899,,,
40.4218750000,5,-0.3432998955,,,
40.4375000000,5,-0.4984206855,,,
40.4531250000,5,-0.6236876845,,,
40.4687500000,5,-0.6048049927,,,
40.4843750000,5,-0.3899689019,,,
40.5000000000,5,-0.0148010300,,,
40.5156250000,5,0.4284820855,,,
40.5312500000,5,0.8588790894,,,
40.5468750000,5,1.2113800049,,,
40.5625000000,5,1.4557189941,,,
40.5781250000,5,1.5660250187,,,
40.5937500000,5,1.5163190365,,,
40.6093750000,5,1.2881770134,,,
40.6250000000,5,0.8950728774,,,
40.6406250000,5,0.3913803101,,,
40.6562500000,5,-0.1291656047,,,
40.6718750000,5,-0.5749130249,,,
40.6875000000,5,-0.8919144273,,,
40.7031250000,5,-1.0670620203,,,
40.7187500000,5,-1.1286540031,,,
40.7343750000,5,-1.1159590483,,,
40.7500000000,5,-1.0489269495,,,
40.7656250000,5,-0.9183043838,,,
40.7812500000,5,-0.7124176025,,,
40.7968750000,5,-0.4452208877,,,
40.8125000000,5,-0.1564635932,,,
40.8281250000,5,0.0774078369,,,
40.8437500000,5,0.1840362996,,,
40.8593750000,5,0.1175156012,,,
40.8750000000,5,-0.1160582975,,,
40.8906250000,5,-0.4753952026,,,
40.9062500000,5,-0.9064940810,,,
40.9218750000,5,-1.3607029915,,,
40.9375000000,5,-1.8075100183,,,
40.9531250000,5,-2.2271800041,,,
40.9687500000,5,-2.5857539177,,,
40.9843750000,5,-2.8493039608,,,
41.0000000000,5,-2.9823529720,,,
41.0156250000,5,-2.9809720516,,,
41.0312500000,5,-2.8427350521,,,
41.0468750000,5,-2.5674510002,,,
41.0625000000,5,-2.1557309628,,,
41.0781250000,5,-1.5928499699,,,
41.0937500000,5,-0.8752213120,,,
41.1093750000,5,-0.0315322913,,,
41.1250000000,5,0.9024658203,,,
41.1406250000,5,1.8585209846,,,
41.1562500000,5,2.7517399788,,,
41.1718750000,5,3.4965128899,,,
41.1875000000,5,3.9853439331,,,
41.2031250000,5,4.1320037842,,,
41.2187500000,5,3.9122540951,,,
41.2343750000,5,3.4036939144,,,
41.2500000000,5,2.7709429264,,,
41.2656250000,5,2.2172930241,,,
41.2812500000,5,1.8986430168,,,
41.2968750000,5,1.8401030302,,,
41.3125000000,5,1.9455410242,,,
41.3281250000,5,2.0662689209,,,
41.3437500000,5,2.0714719296,,,
41.3593750000,5,1.9155429602,,,
41.3750000000,5,1.6294020414,,,
41.3906250000,5,1.2731399536,,,
41.4062500000,5,0.8957595825,,,
41.4218750000,5,0.5344390869,,,
41.4375000000,5,0.2158813030,,,
41.4531250000,5,-0.0421829186,,,
41.4687500000,5,-0.2022857964,,,
41.4843750000,5,-0.2530517876,,,
41.5000000000,5,-0.2019806057,,,
41.5156250000,5,-0.0873336792,,,
41.5312500000,5,0.0495529212,,,
41.5468750000,5,0.1820601970,,,
41.5625000000,5,0.2708969116,,,
41.5781250000,5,0.2892302871,,,
41.5937500000,5,0.2059936970,,,
41.6093750000,5,-0.0179595891,,,
41.6250000000,5,-0.3629989922,,,
41.6406250000,5,-0.7725142837,,,
41.6562500000,5,-1.1732250452,,,
41.6718750000,5,-1.4951479435,,,
41.6875000000,5,-1.7188110352,,,
41.7031250000,5,-1.8665080070,,,
41.7187500000,5,-1.9620289803,,,
41.7343750000,5,-2.0026929379,,,
41.7500000000,5,-1.9382100105,,,
41.7656250000,5,-1.7380290031,,,
41.7812500000,5,-1.3942029476,,,
41.7968750000,5,-0.9344635010,,,
41.8125000000,5,-0.4176788032,,,
41.8281250000,5,0.1083374023,,,
41.8437500000,5,0.5930786133,,,
41.8593750000,5,0.9945601821,,,
41.8750000000,5,1.2638239861,,,
41.8906250000,5,1.3437730074,,,
41.9062500000,5,1.2154309750,,,
41.9218750000,5,0.9288864136,,,
41.9375000000,5,0.5951157212,,,
41.9531250000,5,0.3438644111,,,
41.9687500000,5,0.2650681138,,,
41.9843750000,5,0.3635863960,,,
42.0000000000,5,0.5720673203,,,
42.0156250000,5,0.7774810791,,,
42.0312500000,5,0.8986968994,,,
42.0468750000,5,0.9031372070,,,
42.0625000000,5,0.7973175049,,,
42.0781250000,5,0.6057128906,,,
42.0937500000,5,0.3549042046,,,
42.1093750000,5,0.0676956177,,,
42.1250000000,5,-0.2241515964,,,
42.1406250000,5,-0.4819335938,,,
42.1562500000,5,-0.6890029907,,,
42.1718750000,5,-0.8287734985,,,
42.1875000000,5,-0.9039763808,,,
42.2031250000,5,-0.9036102295,,,
42.2187500000,5,-0.8189926147,,,
42.2343750000,5,-0.6491240859,,,
42.2500000000,5,-0.4066238105,,,
42.2656250000,5,-0.1454086006,,,
42.2812500000,5,0.0651779175,,,
42.2968750000,5,0.1830215007,,,
42.3125000000,5,0.2077102959,,,
42.3281250000,5,0.1730881035,,,
42.3437500000,5,0.1100158989,,,
42.3593750000,5,0.0128097497,,,
42.3750000000,5,-0.1476211995,,,
42.3906250000,5,-0.4010696113,,,
42.4062500000,5,-0.7252883911,,,
42.4218750000,5,-1.0153119564,,,
42.4375000000,5,-1.1382600069,,,
42.4531250000,5,-0.9866333008,,,
42.4687500000,5,-0.5664063096,,,
42.4843750000,5,0.0062789922,,,
42.5000000000,5,0.5531768799,,,
42.5156250000,5,0.9229506850,,,
42.5312500000,5,1.0489649773,,,
42.5468750000,5,0.9803771973,,,
42.5625000000,5,0.8304901123,,,
42.5781250000,5,0.6936035156,,,
42.5937500000,5,0.6105347276,,,
42.6093750000,5,0.5697020888,,,
42.6250000000,5,0.5266724229,,,
42.6406250000,5,0.4666594863,,,
42.6562500000,5,0.4107894897,,,
42.6718750000,5,0.3907546997,,,
42.6875000000,5,0.4218978882,,,
42.7031250000,5,0.4824295044,,,
42.7187500000,5,0.5204849243,,,
42.7343750000,5,0.4963988960,,,
42.7500000000,5,0.4143829048,,,
42.7656250000,5,0.3125304878,,,
42.7812500000,5,0.2480164021,,,
42.7968750000,5,0.2558135986,,,
42.8125000000,5,0.3448410034,,,
42.8281250000,5,0.4929276109,,,
42.8437500000,5,0.6677703857,,,
42.8593750000,5,0.8285828233,,,
42.8750000000,5,0.9374846816,,,
42.8906250000,5,0.9669647217,,,
42.9062500000,5,0.9123458862,,,
42.9218750000,5,0.8033676147,,,
42.9375000000,5,0.6760253906,,,
42.9531250000,5,0.5480651855,,,
42.9687500000,5,0.3825072944,,,
42.9843750000,5,0.1194152981,,,
43.0000000000,5,-0.2919616997,,,
43.0156250000,5,-0.8093643188,,,
43.0312500000,5,-1.3130650520,,,
43.0468750000,5,-1.6404650211,,,
43.0625000000,5,-1.6903690100,,,
43.0781250000,5,-1.5098949671,,,
43.0937500000,5,-1.2484589815,,,
43.1093750000,5,-1.0712970495,,,
43.1250000000,5,-1.0402369499,,,
43.1406250000,5,-1.0757830143,,,
43.1562500000,5,-1.0214610100,,,
43.1718750000,5,-0.7890930176,,,
43.1875000000,5,-0.4104613960,,,
43.2031250000,5,-0.0336303711,,,
43.2187500000,5,0.1888504028,,,
43.2343750000,5,0.2113876045,,,
43.2500000000,5,0.1134032980,,,
43.2656250000,5,0.0066070561,,,
43.2812500000,5,-0.0408782996,,,
43.2968750000,5,-0.0574874915,,,
43.3125000000,5,-0.1042328030,,,
43.3281250000,5,-0.1999358982,,,
43.3437500000,5,-0.2686843872,,,
43.3593750000,5,-0.2175827026,,,
43.3750000000,5,-0.0065994258,,,
43.3906250000,5,0.2790527046,,,
43.4062500000,5,0.4823150933,,,
43.4218750000,5,0.4871749878,,,
43.4375000000,5,0.3109664917,,,
43.4531250000,5,0.0860137865,,,
43.4687500000,5,-0.0420227088,,,
43.4843750000,5,-0.0126266498,,,
43.5000000000,5,0.0844726637,,,
43.5156250000,5,0.0961380005,,,
43.5312500000,5,-0.0762023926,,,
43.5468750000,5,-0.3765411079,,,
43.5625000000,5,-0.6262207031,,,
43.5781250000,5,-0.6346359253,,,
43.5937500000,5,-0.3230057061,,,
43.6093750000,5,0.2121735066,,,
43.6250000000,5,0.7631072998,,,
43.6406250000,5,1.1279369593,,,
43.6562500000,5,1.2333370447,,,
43.6718750000,5,1.1451029778,,,
43.6875000000,5,1.0078279972,,,
43.7031250000,5,0.9358214736,,,
43.7187500000,5,0.9488906860,,,
43.7343750000,5,0.9743958116,,,
43.7500000000,5,0.9151306152,,,
43.7656250000,5,0.7054672241,,,
43.7812500000,5,0.3788299859,,,
43.7968750000,5,0.0274963398,,,
43.8125000000,5,-0.2391663045,,,
43.8281250000,5,-0.3715896904,,,
43.8437500000,5,-0.3861618042,,,
43.8593750000,5,-0.3447417915,,,
43.8750000000,5,-0.3200759888,,,
43.8906250000,5,-0.3329162896,,,
43.9062500000,5,-0.3616867065,,,
43.9218750000,5,-0.3593674004,,,
43.9375000000,5,-0.2844848931,,,
43.9531250000,5,-0.1560287029,,,
43.9687500000,5,-0.0426635705,,,
43.9843750000,5,-0.0169982892,,,
44.0000000000,5,-0.1194458008,,,
44.0156250000,5,-0.3185349107,,,
44.0312500000,5,-0.5339050293,,,
44.0468750000,5,-0.6679000854,,,
44.0625000000,5,-0.6640625000,,,
44.0781250000,5,-0.5280609131,,,
44.0937500000,5,-0.3169707954,,,
44.1093750000,5,-0.0933685303,,,
44.1250000000,5,0.0985488892,,,
44.1406250000,5,0.2472839057,,,
44.1562500000,5,0.3555450141,,,
44.1718750000,5,0.4068068862,,,
44.1875000000,5,0.3584899902,,,
44.2031250000,5,0.1687469035,,,
44.2187500000,5,-0.1689223945,,,
44.2343750000,5,-0.5845183730,,,
44.2500000000,5,-0.9546508789,,,
44.2656250000,5,-1.1649479866,,,
44.2812500000,5,-1.1386179924,,,
44.2968750000,5,-0.9025725722,,,
44.3125000000,5,-0.5521163940,,,
44.3281250000,5,-0.2234268039,,,
44.3437500000,5,-0.0241851807,,,
44.3593750000,5,0.0009460449,,,
44.3750000000,5,-0.1326981038,,,
44.3906250000,5,-0.3621979058,,,
44.4062500000,5,-0.6130676270,,,
44.4218750000,5,-0.8239365220,,,
44.4375000000,5,-0.9584732056,,,
44.4531250000,5,-0.9936141968,,,
44.4687500000,5,-0.9220352173,,,
44.4843750000,5,-0.7376480103,,,
44.5000000000,5,-0.4551315010,,,
44.5156250000,5,-0.0961837769,,,
44.5312500000,5,0.3045197129,,,
44.5468750000,5,0.7045211792,,,
44.5625000000,5,1.0592039824,,,
44.5781250000,5,1.3120570183,,,
44.5937500000,5,1.4084399939,,,
44.6093750000,5,1.3379520178,,,
44.6250000000,5,1.1264419556,,,
44.6406250000,5,0.8500061035,,,
44.6562500000,5,0.6034926772,,,
44.6718750000,5,0.4611816108,,,
44.6875000000,5,0.4283218086,,,
44.7031250000,5,0.4641495049,,,
44.7187500000,5,0.4945602119,,,
44.7343750000,5,0.4802703857,,,
44.7500000000,5,0.4317398071,,,
44.7656250000,5,0.3923416138,,,
44.7812500000,5,0.4127883911,,,
44.7968750000,5,0.4883804023,,,
44.8125000000,5,0.5799942017,,,
44.8281250000,5,0.6162490845,,,
44.8437500000,5,0.5612183213,,,
44.8593750000,5,0.4207687080,,,
44.8750000000,5,0.2524872124,,,
44.8906250000,5,0.1176986992,,,
44.9062500000,5,0.0593872108,,,
44.9218750000,5,0.0958328173,,,
44.9375000000,5,0.2084427029,,,
44.9531250000,5,0.3736115098,,,
44.9687500000,5,0.5428696275,,,
44.9843750000,5,0.6545029283,,,
45.0000000000,5,0.6370391846,,,
45.0156250000,5,0.4371719062,,,
45.0312500000,5,0.0424728394,,,
45.0468750000,5,-0.4996947944,,,
45.0625000000,5,-1.0796660185,,,
45.0781250000,5,-1.5874099731,,,
45.0937500000,5,-1.9259949923,,,
45.1093750000,5,-2.0321431160,,,
45.1250000000,5,-1.8934019804,,,
45.1406250000,5,-1.5187300444,,,
45.1562500000,5,-0.9635543823,,,
45.1718750000,5,-0.3126983941,,,
45.1875000000,5,0.3015593886,,,
45.2031250000,5,0.7493438721,,,
45.2187500000,5,0.9364166260,,,
45.2343750000,5,0.8519896865,,,
45.2500000000,5,0.5769882202,,,
45.2656250000,5,0.2448807061,,,
45.2812500000,5,-0.0184402503,,,
45.2968750000,5,-0.1308670044,,,
45.3125000000,5,-0.0800247192,,,
45.3281250000,5,0.1057891995,,,
45.3437500000,5,0.3920364082,,,
45.3593750000,5,0.7441024780,,,
45.3750000000,5,1.1224980354,,,
45.3906250000,5,1.4457169771,,,
45.4062500000,5,1.5923769474,,,
45.4218750000,5,1.4482569695,,,
45.4375000000,5,0.9690856934,,,
45.4531250000,5,0.2188872993,,,
45.4687500000,5,-0.6371154785,,,
45.4843750000,5,-1.3984529972,,,
45.5000000000,5,-1.9013899565,,,
45.5156250000,5,-2.0558700562,,,
45.5312500000,5,-1.8644100428,,,
45.5468750000,5,-1.3985600471,,,
45.5625000000,5,-0.7746964097,,,
45.5781250000,5,-0.1328354031,,,
45.5937500000,5,0.4039154053,,,
45.6093750000,5,0.7611771226,,,
45.6250000000,5,0.9353333116,,,
45.6406250000,5,0.9939116836,,,
45.6562500000,5,1.0244979858,,,
45.6718750000,5,1.0976409912,,,
45.6875000000,5,1.2285310030,,,
45.7031250000,5,1.3618320227,,,
45.7187500000,5,1.4184650183,,,
45.7343750000,5,1.3320850134,,,
45.7500000000,5,1.0862879753,,,
45.7656250000,5,0.7197800279,,,
45.7812500000,5,0.2916030884,,,
45.7968750000,5,-0.1093596965,,,
45.8125000000,5,-0.4019469917,,,
45.8281250000,5,-0.5224990845,,,
45.8437500000,5,-0.4472655952,,,
45.8593750000,5,-0.2324371040,,,
45.8750000000,5,0.0012359620,,,
45.8906250000,5,0.1229629964,,,
45.9062500000,5,0.0549926795,,,
45.9218750000,5,-0.1860045940,,,
45.9375000000,5,-0.4827117920,,,
45.9531250000,5,-0.7206345201,,,
45.9687500000,5,-0.8348159790,,,
45.9843750000,5,-0.8529434204,,,
46.0000000000,5,-0.8447495103,,,
46.0156250000,5,-0.8608626723,,,
46.0312500000,5,-0.8823853135,,,
46.0468750000,5,-0.8316268921,,,
46.0625000000,5,-0.6370239258,,,
46.0781250000,5,-0.2956084907,,,
46.0937500000,5,0.0924224928,,,
46.1093750000,5,0.3730773926,,,
46.1250000000,5,0.4109725952,,,
46.1406250000,5,0.1640700996,,,
46.1562500000,5,-0.2984085083,,,
46.1718750000,5,-0.8115767837,,,
46.1875000000,5,-1.1777340174,,,
46.2031250000,5,-1.2592090368,,,
46.2187500000,5,-1.0274280310,,,
46.2343750000,5,-0.5822067261,,,
46.2500000000,5,-0.0978393629,,,
46.2656250000,5,0.2486649007,,,
46.2812500000,5,0.3543015122,,,
46.2968750000,5,0.2433014065,,,
46.3125000000,5,0.0384521484,,,
46.3281250000,5,-0.0949478075,,,
46.3437500000,5,-0.0449142493,,,
46.3593750000,5,0.1967010051,,,
46.3750000000,5,0.5271834731,,,
46.3906250000,5,0.8189774156,,,
46.4062500000,5,0.9833527207,,,
46.4218750000,5,1.0210109949,,,
46.4375000000,5,0.9995269775,,,
46.4531250000,5,0.9928740859,,,
46.4687500000,5,1.0309979916,,,
46.4843750000,5,1.0591050386,,,
46.5000000000,5,1.0040440559,,,
46.5156250000,5,0.8067092896,,,
46.5312500000,5,0.4769744873,,,
46.5468750000,5,0.0742950365,,,
46.5625000000,5,-0.2988434136,,,
46.5781250000,5,-0.5680007935,,,
46.5937500000,5,-0.6975708008,,,
46.6093750000,5,-0.6919022202,,,
46.6250000000,5,-0.5780715942,,,
46.6406250000,5,-0.3732070923,,,
46.6562500000,5,-0.1142349020,,,
46.6718750000,5,0.1594772041,,,
46.6875000000,5,0.3799437881,,,
46.7031250000,5,0.4867934883,,,
46.7187500000,5,0.4472961128,,,
46.7343750000,5,0.2792586982,,,
46.7500000000,5,0.0591125488,,,
46.7656250000,5,-0.1298446953,,,
46.7812500000,5,-0.2188034058,,,
46.7968750000,5,-0.1890030056,,,
46.8125000000,5,-0.0907287598,,,
46.8281250000,5,-0.0259475708,,,
46.8437500000,5,-0.0967178270,,,
46.8593750000,5,-0.3721694946,,,
46.8750000000,5,-0.8246384263,,,
46.8906250000,5,-1.3270260096,,,
46.9062500000,5,-1.7106089592,,,
46.9218750000,5,-1.8099210262,,,
46.9375000000,5,-1.5760649443,,,
46.9531250000,5,-1.0991129875,,,
46.9687500000,5,-0.5676116943,,,
46.9843750000,5,-0.1839676052,,,
47.0000000000,5,-0.0875930786,,,
47.0156250000,5,-0.2762984931,,,
47.0312500000,5,-0.6258469224,,,
47.0468750000,5,1.1973340511,,,
47.0625000000,5,0.7952805161,,,
47.0781250000,5,0.3047333062,,,
47.0937500000,5,-0.2544173896,,,
47.1093750000,5,-0.8020629883,,,
47.1250000000,5,-1.2392430305,,,
47.1406250000,5,-1.4772640467,,,
47.1562500000,5,-1.4855799675,,,
47.1718750000,5,-1.3026659489,,,
47.1875000000,5,-1.0124510527,,,
47.2031250000,5,-0.6846923828,,,
47.2187500000,5,-0.3703841865,,,
47.2343750000,5,-0.1188812032,,,
47.2500000000,5,0.0405044593,,,
47.2656250000,5,0.0558395386,,,
47.2812500000,5,-0.0837783813,,,
47.2968750000,5,-0.3325653076,,,
47.3125000000,5,-0.5774765015,,,
47.3281250000,5,-0.6751785278,,,
47.3437500000,5,-0.5272216797,,,
47.3593750000,5,-0.1479797065,,,
47.3750000000,5,0.3315886855,,,
47.3906250000,5,0.7315291762,,,
47.4062500000,5,0.8936309814,,,
47.4218750000,5,0.7404937744,,,
47.4375000000,5,0.3003844917,,,
47.4531250000,5,-0.3051452935,,,
47.4687500000,5,-0.9228591919,,,
47.4843750000,5,-1.4119640589,,,
47.5000000000,5,-1.6392060518,,,
47.5156250000,5,-1.5253070593,,,
47.5312500000,5,-1.0583189726,,,
47.5468750000,5,-0.3152695000,,,
47.5625000000,5,0.5506209731,,,
47.5781250000,5,1.3231810331,,,
47.5937500000,5,1.8026200533,,,
47.6093750000,5,1.8651809692,,,
47.6250000000,5,1.5110019445,,,
47.6406250000,5,0.8544387817,,,
47.6562500000,5,0.0754470825,,,
47.6718750000,5,-0.6210250854,,,
47.6875000000,5,-1.0797879696,,,
47.7031250000,5,-1.2257230282,,,
47.7187500000,5,-1.0702359676,,,
47.7343750000,5,-0.6998291016,,,
47.7500000000,5,-0.2206192017,,,
47.7656250000,5,0.2595520020,,,
47.7812500000,5,0.6589127183,,,
47.7968750000,5,0.9148560166,,,
47.8125000000,5,0.9622879028,,,
47.8281250000,5,0.7562484741,,,
47.8437500000,5,0.3116607964,,,
47.8593750000,5,-0.2526398003,,,
47.8750000000,5,-0.7463837266,,,
47.8906250000,5,-0.9710006714,,,
47.9062500000,5,-0.8113632202,,,
47.9218750000,5,-0.3109130859,,,
47.9375000000,5,0.3254317939,,,
47.9531250000,5,0.8577651978,,,
47.9687500000,5,1.1215820313,,,
47.9843750000,5,1.0948940516,,,
48.0000000000,6,0.8795928955,,,
48.0156250000,6,0.6334381104,,,
48.0312500000,6,0.4504317939,,,
48.0468750000,6,0.3332672119,,,
48.0625000000,6,0.2288970947,,,
48.0781250000,6,0.0914382935,,,
48.0937500000,6,-0.0673370436,,,
48.1093750000,6,-0.1837006062,,,
48.1250000000,6,-0.1871871948,,,
48.1406250000,6,-0.0639190674,,,
48.1562500000,6,0.1227264032,,,
48.1718750000,6,0.2776412964,,,
48.1875000000,6,0.3215484917,,,
48.2031250000,6,0.2356490940,,,
48.2187500000,6,0.0520858802,,,
48.2343750000,6,-0.1611938030,,,
48.2500000000,6,-0.3475112915,,,
48.2656250000,6,-0.4758453071,,,
48.2812500000,6,-0.5453948975,,,
48.2968750000,6,-0.5619277954,,,
48.3125000000,6,-0.5229340196,,,
48.3281250000,6,-0.4344863892,,,
48.3437500000,6,-0.3195953071,,,
48.3593750000,6,-0.2238845974,,,
48.3750000000,6,-0.2006988972,,,
48.3906250000,6,-0.2706756890,,,
48.4062500000,6,-0.4086838067,,,
48.4218750000,6,-0.5372009277,,,
48.4375000000,6,-0.5850067139,,,
48.4531250000,6,-0.5415648818,,,
48.4687500000,6,-0.4533157051,,,
48.4843750000,6,-0.4030838013,,,
48.5000000000,6,-0.4422531128,,,
48.5156250000,6,-0.5397263169,,,
48.5312500000,6,-0.6025847793,,,
48.5468750000,6,-0.5206298828,,,
48.5625000000,6,-0.2443466038,,,
48.5781250000,6,0.1791763008,,,
48.5937500000,6,0.6093673706,,,
48.6093750000,6,0.8882141113,,,
48.6250000000,6,0.9238433838,,,
48.6406250000,6,0.7570952773,,,
48.6562500000,6,0.5289382935,,,
48.6718750000,6,0.3895950019,,,
48.6875000000,6,0.4112549126,,,
48.7031250000,6,0.5535355210,,,
48.7187500000,6,0.7021942139,,,
48.7343750000,6,0.7501754761,,,
48.7500000000,6,0.6643524170,,,
48.7656250000,6,0.5082169175,,,
48.7812500000,6,0.3983153999,,,
48.7968750000,6,0.4102782905,,,
48.8125000000,6,0.5482941270,,,
48.8281250000,6,0.7187194824,,,
48.8437500000,6,0.8028945923,,,
48.8593750000,6,0.7111740112,,,
48.8750000000,6,0.4294052124,,,
48.8906250000,6,0.0243682899,,,
48.9062500000,6,-0.4171448052,,,
48.9218750000,6,-0.7980422974,,,
48.9375000000,6,-1.0496829748,,,
48.9531250000,6,-1.1447750330,,,
48.9687500000,6,-1.0923160315,,,
48.9843750000,6,-0.9606246948,,,
49.0000000000,6,-0.8405761719,,,
49.0156250000,6,-0.8028411865,,,
49.0312500000,6,-0.8473433852,,,
49.0468750000,6,-0.9076309204,,,
49.0625000000,6,-0.8916550279,,,
49.0781250000,6,-0.7585372925,,,
49.0937500000,6,-0.5447463989,,,
49.1093750000,6,-0.3444365859,,,
49.1250000000,6,-0.2596358955,,,
49.1406250000,6,-0.3134154975,,,
49.1562500000,6,-0.4389572144,,,
49.1718750000,6,-0.5138320923,,,
49.1875000000,6,-0.4474869072,,,
49.2031250000,6,-0.2522430122,,,
49.2187500000,6,-0.0593490601,,,
49.2343750000,6,-0.0324249305,,,
49.2500000000,6,-0.2865676880,,,
49.2656250000,6,-0.7791519165,,,
49.2812500000,6,-1.3207780123,,,
49.2968750000,6,-1.6698679924,,,
49.3125000000,6,-1.6285170317,,,
49.3281250000,6,-1.1737439632,,,
49.3437500000,6,-0.4422073066,,,
49.3593750000,6,0.3095397949,,,
49.3750000000,6,0.8416213989,,,
49.3906250000,6,1.0492249727,,,
49.4062500000,6,0.9894332886,,,
49.4218750000,6,0.8268433213,,,
49.4375000000,6,0.7377089858,,,
49.4531250000,6,0.8012009263,,,
49.4687500000,6,0.9945983887,,,
49.4843750000,6,1.2306590080,,,
49.5000000000,6,1.4225690365,,,
49.5156250000,6,1.5157239437,,,
49.5312500000,6,1.5136799812,,,
49.5468750000,6,1.4293290377,,,
49.5625000000,6,1.2822489738,,,
49.5781250000,6,1.1005400419,,,
49.5937500000,6,0.9030609131,,,
49.6093750000,6,0.7044296265,,,
49.6250000000,6,0.5021057129,,,
49.6406250000,6,0.2908554077,,,
49.6562500000,6,0.0685806274,,,
49.6718750000,6,-0.1344299018,,,
49.6875000000,6,-0.2598418891,,,
49.7031250000,6,-0.2447433025,,,
49.7187500000,6,-0.0809936523,,,
49.7343750000,6,0.1710433960,,,
49.7500000000,6,0.3851012886,,,
49.7656250000,6,0.4478149116,,,
49.7812500000,6,0.3184737861,,,
49.7968750000,6,0.0573501587,,,
49.8125000000,6,-0.1859207004,,,
49.8281250000,6,-0.2793349922,,,
49.8437500000,6,-0.1669158936,,,
49.8593750000,6,0.0892257690,,,
49.8750000000,6,0.3492355049,,,
49.8906250000,6,0.4571838081,,,
49.9062500000,6,0.3209457099,,,
49.9218750000,6,-0.0634155273,,,
49.9375000000,6,-0.6073532104,,,
49.9531250000,6,-1.1648249626,,,
49.9687500000,6,-1.5816500187,,,
49.9843750000,6,-1.7451020479,,,
50.0000000000,6,-1.6277010441,,,
50.0156250000,6,-1.2844010592,,,
50.0312500000,6,-0.8264312744,,,
50.0468750000,6,-0.3863601983,,,
50.0625000000,6,-0.0757064819,,,
50.0781250000,6,0.0800399780,,,
50.0937500000,6,0.1116866991,,,
50.1093750000,6,0.0991516113,,,
50.1250000000,6,0.1138534993,,,
50.1406250000,6,0.1878356934,,,
50.1562500000,6,0.3073653877,,,
50.1718750000,6,0.4288788140,,,
50.1875000000,6,0.5102996826,,,
50.2031250000,6,0.5307387710,,,
50.2187500000,6,0.4649963081,,,
50.2343750000,6,0.2766799927,,,
50.2500000000,6,-0.0802993774,,,
50.2656250000,6,-0.5897216797,,,
50.2812500000,6,-1.1510540247,,,
50.2968750000,6,-1.5756000280,,,
50.3125000000,6,-1.6575009823,,,
50.3281250000,6,-1.3054959774,,,
50.3437500000,6,-0.6112442017,,,
50.3593750000,6,0.1592559963,,,
50.3750000000,6,0.7057418823,,,
50.3906250000,6,0.8441315293,,,
50.4062500000,6,0.6228256226,,,
50.4218750000,6,0.2752914131,,,
50.4375000000,6,0.0714569092,,,
50.4531250000,6,0.1569138020,,,
50.4687500000,6,0.4748229980,,,
50.4843750000,6,0.8347396851,,,
50.5000000000,6,1.0375900269,,,
50.5156250000,6,1.0066380501,,,
50.5312500000,6,0.8219223022,,,
50.5468750000,6,0.6391906738,,,
50.5625000000,6,0.5685272217,,,
50.5781250000,6,0.6275786757,,,
50.5937500000,6,0.7221527100,,,
50.6093750000,6,0.7404708862,,,
50.6250000000,6,0.6184691787,,,
50.6406250000,6,0.3831099868,,,
50.6562500000,6,0.1288910061,,,
50.6718750000,6,-0.0404586792,,,
50.6875000000,6,-0.0766372681,,,
50.7031250000,6,-0.0135955801,,,
50.7187500000,6,0.0319900513,,,
50.7343750000,6,-0.0702362135,,,
50.7500000000,6,-0.3931885064,,,
50.7656250000,6,-0.9022064209,,,
50.7812500000,6,-1.4651180506,,,
50.7968750000,6,-1.9085390568,,,
50.8125000000,6,-2.1036300659,,,
50.8281250000,6,-2.0169980526,,,
50.8437500000,6,-1.7017060518,,,
50.8593750000,6,-1.2620769739,,,
50.8750000000,6,-0.7964934707,,,
50.8906250000,6,-0.3705062866,,,
50.9062500000,6,-0.0159378108,,,
50.9218750000,6,0.2535552979,,,
50.9375000000,6,0.4281311035,,,
50.9531250000,6,0.4986877143,,,
50.9687500000,6,0.4635390937,,,
50.9843750000,6,0.3366164863,,,
51.0000000000,6,0.1577454060,,,
51.0156250000,6,-0.0400009193,,,
51.0312500000,6,-0.2131499946,,,
51.0468750000,6,-0.3235473931,,,
51.0625000000,6,-0.3316878974,,,
51.0781250000,6,-0.2192001045,,,
51.0937500000,6,0.0106735202,,,
51.1093750000,6,0.3169631958,,,
51.1250000000,6,0.6322249770,,,
51.1406250000,6,0.9028244019,,,
51.1562500000,6,1.0856020451,,,
51.1718750000,6,1.1560820341,,,
51.1875000000,6,1.0800549984,,,
51.2031250000,6,0.8314666748,,,
51.2187500000,6,0.4043807983,,,
51.2343750000,6,-0.1373137981,,,
51.2500000000,6,-0.6534957886,,,
51.2656250000,6,-0.9933394790,,,
51.2812500000,6,-1.0489649773,,,
51.2968750000,6,-0.8322678208,,,
51.3125000000,6,-0.4523468018,,,
51.3281250000,6,-0.0526885986,,,
51.3437500000,6,0.2641983032,,,
51.3593750000,6,0.4679642022,,,
51.3750000000,6,0.5924910903,,,
51.3906250000,6,0.6620789170,,,
51.4062500000,6,0.6554337144,,,
51.4218750000,6,0.5255432129,,,
51.4375000000,6,0.2535248101,,,
51.4531250000,6,-0.1117400974,,,
51.4687500000,6,-0.4254302979,,,
51.4843750000,6,-0.5299453735,,,
51.5000000000,6,-0.3472442925,,,
51.5156250000,6,0.0676727295,,,
51.5312500000,6,0.5239028931,,,
51.5468750000,6,0.8078917861,,,
51.5625000000,6,0.8047180176,,,
51.5781250000,6,0.5551682115,,,
51.5937500000,6,0.2369308025,,,
51.6093750000,6,0.0528945886,,,
51.6250000000,6,0.1189650968,,,
51.6406250000,6,0.4221802056,,,
51.6562500000,6,0.8286057115,,,
51.6718750000,6,1.1836470366,,,
51.6875000000,6,1.3744889498,,,
51.7031250000,6,1.3868869543,,,
51.7187500000,6,1.2716900110,,,
51.7343750000,6,1.0831300020,,,
51.7500000000,6,0.8780518174,,,
51.7656250000,6,0.6797180176,,,
51.7812500000,6,0.5174788833,,,
51.7968750000,6,0.4246368110,,,
51.8125000000,6,0.4151917100,,,
51.8281250000,6,0.4576720893,,,
51.8437500000,6,0.4783172905,,,
51.8593750000,6,0.3920212090,,,
51.8750000000,6,0.1469420940,,,
51.8906250000,6,-0.2312088013,,,
51.9062500000,6,-0.6586685181,,,
51.9218750000,6,-1.0422669649,,,
51.9375000000,6,-1.2897640467,,,
51.9531250000,6,-1.3889919519,,,
51.9687500000,6,-1.3537750244,,,
51.9843750000,6,-1.2256469727,,,
52.0000000000,6,-1.0363999605,,,
52.0156250000,6,-0.8094863892,,,
52.0312500000,6,-0.5642014146,,,
52.0468750000,6,-0.3545685112,,,
52.0625000000,6,-0.2550125122,,,
52.0781250000,6,-0.3254700005,,,
52.0937500000,6,-0.5773696899,,,
52.1093750000,6,-0.9111937881,,,
52.1250000000,6,-1.1659239531,,,
52.1406250000,6,-1.1629559994,,,
52.1562500000,6,-0.8470458984,,,
52.1718750000,6,-0.3139342964,,,
52.1875000000,6,0.1862259060,,,
52.2031250000,6,0.3843306899,,,
52.2187500000,6,0.1437301934,,,
52.2343750000,6,-0.4817200005,,,
52.2500000000,6,-1.2285230160,,,
52.2656250000,6,-1.7956850529,,,
52.2812500000,6,-1.9807209969,,,
52.2968750000,6,-1.7766950130,,,
52.3125000000,6,-1.3535920382,,,
52.3281250000,6,-0.9325103760,,,
52.3437500000,6,-0.6637343764,,,
52.3593750000,6,-0.5463104248,,,
52.3750000000,6,-0.4791412055,,,
52.3906250000,6,-0.3468245864,,,
52.4062500000,6,-0.1091843024,,,
52.4218750000,6,0.1400832981,,,
52.4375000000,6,0.2540206909,,,
52.4531250000,6,0.1136856005,,,
52.4687500000,6,-0.2655639946,,,
52.4843750000,6,-0.7312622070,,,
52.5000000000,6,-1.0483629704,,,
52.5156250000,6,-1.0352250338,,,
52.5312500000,6,-0.6685103774,,,
52.5468750000,6,-0.1134644002,,,
52.5625000000,6,0.3831405938,,,
52.5781250000,6,0.6189650893,,,
52.5937500000,6,0.5461502075,,,
52.6093750000,6,0.2924042046,,,
52.6250000000,6,0.0641555786,,,
52.6406250000,6,0.0218658391,,,
52.6562500000,6,0.2006759942,,,
52.6718750000,6,0.5168532729,,,
52.6875000000,6,0.8266602159,,,
52.7031250000,6,1.0469059944,,,
52.7187500000,6,1.1735609770,,,
52.7343750000,6,1.2413409948,,,
52.7500000000,6,1.2964400053,,,
52.7656250000,6,1.3184969425,,,
52.7812500000,6,1.2645189762,,,
52.7968750000,6,1.1140520573,,,
52.8125000000,6,0.9120330811,,,
52.8281250000,6,0.7550659180,,,
52.8437500000,6,0.7270432115,,,
52.8593750000,6,0.8360291123,,,
52.8750000000,6,1.0038219690,,,
52.8906250000,6,1.1161960363,,,
52.9062500000,6,1.1117780209,,,
52.9218750000,6,1.0361629725,,,
52.9375000000,6,1.0174709558,,,
52.9531250000,6,1.1681209803,,,
52.9687500000,6,1.4773789644,,,
52.9843750000,6,1.7975690365,,,
53.0000000000,6,1.8973770142,,,
53.0156250000,6,1.6291960478,,,
53.0312500000,6,1.0122829676,,,
53.0468750000,6,0.2351607978,,,
53.0625000000,6,-0.4500656128,,,
53.0781250000,6,-0.8723449707,,,
53.0937500000,6,-1.0320659876,,,
53.1093750000,6,-1.0627520084,,,
53.1250000000,6,-1.1088939905,,,
53.1406250000,6,-1.2171169519,,,
53.1562500000,6,-1.2961119413,,,
53.1718750000,6,-1.2089840174,,,
53.1875000000,6,-0.8931732178,,,
53.2031250000,6,-0.4144211113,,,
53.2187500000,6,0.0508194007,,,
53.2343750000,6,0.3243331909,,,
53.2500000000,6,0.3434753120,,,
53.2656250000,6,0.1629790962,,,
53.2812500000,6,-0.0906906128,,,
53.2968750000,6,-0.3199844062,,,
53.3125000000,6,-0.4994201958,,,
53.3281250000,6,-0.6666718125,,,
53.3437500000,6,-0.8522490859,,,
53.3593750000,6,-1.0395200253,,,
53.3750000000,6,-1.1534960270,,,
53.3906250000,6,-1.1053849459,,,
53.4062500000,6,-0.8569794297,,,
53.4218750000,6,-0.4717178047,,,
53.4375000000,6,-0.0753326416,,,
53.4531250000,6,0.1805420071,,,
53.4687500000,6,0.1909331977,,,
53.4843750000,6,-0.0416259803,,,
53.5000000000,6,-0.4200820923,,,
53.5156250000,6,-0.7872161865,,,
53.5312500000,6,-0.9945526123,,,
53.5468750000,6,-0.9764174819,,,
53.5625000000,6,-0.7691727281,,,
53.5781250000,6,-0.4818877876,,,
53.5937500000,6,-0.2370223999,,,
53.6093750000,6,-0.0966491699,,,
53.6250000000,6,-0.0421829186,,,
53.6406250000,6,0.0012512211,,,
53.6562500000,6,0.1013564989,,,
53.6718750000,6,0.2791672051,,,
53.6875000000,6,0.4885101020,,,
53.7031250000,6,0.6743164063,,,
53.7187500000,6,0.8078231812,,,
53.7343750000,6,0.8964995742,,,
53.7500000000,6,0.9774857163,,,
53.7656250000,6,1.0721739531,,,
53.7812500000,6,1.1666029692,,,
53.7968750000,6,1.2040560246,,,
53.8125000000,6,1.1371229887,,,
53.8281250000,6,0.9480895996,,,
53.8437500000,6,0.6918869019,,,
53.8593750000,6,0.4650878906,,,
53.8750000000,6,0.3848724067,,,
53.8906250000,6,0.5218353271,,,
53.9062500000,6,0.8623580933,,,
53.9218750000,6,1.2857969999,,,
53.9375000000,6,1.6297839880,,,
53.9531250000,6,1.7698140144,,,
53.9687500000,6,1.6639480591,,,
53.9843750000,6,1.3808979988,,,
54.0000000000,6,1.0451509953,,,
54.0156250000,6,0.7490615845,,,
54.0312500000,6,0.5242766738,,,
54.0468750000,6,0.3279494941,,,
54.0625000000,6,0.1087417975,,,
54.0781250000,6,-0.1456985027,,,
54.0937500000,6,-0.4008026123,,,
54.1093750000,6,-0.7517089844,,,
54.1250000000,6,-0.9905776978,,,
54.1406250000,6,-1.0304410458,,,
54.1562500000,6,-0.8612288833,,,
54.1718750000,6,-0.5193939209,,,
54.1875000000,6,-0.0796661377,,,
54.2031250000,6,0.3762131035,,,
54.2187500000,6,0.7487410903,,,
54.2343750000,6,0.9704589844,,,
54.2500000000,6,1.0081709623,,,
54.2656250000,6,0.8608856201,,,
54.2812500000,6,0.5878754258,,,
54.2968750000,6,0.2735519111,,,
54.3125000000,6,0.0055923462,,,
54.3281250000,6,-0.1463164985,,,
54.3437500000,6,-0.1576233059,,,
54.3593750000,6,-0.0517501794,,,
54.3750000000,6,0.0853042603,,,
54.3906250000,6,0.1446685940,,,
54.4062500000,6,0.0262527503,,,
54.4218750000,6,-0.2730942070,,,
54.4375000000,6,-0.6545333862,,,
54.4531250000,6,-0.9478455186,,,
54.4687500000,6,-0.9920958877,,,
54.4843750000,6,-0.7442169189,,,
54.5000000000,6,-0.2951050103,,,
54.5156250000,6,0.1559295952,,,
54.5312500000,6,0.4245148003,,,
54.5468750000,6,0.4386520088,,,
54.5625000000,6,0.2890472114,,,
54.5781250000,6,0.1308211982,,,
54.5937500000,6,0.0991516113,,,
54.6093750000,6,0.2067413032,,,
54.6250000000,6,0.3682555854,,,
54.6406250000,6,0.4779357910,,,
54.6562500000,6,0.5194473267,,,
54.6718750000,6,0.5804672241,,,
54.6875000000,6,0.7628784180,,,
54.7031250000,6,1.0896070004,,,
54.7187500000,6,1.4495769739,,,
54.7343750000,6,1.6461329460,,,
54.7500000000,6,1.5242840052,,,
54.7656250000,6,1.0516129732,,,
54.7812500000,6,0.3420409858,,,
54.7968750000,6,-0.3935852051,,,
54.8125000000,6,-0.9632949829,,,
54.8281250000,6,-1.2880330086,,,
54.8437500000,6,-1.3917850256,,,
54.8593750000,6,-1.3733669519,,,
54.8750000000,6,-1.3414000273,,,
54.8906250000,6,-1.3336559534,,,
54.9062500000,6,-1.3272479773,,,
54.9218750000,6,-1.2682720423,,,
54.9375000000,6,-1.0984879732,,,
54.9531250000,6,-0.8296508789,,,
54.9687500000,6,-0.5376663208,,,
54.9843750000,6,-0.3314589858,,,
55.0000000000,6,-0.2913436890,,,
55.0156250000,6,-0.4072495103,,,
55.0312500000,6,-0.5748596191,,,
55.0468750000,6,-0.6537322998,,,
55.0625000000,6,-0.5437850952,,,
55.0781250000,6,-0.2594223022,,,
55.0937500000,6,0.0872344971,,,
55.1093750000,6,0.3619613945,,,
55.1250000000,6,0.5188903809,,,
55.1406250000,6,0.6099091172,,,
55.1562500000,6,0.7323226929,,,
55.1718750000,6,0.9566727281,,,
55.1875000000,6,1.2391589880,,,
55.2031250000,6,1.4352719784,,,
55.2187500000,6,1.3979569674,,,
55.2343750000,6,1.0520550013,,,
55.2500000000,6,0.4502182007,,,
55.2656250000,6,-0.2466430962,,,
55.2812500000,6,-0.8555756211,,,
55.2968750000,6,-1.2190090418,,,
55.3125000000,6,-1.2631380558,,,
55.3281250000,6,-0.9955902100,,,
55.3437500000,6,-0.4947280884,,,
55.3593750000,6,0.1179810017,,,
55.3750000000,6,0.6923676133,,,
55.3906250000,6,1.1149979830,,,
55.4062500000,6,1.3365479708,,,
55.4218750000,6,1.3695219755,,,
55.4375000000,6,1.2944259644,,,
55.4531250000,6,1.1811519861,,,
55.4687500000,6,1.0643390417,,,
55.4843750000,6,0.9301757813,,,
55.5000000000,6,0.7505875230,,,
55.5156250000,6,0.5147324204,,,
55.5312500000,6,0.2561034858,,,
55.5468750000,6,0.0203018207,,,
55.5625000000,6,-0.1702270955,,,
55.5781250000,6,-0.3319168091,,,
55.5937500000,6,-0.5075531006,,,
55.6093750000,6,-0.7177733779,,,
55.6250000000,6,-0.9161071777,,,
55.6406250000,6,-0.9924315810,,,
55.6562500000,6,-0.8409041762,,,
55.6718750000,6,-0.4139023125,,,
55.6875000000,6,0.2184067070,,,
55.7031250000,6,0.8609467149,,,
55.7187500000,6,1.3052749634,,,
55.7343750000,6,1.3977739811,,,
55.7500000000,6,1.1301499605,,,
55.7656250000,6,0.6313477159,,,
55.7812500000,6,0.1070557013,,,
55.7968750000,6,-0.2572861016,,,
55.8125000000,6,-0.3872146904,,,
55.8281250000,6,-0.3371429145,,,
55.8437500000,6,-0.2602157891,,,
55.8593750000,6,-0.2833710015,,,
55.8750000000,6,-0.4651260078,,,
55.8906250000,6,-0.7491530776,,,
55.9062500000,6,-1.0011290312,,,
55.9218750000,6,-1.0943449736,,,
55.9375000000,6,-0.9850540161,,,
55.9531250000,6,-0.7473983765,,,
55.9687500000,6,-0.5161591172,,,
55.9843750000,6,-0.4174422920,,,
56.0000000000,7,-0.4767456055,,,
56.0156250000,7,-0.6290894151,,,
56.0312500000,7,-0.7557067871,,,
56.0468750000,7,-0.7634810805,,,
56.0625000000,7,-0.6338120103,,,
56.0781250000,7,-0.4181747139,,,
56.0937500000,7,-0.1885222942,,,
56.1093750000,7,0.0132980300,,,
56.1250000000,7,0.1854705960,,,
56.1406250000,7,0.3663254082,,,
