Time:64Hz,Epoch,Channel 1,Event Id,Event Date,Event Duration
0.0000000000,0,1.5177609921,,,
0.0156250000,0,1.2705379725,,,
0.0312500000,0,0.9051514268,,,
0.0468750000,0,0.5649719238,,,
0.0625000000,0,0.3604736030,,,
0.0781250000,0,0.3264771104,,,
0.0937500000,0,0.4078978896,,,
0.1093750000,0,0.5142211914,,,
0.1250000000,0,0.5516967773,,,
0.1406250000,0,0.4758605957,,,
0.1562500000,0,0.3185425103,,,
0.1718750000,0,0.1475829929,,,
0.1875000000,0,0.0310363807,,,
0.2031250000,0,-0.0139160203,,,
0.2187500000,0,-0.0181579608,,,
0.2343750000,0,-0.0436401404,,,
0.2500000000,0,-0.1257628947,,,
0.2656250000,0,-0.2607421875,,,
0.2812500000,0,-0.3963317871,,,
0.2968750000,0,-0.4749450982,,,
0.3125000000,0,-0.4664916992,,,
0.3281250000,0,-0.3955383003,,,
0.3437500000,0,-0.3468017876,,,
0.3593750000,0,-0.3946532905,,,
0.3750000000,0,-0.5882263184,,,
0.3906250000,0,-0.8959960938,,,
0.4062500000,0,-1.2244570255,,,
0.4218750000,0,-1.4378050566,,,
0.4375000000,0,-1.4287719727,,,
0.4531250000,0,-1.1589050293,,,
0.4687500000,0,-0.6710814834,,,
0.4843750000,0,-0.0930786133,,,
0.5000000000,0,0.4329529107,,,
0.5156250000,0,0.7951049805,,,
0.5312500000,0,0.9569396973,,,
0.5468750000,0,0.9596862793,,,
0.5625000000,0,0.9017639160,,,
0.5781250000,0,0.8751525879,,,
0.5937500000,0,0.9225769043,,,
0.6093750000,0,1.0046080351,,,
0.6250000000,0,1.0231930017,,,
0.6406250000,0,0.8690490723,,,
0.6562500000,0,0.5113831162,,,
0.6718750000,0,0.0108642597,,,
0.6875000000,0,-0.4893493950,,,
0.7031250000,0,-0.8416748047,,,
0.7187500000,0,-0.9735717773,,,
0.7343750000,0,-0.9147034287,,,
0.7500000000,0,-0.7669677734,,,
0.7656250000,0,-0.6324768066,,,
0.7812500000,0,-0.5424193740,,,
0.7968750000,0,-0.4586791992,,,
0.8125000000,0,-0.3251953125,,,
0.8281250000,0,-0.1141052023,,,
0.8437500000,0,0.1178283989,,,
0.8593750000,0,0.2972106934,,,
0.8750000000,0,0.3689880073,,,
0.8906250000,0,0.3599548042,,,
0.9062500000,0,0.3577880859,,,
0.9218750000,0,0.4594115913,,,
0.9375000000,0,0.6871948242,,,
0.9531250000,0,0.9480286241,,,
0.9687500000,0,1.0923769474,,,
0.9843750000,0,0.9690247178,,,
1.0000000000,0,0.5300598145,,,
1.0156250000,0,-0.1377563030,,,
1.0312500000,0,-0.8345947266,,,
1.0468750000,0,-1.3427120447,,,
1.0625000000,0,-1.5381770134,,,
1.0781250000,0,-1.4263919592,,,
1.0937500000,0,-1.1320500374,,,
1.1093750000,0,-0.8049315810,,,
1.1250000000,0,-0.5433654785,,,
1.1406250000,0,-0.3774108887,,,
1.1562500000,0,-0.2828978896,,,
1.1718750000,0,-0.2216186970,,,
1.1875000000,0,-0.1740112007,,,
1.2031250000,0,-0.1385803074,,,
1.2187500000,0,-0.0893554688,,,
1.2343750000,0,0.0083007813,,,
1.2500000000,0,0.1950989068,,,
1.2656250000,0,0.4757690132,,,
1.2812500000,0,0.7929993272,,,
1.2968750000,0,1.0491640568,,,
1.3125000000,0,1.1435240507,,,
1.3281250000,0,1.0394589901,,,
1.3437500000,0,0.7650756836,,,
1.3593750000,0,0.4086304009,,,
1.3750000000,0,0.0576171912,,,
1.3906250000,0,-0.2145995945,,,
1.4062500000,0,-0.3836669922,,,
1.4218750000,0,-0.4586487114,,,
1.4375000000,0,-0.4646300972,,,
1.4531250000,0,-0.4512023926,,,
1.4687500000,0,-0.4554443061,,,
1.4843750000,0,-0.4997864068,,,
1.5000000000,0,-0.5726317763,,,
1.5156250000,0,-0.6421204209,,,
1.5312500000,0,-0.6816710830,,,
1.5468750000,0,-0.6703795791,,,
1.5625000000,0,-0.6148071289,,,
1.5781250000,0,-0.5083618164,,,
1.5937500000,0,-0.3451842964,,,
1.6093750000,0,-0.0959167480,,,
1.6250000000,0,0.2472534031,,,
1.6406250000,0,0.6605225205,,,
1.6562500000,0,1.0531009436,,,
1.6718750000,0,1.3169560432,,,
1.6875000000,0,1.3671879768,,,
1.7031250000,0,1.1749880314,,,
1.7187500000,0,0.8321837783,,,
1.7343750000,0,0.4568175972,,,
1.7500000000,0,0.1673583984,,,
1.7656250000,0,0.0242004395,,,
1.7812500000,0,0.0222168006,,,
1.7968750000,0,0.0965576172,,,
1.8125000000,0,0.1909790039,,,
1.8281250000,0,0.2679137886,,,
1.8437500000,0,0.3179931939,,,
1.8593750000,0,0.3415221870,,,
1.8750000000,0,0.3132019043,,,
1.8906250000,0,0.1929015964,,,
1.9062500000,0,-0.0707702637,,,
1.9218750000,0,-0.4784241021,,,
1.9375000000,0,-0.9799500108,,,
1.9531250000,0,-1.4692080021,,,
1.9687500000,0,-1.8265379667,,,
1.9843750000,0,-1.9588619471,,,
2.0000000000,0,-1.8311769962,,,
2.0156250000,0,-1.4571839571,,,
2.0312500000,0,-0.8858336806,,,
2.0468750000,0,-0.1878356934,,,
2.0625000000,0,0.5501403809,,,
2.0781250000,0,1.2177120447,,,
2.0937500000,0,1.7039790154,,,
2.1093750000,0,1.9093630314,,,
2.1250000000,0,1.7898249626,,,
2.1406250000,0,1.4083859921,,,
2.1562500000,0,0.8925476074,,,
2.1718750000,0,0.4190062881,,,
2.1875000000,0,0.1232604980,,,
2.2031250000,0,0.0210571308,,,
2.2187500000,0,0.0112304697,,,
2.2343750000,0,-0.0812377930,,,
2.2500000000,0,-0.4121094048,,,
2.2656250000,0,-1.0020749569,,,
2.2812500000,0,-1.6983950138,,,
2.2968750000,0,-2.2431950569,,,
2.3125000000,0,-2.3975830078,,,
2.3281250000,0,-2.0929570198,,,
2.3437500000,0,-1.4769289494,,,
2.3593750000,0,-0.8477783203,,,
2.3750000000,0,-0.4897766113,,,
2.3906250000,0,-0.5233458877,,,
2.4062500000,0,-0.8494567871,,,
2.4218750000,0,-1.2192989588,,,
2.4375000000,0,-1.3836359978,,,
2.4531250000,0,-1.2442020178,,,
2.4687500000,0,-0.9016417861,,,
2.4843750000,0,-0.5749816895,,,
2.5000000000,0,-0.4830932915,,,
2.5156250000,0,-0.7249755859,,,
2.5312500000,0,-1.2395939827,,,
2.5468750000,0,-1.8593750000,,,
2.5625000000,0,-2.3964838982,,,
2.5781250000,0,-2.7196660042,,,
2.5937500000,0,-2.7380070686,,,
2.6093750000,0,-2.4256589413,,,
2.6250000000,0,-1.7825319767,,,
2.6406250000,0,-0.8365784287,,,
2.6562500000,0,0.3034667969,,,
2.6718750000,0,1.4516910315,,,
2.6875000000,0,2.3787539005,,,
2.7031250000,0,2.8775939941,,,
2.7187500000,0,2.8593440056,,,
2.7343750000,0,2.4124450684,,,
2.7500000000,0,1.7562869787,,,
2.7656250000,0,1.1458439827,,,
2.7812500000,0,0.7570189834,,,
2.7968750000,0,0.6179810166,,,
2.8125000000,0,0.6372374892,,,
2.8281250000,0,0.6867980957,,,
2.8437500000,0,0.6934509277,,,
2.8593750000,0,0.6698914170,,,
2.8750000000,0,0.6842041016,,,
2.8906250000,0,0.7962645888,,,
2.9062500000,0,1.0202640295,,,
2.9218750000,0,1.2999269962,,,
2.9375000000,0,1.5768129826,,,
2.9531250000,0,1.7954100370,,,
2.9687500000,0,1.9365229607,,,
2.9843750000,0,1.9903260469,,,
3.0000000000,0,1.9404599667,,,
3.0156250000,0,1.7686159611,,,
3.0312500000,0,1.4813230038,,,
3.0468750000,0,1.1219179630,,,
3.0625000000,0,0.7706604004,,,
3.0781250000,0,0.5076904297,,,
3.0937500000,0,0.3794861138,,,
3.1093750000,0,0.3572387993,,,
3.1250000000,0,0.3671570122,,,
3.1406250000,0,0.3220520020,,,
3.1562500000,0,0.1609497070,,,
3.1718750000,0,-0.1107482985,,,
3.1875000000,0,-0.4342345893,,,
3.2031250000,0,-0.7298889160,,,
3.2187500000,0,-0.9228516221,,,
3.2343750000,0,-0.9767150879,,,
3.2500000000,0,-0.8968811035,,,
3.2656250000,0,-0.7326049805,,,
3.2812500000,0,-0.5407103896,,,
3.2968750000,0,-0.3873595893,,,
3.3125000000,0,-0.3202820122,,,
3.3281250000,0,-0.3616028130,,,
3.3437500000,0,-0.5002747178,,,
3.3593750000,0,-0.6908875108,,,
3.3750000000,0,-0.8804932237,,,
3.3906250000,0,-1.0032349825,,,
3.4062500000,0,-1.0064090490,,,
3.4218750000,0,-0.8739014268,,,
3.4375000000,0,-0.6167296767,,,
3.4531250000,0,-0.3102112114,,,
3.4687500000,0,-0.0425109901,,,
3.4843750000,0,0.0971679688,,,
3.5000000000,0,0.0821838379,,,
3.5156250000,0,-0.0367736816,,,
3.5312500000,0,-0.1458130032,,,
3.5468750000,0,-0.1368103027,,,
3.5625000000,0,0.0451355018,,,
3.5781250000,0,0.3543091118,,,
3.5937500000,0,0.6707152724,,,
3.6093750000,0,0.8416442871,,,
3.6250000000,0,0.7774658203,,,
3.6406250000,0,0.4865722954,,,
3.6562500000,0,0.0627136230,,,
3.6718750000,0,-0.3480530083,,,
3.6875000000,0,-0.6340941787,,,
3.7031250000,0,-0.7673645020,,,
3.7187500000,0,-0.7979431152,,,
3.7343750000,0,-0.8000488281,,,
3.7500000000,0,-0.8283386230,,,
3.7656250000,0,-0.8967896104,,,
3.7812500000,0,-0.9845886230,,,
3.7968750000,0,-1.0653079748,,,
3.8125000000,0,-1.1401669979,,,
3.8281250000,0,-1.2397160530,,,
3.8437500000,0,-1.3807679415,,,
3.8593750000,0,-1.5427550077,,,
3.8750000000,0,-1.6651309729,,,
3.8906250000,0,-1.6542049646,,,
3.9062500000,0,-1.4646910429,,,
3.9218750000,0,-1.1399840117,,,
3.9375000000,0,-0.8214722276,,,
3.9531250000,0,-0.6988220215,,,
3.9687500000,0,-0.8988037109,,,
3.9843750000,0,-1.4265749454,,,
4.0000000000,0,-2.1397709846,,,
4.0156250000,0,-2.7951049805,,,
4.0312500000,0,-3.1422729492,,,
4.0468750000,0,-3.0215449333,,,
4.0625000000,0,-2.4077761173,,,
4.0781250000,0,-1.4431149960,,,
4.0937500000,0,-0.3420104980,,,
4.1093750000,0,0.6633911133,,,
4.1250000000,0,1.3957819939,,,
4.1406250000,0,1.7850949764,,,
4.1562500000,0,1.8441159725,,,
4.1718750000,0,1.6676939726,,,
4.1875000000,0,1.3902889490,,,
4.2031250000,0,1.1423029900,,,
4.2187500000,0,1.0107419491,,,
4.2343750000,0,1.0364069939,,,
4.2500000000,0,1.1972049475,,,
4.2656250000,0,1.4280400276,,,
4.2812500000,0,1.6404420137,,,
4.2968750000,0,1.7517399788,,,
4.3125000000,0,1.7267459631,,,
4.3281250000,0,1.5693969727,,,
4.3437500000,0,1.3375240564,,,
4.3593750000,0,1.1256710291,,,
4.3750000000,0,1.0320130587,,,
4.3906250000,0,1.1384279728,,,
4.4062500000,0,1.4588929415,,,
4.4218750000,0,1.9380489588,,,
4.4375000000,0,2.4388730526,,,
4.4531250000,0,2.7862238884,,,
4.4687500000,0,2.8423769474,,,
4.4843750000,0,2.5730590820,,,
4.5000000000,0,2.0646059513,,,
4.5156250000,0,1.4721369743,,,
4.5312500000,0,0.9389343262,,,
4.5468750000,0,0.5181273818,,,
4.5625000000,0,0.1797790974,,,
4.5781250000,0,-0.1548766941,,,
4.5937500000,0,-0.5070496202,,,
4.6093750000,0,-0.8117980957,,,
4.6250000000,0,-0.9566956162,,,
4.6406250000,0,-0.8552246094,,,
4.6562500000,0,-0.5292968750,,,
4.6718750000,0,-0.1116638035,,,
4.6875000000,0,0.2321777046,,,
4.7031250000,0,0.4168700874,,,
4.7187500000,0,0.4615173042,,,
4.7343750000,0,0.4765625000,,,
4.7500000000,0,0.5598449707,,,
4.7656250000,0,0.7388306260,,,
4.7812500000,0,0.9436646104,,,
4.7968750000,0,1.0576779842,,,
4.8125000000,0,0.9918823242,,,
4.8281250000,0,0.7489929199,,,
4.8437500000,0,0.4010314941,,,
4.8593750000,0,0.0639038086,,,
4.8750000000,0,-0.1823119968,,,
4.8906250000,0,-0.3118895888,,,
4.9062500000,0,-0.3717041016,,,
4.9218750000,0,-0.4285278022,,,
4.9375000000,0,-0.5378417969,,,
4.9531250000,0,-0.6899414063,,,
4.9687500000,0,-0.8338317871,,,
4.9843750000,0,-0.8968201280,,,
5.0000000000,0,-0.8355103135,,,
5.0156250000,0,-0.6918944716,,,
5.0312500000,0,-0.5782166123,,,
5.0468750000,0,-0.6213989258,,,
5.0625000000,0,-0.8755797744,,,
5.0781250000,0,-1.2745670080,,,
5.0937500000,0,-1.6316529512,,,
5.1093750000,0,-1.7395939827,,,
5.1250000000,0,-1.4835510254,,,
5.1406250000,0,-0.9091187119,,,
5.1562500000,0,-0.1978760064,,,
5.1718750000,0,0.4160461128,,,
5.1875000000,0,0.7666931152,,,
5.2031250000,0,0.8244019151,,,
5.2187500000,0,0.6889954209,,,
5.2343750000,0,0.5144957900,,,
5.2500000000,0,0.3977355957,,,
5.2656250000,0,0.3522338867,,,
5.2812500000,0,0.3032836914,,,
5.2968750000,0,0.1705016941,,,
5.3125000000,0,-0.0690917969,,,
5.3281250000,0,-0.3406372070,,,
5.3437500000,0,-0.5150145888,,,
5.3593750000,0,-0.4905090034,,,
5.3750000000,0,-0.2569580078,,,
5.3906250000,0,0.0823669434,,,
5.4062500000,0,0.3857116997,,,
5.4218750000,0,0.5421447754,,,
5.4375000000,0,0.5403748155,,,
5.4531250000,0,0.4739685059,,,
5.4687500000,0,0.4753417969,,,
5.4843750000,0,0.6184691787,,,
5.5000000000,0,0.8735961914,,,
5.5156250000,0,1.1316829920,,,
5.5312500000,0,1.2589110136,,,
5.5468750000,0,1.2064210176,,,
5.5625000000,0,1.0205689669,,,
5.5781250000,0,0.8247681260,,,
5.5937500000,0,0.7453613281,,,
5.6093750000,0,0.8373413086,,,
5.6250000000,0,1.0290830135,,,
5.6406250000,0,1.1859129667,,,
5.6562500000,0,1.1474000216,,,
5.6718750000,0,0.8228455186,,,
5.6875000000,0,0.2470397949,,,
5.7031250000,0,-0.4381408989,,,
5.7187500000,0,-1.0343320370,,,
5.7343750000,0,-1.3694150448,,,
5.7500000000,0,-1.3786929846,,,
5.7656250000,0,-1.1239010096,,,
5.7812500000,0,-0.7499390244,,,
5.7968750000,0,-0.4118041992,,,
5.8125000000,0,-0.1969909966,,,
5.8281250000,0,-0.0993347168,,,
5.8437500000,0,-0.0303649902,,,
5.8593750000,0,0.1042480022,,,
5.8750000000,0,0.3620910943,,,
5.8906250000,0,0.7196655273,,,
5.9062500000,0,1.0957950354,,,
5.9218750000,0,1.4069819450,,,
5.9375000000,0,1.6037900448,,,
5.9531250000,0,1.6821589470,,,
5.9687500000,0,1.6702879667,,,
5.9843750000,0,1.5729680061,,,
6.0000000000,0,1.3590999842,,,
6.0156250000,0,1.0070190430,,,
6.0312500000,0,0.5136718750,,,
6.0468750000,0,-0.0512390099,,,
6.0625000000,0,-0.5674437881,,,
6.0781250000,0,-0.9117736816,,,
6.0937500000,0,-1.0124210119,,,
6.1093750000,0,-0.8867188096,,,
6.1250000000,0,-0.6471251845,,,
6.1406250000,0,-0.4239807129,,,
6.1562500000,0,-0.3218078911,,,
6.1718750000,0,-0.3765259087,,,
6.1875000000,0,-0.5585327148,,,
6.2031250000,0,-0.8048400879,,,
6.2187500000,0,-1.0539859533,,,
6.2343750000,0,-1.2582399845,,,
6.2500000000,0,-1.3621220589,,,
6.2656250000,0,-1.3284000158,,,
6.2812500000,0,-1.1439820528,,,
6.2968750000,0,-0.8501892090,,,
6.3125000000,0,-0.5330811143,,,
6.3281250000,0,-0.2928771973,,,
6.3437500000,0,-0.1975097954,,,
6.3593750000,0,-0.2478637993,,,
6.3750000000,0,-0.3887938857,,,
6.3906250000,0,-0.5385437012,,,
6.4062500000,0,-0.6468201280,,,
6.4218750000,0,-0.6998596191,,,
6.4375000000,0,-0.7280579209,,,
6.4531250000,0,-0.7705382705,,,
6.4687500000,0,-0.8217163086,,,
6.4843750000,0,-0.8519287109,,,
6.5000000000,0,-0.8049315810,,,
6.5156250000,0,-0.6452941895,,,
6.5312500000,0,-0.3636169136,,,
6.5468750000,0,-0.0021667480,,,
6.5625000000,0,0.3843384087,,,
6.5781250000,0,0.7345581055,,,
6.5937500000,0,0.9948425293,,,
6.6093750000,0,1.1423649788,,,
6.6250000000,0,1.1868900061,,,
6.6406250000,0,1.1849980354,,,
6.6562500000,0,1.2229609489,,,
6.6718750000,0,1.3662409782,,,
6.6875000000,0,1.6043699980,,,
6.7031250000,0,1.8420720100,,,
6.7187500000,0,1.9335629940,,,
6.7343750000,0,1.7472529411,,,
6.7500000000,0,1.2854000330,,,
6.7656250000,0,0.6778563857,,,
6.7812500000,0,0.1559447944,,,
6.7968750000,0,-0.1016540974,,,
6.8125000000,0,-0.0622253418,,,
6.8281250000,0,0.1613159031,,,
6.8437500000,0,0.3709717095,,,
6.8593750000,0,0.4436646104,,,
6.8750000000,0,0.3840636909,,,
6.8906250000,0,0.3113707900,,,
6.9062500000,0,0.3199158013,,,
6.9218750000,0,0.3944702148,,,
6.9375000000,0,0.3899841011,,,
6.9531250000,0,0.1479187012,,,
6.9687500000,0,-0.3747558892,,,
6.9843750000,0,-1.0684510469,,,
7.0000000000,0,-1.6968380213,,,
7.0156250000,0,-2.0669250488,,,
7.0312500000,0,-2.1058039665,,,
7.0468750000,0,-1.9063110352,,,
7.0625000000,0,-1.6364439726,,,
7.0781250000,0,-1.4315190315,,,
7.0937500000,0,-1.3186039925,,,
7.1093750000,0,-1.2325129509,,,
7.1250000000,0,-1.0793759823,,,
7.1406250000,0,-0.8098754883,,,
7.1562500000,0,-0.4595336914,,,
7.1718750000,0,-0.1155700982,,,
7.1875000000,0,0.1191101000,,,
7.2031250000,0,0.1799315959,,,
7.2187500000,0,0.0762023926,,,
7.2343750000,0,-0.1237792969,,,
7.2500000000,0,-0.3156737983,,,
7.2656250000,0,-0.3971863091,,,
7.2812500000,0,-0.2926025093,,,
7.2968750000,0,0.0105590802,,,
7.3125000000,0,0.4603882134,,,
7.3281250000,0,0.9666442871,,,
7.3437500000,0,1.4204100370,,,
7.3593750000,0,1.7444460392,,,
7.3750000000,0,1.8908079863,,,
7.3906250000,0,1.8547359705,,,
7.4062500000,0,1.6618959904,,,
7.4218750000,0,1.3627320528,,,
7.4375000000,0,0.9981688857,,,
7.4531250000,0,0.6070250869,,,
7.4687500000,0,0.2250670940,,,
7.4843750000,0,-0.1354369968,,,
7.5000000000,0,-0.4228515923,,,
7.5156250000,0,-0.6050415039,,,
7.5312500000,0,-0.6618958116,,,
7.5468750000,0,-0.6094055176,,,
7.5625000000,0,-0.4923096001,,,
7.5781250000,0,-0.3652344048,,,
7.5937500000,0,-0.2521057129,,,
7.6093750000,0,-0.1547852010,,,
7.6250000000,0,-0.0691528320,,,
7.6406250000,0,-0.0017089840,,,
7.6562500000,0,0.0158386193,,,
7.6718750000,0,-0.0385437012,,,
7.6875000000,0,-0.1452026069,,,
7.7031250000,0,-0.2463988960,,,
7.7187500000,0,-0.2664794922,,,
7.7343750000,0,-0.1640319973,,,
7.7500000000,0,0.0152282696,,,
7.7656250000,0,0.1563721001,,,
7.7812500000,0,0.1375731975,,,
7.7968750000,0,-0.1050719991,,,
7.8125000000,0,-0.5249022841,,,
7.8281250000,0,-0.9960631728,,,
7.8437500000,0,-1.3738100529,,,
7.8593750000,0,-1.5621949434,,,
7.8750000000,0,-1.5621949434,,,
7.8906250000,0,-1.4354250431,,,
7.9062500000,0,-1.2759699821,,,
7.9218750000,0,-1.1551209688,,,
7.9375000000,0,-1.1118769646,,,
7.9531250000,0,-1.1406250000,,,
7.9687500000,0,-1.2033389807,,,
7.9843750000,0,-1.2600400448,,,
8.0000000000,1,-1.2575069666,,,
8.0156250000,1,-1.1643069983,,,
8.0312500000,1,-0.9524230957,,,
8.0468750000,1,-0.6226500869,,,
8.0625000000,1,-0.1953430027,,,
8.0781250000,1,0.2836304009,,,
8.0937500000,1,0.7658081055,,,
8.1093750000,1,1.1863709688,,,
8.1250000000,1,1.5027159452,,,
8.1406250000,1,1.6831049919,,,
8.1562500000,1,1.7278139591,,,
8.1718750000,1,1.6552120447,,,
8.1875000000,1,1.5126340389,,,
8.2031250000,1,1.3300780058,,,
8.2187500000,1,1.1383670568,,,
8.2343750000,1,0.9510498047,,,
8.2500000000,1,0.7849426270,,,
8.2656250000,1,0.6449584961,,,
8.2812500000,1,0.5523682237,,,
8.2968750000,1,0.5161437988,,,
8.3125000000,1,0.5234069824,,,
8.3281250000,1,0.5326232910,,,
8.3437500000,1,0.4982604980,,,
8.3593750000,1,0.4042663872,,,
8.3750000000,1,0.2687683105,,,
8.3906250000,1,0.1376343071,,,
8.4062500000,1,0.0447998010,,,
8.4218750000,1,0.0078430176,,,
8.4375000000,1,-0.0211181603,,,
8.4531250000,1,-0.0972595215,,,
8.4687500000,1,-0.2725830078,,,
8.4843750000,1,-0.5387573242,,,
8.5000000000,1,-0.8325806260,,,
8.5156250000,1,-1.0462950468,,,
8.5312500000,1,-1.0798950195,,,
8.5468750000,1,-0.8991699219,,,
8.5625000000,1,-0.5657042861,,,
8.5781250000,1,-0.2441101074,,,
8.5937500000,1,-0.1288146973,,,
8.6093750000,1,-0.3571777046,,,
8.6250000000,1,-0.9344481826,,,
8.6406250000,1,-1.7056579590,,,
8.6562500000,1,-2.4310910702,,,
8.6718750000,1,-2.8743898869,,,
8.6875000000,1,-2.9016110897,,,
8.7031250000,1,-2.5374760628,,,
8.7187500000,1,-1.9237060547,,,
8.7343750000,1,-1.2355040312,,,
8.7500000000,1,-0.6102600098,,,
8.7656250000,1,-0.1271056980,,,
8.7812500000,1,0.2001038045,,,
8.7968750000,1,0.3840942085,,,
8.8125000000,1,0.4660950005,,,
8.8281250000,1,0.5057982802,,,
8.8437500000,1,0.5861511230,,,
8.8593750000,1,0.7780457139,,,
8.8750000000,1,1.1132199764,,,
8.8906250000,1,1.5374759436,,,
8.9062500000,1,1.9137879610,,,
8.9218750000,1,2.1087338924,,,
8.9375000000,1,2.0271298885,,,
8.9531250000,1,1.6896359921,,,
8.9687500000,1,1.2106629610,,,
8.9843750000,1,0.7459716797,,,
9.0000000000,1,0.4092406929,,,
9.0156250000,1,0.2538146973,,,
9.0312500000,1,0.2573241889,,,
9.0468750000,1,0.3612670898,,,
9.0625000000,1,0.5151671767,,,
9.0781250000,1,0.6806945801,,,
9.0937500000,1,0.8090515137,,,
9.1093750000,1,0.8433532715,,,
9.1250000000,1,0.7129210830,,,
9.1406250000,1,0.3877562881,,,
9.1562500000,1,-0.1091613993,,,
9.1718750000,1,-0.6859741211,,,
9.1875000000,1,-1.2219849825,,,
9.2031250000,1,-1.6000980139,,,
9.2187500000,1,-1.7579649687,,,
9.2343750000,1,-1.6939090490,,,
9.2500000000,1,-1.4604799747,,,
9.2656250000,1,-1.1415100098,,,
9.2812500000,1,-0.8183898926,,,
9.2968750000,1,-0.5493469238,,,
9.3125000000,1,-0.3513793945,,,
9.3281250000,1,-0.2037353963,,,
9.3437500000,1,-0.0740051270,,,
9.3593750000,1,0.0424804688,,,
9.3750000000,1,0.1121215969,,,
9.3906250000,1,0.0755920410,,,
9.4062500000,1,-0.1184082031,,,
9.4218750000,1,-0.4555054009,,,
9.4375000000,1,-0.8468627930,,,
9.4531250000,1,-1.1627500057,,,
9.4687500000,1,-1.2941590548,,,
9.4843750000,1,-1.2081910372,,,
9.5000000000,1,-0.9655761719,,,
9.5156250000,1,-0.6866455078,,,
9.5312500000,1,-0.4931946099,,,
9.5468750000,1,-0.4524230957,,,
9.5625000000,1,-0.5644226074,,,
9.5781250000,1,-0.7765197754,,,
9.5937500000,1,-1.0198969841,,,
9.6093750000,1,-1.2380369902,,,
9.6250000000,1,-1.4042359591,,,
9.6406250000,1,-1.5128170252,,,
9.6562500000,1,-1.5563960075,,,
9.6718750000,1,-1.4972529411,,,
9.6875000000,1,-1.2884830236,,,
9.7031250000,1,-0.8980103135,,,
9.7187500000,1,-0.3287963867,,,
9.7343750000,1,0.3626708984,,,
9.7500000000,1,1.0899050236,,,
9.7656250000,1,1.7803649902,,,
9.7812500000,1,2.4064030647,,,
9.7968750000,1,2.9808650017,,,
9.8125000000,1,3.5032041073,,,
9.8281250000,1,3.9347839355,,,
9.8437500000,1,4.1951289177,,,
9.8593750000,1,4.1893620491,,,
9.8750000000,1,3.8881840706,,,
9.8906250000,1,3.3570249081,,,
9.9062500000,1,2.7184751034,,,
9.9218750000,1,2.1035768986,,,
9.9375000000,1,1.5913699865,,,
9.9531250000,1,1.1983950138,,,
9.9687500000,1,0.9281005859,,,
9.9843750000,1,0.7789307237,,,
10.0000000000,1,0.7697448730,,,
10.0156250000,1,0.8974304199,,,
10.0312500000,1,1.1131900549,,,
10.0468750000,1,1.3329470158,,,
10.0625000000,1,1.4710999727,,,
10.0781250000,1,1.4762569666,,,
10.0937500000,1,1.3426510096,,,
10.1093750000,1,1.0887449980,,,
10.1250000000,1,0.7405396104,,,
10.1406250000,1,0.3313598931,,,
10.1562500000,1,-0.0850524902,,,
10.1718750000,1,-0.4026488960,,,
10.1875000000,1,-0.4896239936,,,
10.2031250000,1,-0.2474976033,,,
10.2187500000,1,0.3399657905,,,
10.2343750000,1,1.1667790413,,,
10.2500000000,1,2.0428769588,,,
10.2656250000,1,2.7716670036,,,
10.2812500000,1,3.2173459530,,,
10.2968750000,1,3.3479919434,,,
10.3125000000,1,3.1965029240,,,
10.3281250000,1,2.8318181038,,,
10.3437500000,1,2.3130800724,,,
10.3593750000,1,1.6834410429,,,
10.3750000000,1,0.9765625000,,,
10.3906250000,1,0.2414246053,,,
10.4062500000,1,-0.4738464057,,,
10.4218750000,1,-1.1066889763,,,
10.4375000000,1,-1.6064759493,,,
10.4531250000,1,-1.9285579920,,,
10.4687500000,1,-2.0462949276,,,
10.4843750000,1,-1.9854429960,,,
10.5000000000,1,-1.8118289709,,,
10.5156250000,1,-1.6276860237,,,
10.5312500000,1,-1.5466610193,,,
10.5468750000,1,-1.6372989416,,,
10.5625000000,1,-1.8916929960,,,
10.5781250000,1,-2.2234189510,,,
10.5937500000,1,-2.4886169434,,,
10.6093750000,1,-2.5742800236,,,
10.6250000000,1,-2.4492189884,,,
10.6406250000,1,-2.1862180233,,,
10.6562500000,1,-1.9087220430,,,
10.6718750000,1,-1.7279969454,,,
10.6875000000,1,-1.6720279455,,,
10.7031250000,1,-1.6713869572,,,
10.7187500000,1,-1.6138000488,,,
10.7343750000,1,-1.4126280546,,,
10.7500000000,1,-1.0617369413,,,
10.7656250000,1,-0.6404724121,,,
10.7812500000,1,-0.2673034966,,,
10.7968750000,1,-0.0161132794,,,
10.8125000000,1,0.0935363770,,,
10.8281250000,1,0.1026000977,,,
10.8437500000,1,0.0489196815,,,
10.8593750000,1,-0.0549316406,,,
10.8750000000,1,-0.2306824028,,,
10.8906250000,1,-0.4753417969,,,
10.9062500000,1,-0.7406920791,,,
10.9218750000,1,-0.9324036241,,,
10.9375000000,1,-0.9877318740,,,
10.9531250000,1,-0.9069519043,,,
10.9687500000,1,-0.7669677734,,,
10.9843750000,1,-0.6655883789,,,
11.0000000000,1,-0.6564636230,,,
11.0156250000,1,-0.6938781738,,,
11.0312500000,1,-0.6587830186,,,
11.0468750000,1,-0.4331665039,,,
11.0625000000,1,0.0131530799,,,
11.0781250000,1,0.5811768174,,,
11.0937500000,1,1.1091920137,,,
11.1093750000,1,1.4405820370,,,
11.1250000000,1,1.5129389763,,,
11.1406250000,1,1.3575439453,,,
11.1562500000,1,1.0756230354,,,
11.1718750000,1,0.7593994141,,,
11.1875000000,1,0.4611816108,,,
11.2031250000,1,0.1869812012,,,
11.2187500000,1,-0.0751037598,,,
11.2343750000,1,-0.3230895996,,,
11.2500000000,1,-0.5325012207,,,
11.2656250000,1,-0.6698914170,,,
11.2812500000,1,-0.7261657715,,,
11.2968750000,1,-0.7195739746,,,
11.3125000000,1,-0.6958007813,,,
11.3281250000,1,-0.6867980957,,,
11.3437500000,1,-0.6915283203,,,
11.3593750000,1,-0.6611328125,,,
11.3750000000,1,-0.5431823730,,,
11.3906250000,1,-0.3135986030,,,
11.4062500000,1,-0.0187072791,,,
11.4218750000,1,0.2565307915,,,
11.4375000000,1,0.4036864936,,,
11.4531250000,1,0.3623962104,,,
11.4687500000,1,0.1411437988,,,
11.4843750000,1,-0.1828307956,,,
11.5000000000,1,-0.5067749023,,,
11.5156250000,1,-0.7444152832,,,
11.5312500000,1,-0.8585205078,,,
11.5468750000,1,-0.8644713759,,,
11.5625000000,1,-0.8171082139,,,
11.5781250000,1,-0.7780457139,,,
11.5937500000,1,-0.8035582900,,,
11.6093750000,1,-0.9194641113,,,
11.6250000000,1,-1.1044919491,,,
11.6406250000,1,-1.3224489689,,,
11.6562500000,1,-1.5044250488,,,
11.6718750000,1,-1.5838619471,,,
11.6875000000,1,-1.4904479980,,,
11.7031250000,1,-1.1921080351,,,
11.7187500000,1,-0.7008972168,,,
11.7343750000,1,-0.0863342285,,,
11.7500000000,1,0.5463562012,,,
11.7656250000,1,1.0805660486,,,
11.7812500000,1,1.4490050077,,,
11.7968750000,1,1.6474909782,,,
11.8125000000,1,1.7258609533,,,
11.8281250000,1,1.7542109489,,,
11.8437500000,1,1.7633359432,,,
11.8593750000,1,1.7179869413,,,
11.8750000000,1,1.5632319450,,,
11.8906250000,1,1.2663270235,,,
11.9062500000,1,0.8638306260,,,
11.9218750000,1,0.4672546089,,,
11.9375000000,1,0.1882628947,,,
11.9531250000,1,0.0673828125,,,
11.9687500000,1,0.0516357385,,,
11.9843750000,1,0.0402221717,,,
12.0000000000,1,-0.0400390588,,,
12.0156250000,1,-0.1627501994,,,
12.0312500000,1,-0.2336121053,,,
12.0468750000,1,-0.1421204060,,,
12.0625000000,1,0.1398314983,,,
12.0781250000,1,0.5358275771,,,
12.0937500000,1,0.8910521865,,,
12.1093750000,1,1.0545350313,,,
12.1250000000,1,0.9796752930,,,
12.1406250000,1,0.7236937881,,,
12.1562500000,1,0.4267578125,,,
12.1718750000,1,0.2053833008,,,
12.1875000000,1,0.1257324070,,,
12.2031250000,1,0.1757507026,,,
12.2187500000,1,0.2791442871,,,
12.2343750000,1,0.3442383111,,,
12.2500000000,1,0.2973937988,,,
12.2656250000,1,0.0961608887,,,
12.2812500000,1,-0.2493896037,,,
12.2968750000,1,-0.6712340713,,,
12.3125000000,1,-1.0625920296,,,
12.3281250000,1,-1.3047790527,,,
12.3437500000,1,-1.3223570585,,,
12.3593750000,1,-1.1271970272,,,
12.3750000000,1,-0.8168640137,,,
12.3906250000,1,-0.5446776748,,,
12.4062500000,1,-0.4465332031,,,
12.4218750000,1,-0.5938416123,,,
12.4375000000,1,-0.9420775771,,,
12.4531250000,1,-1.3658449650,,,
12.4687500000,1,-1.7153320313,,,
12.4843750000,1,-1.8732299805,,,
12.5000000000,1,-1.8066409826,,,
12.5156250000,1,-1.5379639864,,,
12.5312500000,1,-1.1313170195,,,
12.5468750000,1,-0.6359252930,,,
12.5625000000,1,-0.0791625977,,,
12.5781250000,1,0.5192260742,,,
12.5937500000,1,1.1232600212,,,
12.6093750000,1,1.6705019474,,,
12.6250000000,1,2.0986020565,,,
12.6406250000,1,2.3679809570,,,
12.6562500000,1,2.4851989746,,,
12.6718750000,1,2.4760739803,,,
12.6875000000,1,2.3528439999,,,
12.7031250000,1,2.1025390625,,,
12.7187500000,1,1.6941219568,,,
12.7343750000,1,1.1159670353,,,
12.7500000000,1,0.4447937012,,,
12.7656250000,1,-0.1677245945,,,
12.7812500000,1,-0.5418395996,,,
12.7968750000,1,-0.5702819824,,,
12.8125000000,1,-0.2926025093,,,
12.8281250000,1,0.1110534966,,,
12.8437500000,1,0.4134216011,,,
12.8593750000,1,0.4436340034,,,
12.8750000000,1,0.1854857951,,,
12.8906250000,1,-0.2344055027,,,
12.9062500000,1,-0.6238098145,,,
12.9218750000,1,-0.8290100098,,,
12.9375000000,1,-0.7968750000,,,
12.9531250000,1,-0.5847473145,,,
12.9687500000,1,-0.3045653999,,,
12.9843750000,1,-0.0599060096,,,
13.0000000000,1,0.0798034668,,,
13.0156250000,1,0.0885620117,,,
13.0312500000,1,-0.0469360389,,,
13.0468750000,1,-0.3328247070,,,
13.0625000000,1,-0.7492980957,,,
13.0781250000,1,-1.2292180061,,,
13.0937500000,1,-1.6472469568,,,
13.1093750000,1,-1.8700870275,,,
13.1250000000,1,-1.8016049862,,,
13.1406250000,1,-1.4507449865,,,
13.1562500000,1,-0.9161682129,,,
13.1718750000,1,-0.3587341011,,,
13.1875000000,1,0.0606994592,,,
13.2031250000,1,0.2574768066,,,
13.2187500000,1,0.2393188030,,,
13.2343750000,1,0.0728454590,,,
13.2500000000,1,-0.1116942987,,,
13.2656250000,1,-0.2010498047,,,
13.2812500000,1,-0.1104736030,,,
13.2968750000,1,0.1995238960,,,
13.3125000000,1,0.6954650879,,,
13.3281250000,1,1.2662349939,,,
13.3437500000,1,1.7632449865,,,
13.3593750000,1,2.0434269905,,,
13.3750000000,1,2.0186460018,,,
13.3906250000,1,1.7135930061,,,
13.4062500000,1,1.2349239588,,,
13.4218750000,1,0.7276917100,,,
13.4375000000,1,0.3066711128,,,
13.4531250000,1,0.0230407696,,,
13.4687500000,1,-0.1413269043,,,
13.4843750000,1,-0.2337951958,,,
13.5000000000,1,-0.2961730957,,,
13.5156250000,1,-0.3586426079,,,
13.5312500000,1,-0.4189147949,,,
13.5468750000,1,-0.4912109077,,,
13.5625000000,1,-0.5941162109,,,
13.5781250000,1,-0.7436218262,,,
13.5937500000,1,-0.9382628798,,,
13.6093750000,1,-1.1529239416,,,
13.6250000000,1,-1.3462519646,,,
13.6406250000,1,-1.4940799475,,,
13.6562500000,1,-1.5746150017,,,
13.6718750000,1,-1.5763239861,,,
13.6875000000,1,-1.5119930506,,,
13.7031250000,1,-1.3988649845,,,
13.7187500000,1,-1.2687070370,,,
13.7343750000,1,-1.1802370548,,,
13.7500000000,1,-1.1587519646,,,
13.7656250000,1,-1.1921689510,,,
13.7812500000,1,-1.2261049747,,,
13.7968750000,1,-1.1901860237,,,
13.8125000000,1,-1.0429379940,,,
13.8281250000,1,-0.8219298720,,,
13.8437500000,1,-0.6404418945,,,
13.8593750000,1,-0.6172180176,,,
13.8750000000,1,-0.8356018066,,,
13.8906250000,1,-1.2633060217,,,
13.9062500000,1,-1.7855219841,,,
13.9218750000,1,-2.2596740723,,,
13.9375000000,1,-2.5852050781,,,
13.9531250000,1,-2.7291870117,,,
13.9687500000,1,-2.7061159611,,,
13.9843750000,1,-2.5346369743,,,
14.0000000000,1,-2.2088620663,,,
14.0156250000,1,-1.7230830193,,,
14.0312500000,1,-1.0531619787,,,
14.0468750000,1,-0.2225037068,,,
14.0625000000,1,0.7123413086,,,
14.0781250000,1,1.6694339514,,,
14.0937500000,1,2.5602109432,,,
14.1093750000,1,3.3245539665,,,
14.1250000000,1,3.9300839901,,,
14.1406250000,1,4.3875432014,,,
14.1562500000,1,4.7264099121,,,
14.1718750000,1,4.9926447868,,,
14.1875000000,1,5.2182621956,,,
14.2031250000,1,5.4076228142,,,
14.2187500000,1,5.5335078239,,,
14.2343750000,1,5.5197448730,,,
14.2500000000,1,5.2880249023,,,
14.2656250000,1,4.7757868767,,,
14.2812500000,1,3.9891049862,,,
14.2968750000,1,2.9914250374,,,
14.3125000000,1,1.9152220488,,,
14.3281250000,1,0.9098815918,,,
14.3437500000,1,0.1125793010,,,
14.3593750000,1,-0.3908385932,,,
14.3750000000,1,-0.5956726074,,,
14.3906250000,1,-0.5474854112,,,
14.4062500000,1,-0.3321838081,,,
14.4218750000,1,-0.0342102088,,,
14.4375000000,1,0.2617492974,,,
14.4531250000,1,0.4801636040,,,
14.4687500000,1,0.5422058105,,,
14.4843750000,1,0.3869628906,,,
14.5000000000,1,0.0014648440,,,
14.5156250000,1,-0.5700073242,,,
14.5312500000,1,-1.2142640352,,,
14.5468750000,1,-1.8045959473,,,
14.5625000000,1,-2.2355039120,,,
14.5781250000,1,-2.4698491096,,,
14.5937500000,1,-2.5375978947,,,
14.6093750000,1,-2.4926450253,,,
14.6250000000,1,-2.3867189884,,,
14.6406250000,1,-2.2438659668,,,
14.6562500000,1,-2.0842590332,,,
14.6718750000,1,-1.9363399744,,,
14.6875000000,1,-1.8456120491,,,
14.7031250000,1,-1.8388060331,,,
14.7187500000,1,-1.8965450525,,,
14.7343750000,1,-1.9515080452,,,
14.7500000000,1,-1.9141540527,,,
14.7656250000,1,-1.7520140409,,,
14.7812500000,1,-1.4967960119,,,
14.7968750000,1,-1.2344969511,,,
14.8125000000,1,-1.0172419548,,,
14.8281250000,1,-0.8255919814,,,
14.8437500000,1,-0.5789794922,,,
14.8593750000,1,-0.2130737007,,,
14.8750000000,1,0.2489318997,,,
14.8906250000,1,0.6682128906,,,
14.9062500000,1,0.8767700195,,,
14.9218750000,1,0.7820128798,,,
14.9375000000,1,0.4392090142,,,
14.9531250000,1,0.0385131799,,,
14.9687500000,1,-0.2139281929,,,
14.9843750000,1,-0.2124329060,,,
15.0000000000,1,-0.0137939500,,,
15.0156250000,1,0.2164611965,,,
15.0312500000,1,0.3237915039,,,
15.0468750000,1,0.2488708049,,,
15.0625000000,1,0.0455932617,,,
15.0781250000,1,-0.1715393066,,,
15.0937500000,1,-0.3145751953,,,
15.1093750000,1,-0.3716430962,,,
15.1250000000,1,-0.3770751953,,,
15.1406250000,1,-0.3785705864,,,
15.1562500000,1,-0.3733215034,,,
15.1718750000,1,-0.3276062012,,,
15.1875000000,1,-0.1933289021,,,
15.2031250000,1,0.0442199707,,,
15.2187500000,1,0.3480224907,,,
15.2343750000,1,0.6316832900,,,
15.2500000000,1,0.7985839844,,,
15.2656250000,1,0.7724915147,,,
15.2812500000,1,0.5313109756,,,
15.2968750000,1,0.1147461012,,,
15.3125000000,1,-0.3866577148,,,
15.3281250000,1,-0.8502501845,,,
15.3437500000,1,-1.1608580351,,,
15.3593750000,1,-1.2582089901,,,
15.3750000000,1,-1.1454160213,,,
15.3906250000,1,-0.9104918838,,,
15.4062500000,1,-0.6669921875,,,
15.4218750000,1,-0.5110778809,,,
15.4375000000,1,-0.4915770888,,,
15.4531250000,1,-0.5968018174,,,
15.4687500000,1,-0.7599486709,,,
15.4843750000,1,-0.8904724121,,,
15.5000000000,1,-0.8907470703,,,
15.5156250000,1,-0.6871643066,,,
15.5312500000,1,-0.2466430962,,,
15.5468750000,1,0.3969421089,,,
15.5625000000,1,1.1169739962,,,
15.5781250000,1,1.7517089844,,,
15.5937500000,1,2.1560359001,,,
15.6093750000,1,2.2633669376,,,
15.6250000000,1,2.1131899357,,,
15.6406250000,1,1.8183590174,,,
15.6562500000,1,1.5165710449,,,
15.6718750000,1,1.2905269861,,,
15.6875000000,1,1.1607969999,,,
15.7031250000,1,1.0658260584,,,
15.7187500000,1,0.9306945801,,,
15.7343750000,1,0.7034301758,,,
15.7500000000,1,0.3793030083,,,
15.7656250000,1,-0.0077209468,,,
15.7812500000,1,-0.3913879097,,,
15.7968750000,1,-0.6945496202,,,
15.8125000000,1,-0.8315430284,,,
15.8281250000,1,-0.7434082031,,,
15.8437500000,1,-0.4341736138,,,
15.8593750000,1,0.0149841299,,,
15.8750000000,1,0.4753113091,,,
15.8906250000,1,0.8010864258,,,
15.9062500000,1,0.9084166884,,,
15.9218750000,1,0.8019104004,,,
15.9375000000,1,0.5675048828,,,
15.9531250000,1,0.3219909966,,,
15.9687500000,1,0.1742859036,,,
15.9843750000,1,0.1761779934,,,
16.0000000000,2,0.3100891113,,,
16.0156250000,2,0.5073546767,,,
16.0312500000,2,0.6893004775,,,
16.0468750000,2,0.8106079102,,,
16.0625000000,2,0.8662108779,,,
16.0781250000,2,0.8793640137,,,
16.0937500000,2,0.8742371202,,,
16.1093750000,2,0.8615111709,,,
16.1250000000,2,0.8339232802,,,
16.1406250000,2,0.7720947266,,,
16.1562500000,2,0.6713867188,,,
16.1718750000,2,0.5318604112,,,
16.1875000000,2,0.3800658882,,,
16.2031250000,2,0.2466125041,,,
16.2187500000,2,0.1679687947,,,
16.2343750000,2,0.1774291992,,,
16.2500000000,2,0.3008117974,,,
16.2656250000,2,0.5426940918,,,
16.2812500000,2,0.8612670898,,,
16.2968750000,2,1.1552120447,,,
16.3125000000,2,1.3012390137,,,
16.3281250000,2,1.2103580236,,,
16.3437500000,2,0.8796997070,,,
16.3593750000,2,0.3968200982,,,
16.3750000000,2,-0.0937500000,,,
16.3906250000,2,-0.4682312012,,,
16.4062500000,2,-0.6807250977,,,
16.4218750000,2,-0.7618712783,,,
16.4375000000,2,-0.7647399902,,,
16.4531250000,2,-0.7330626845,,,
16.4687500000,2,-0.6614990234,,,
16.4843750000,2,-0.5370178223,,,
16.5000000000,2,-0.3691711128,,,
16.5156250000,2,-0.1994019002,,,
16.5312500000,2,-0.0859985426,,,
16.5468750000,2,-0.0618591309,,,
16.5625000000,2,-0.1170653999,,,
16.5781250000,2,-0.2196960002,,,
16.5937500000,2,-0.3492737114,,,
16.6093750000,2,-0.5002440810,,,
16.6250000000,2,-0.6912537217,,,
16.6406250000,2,-0.9305725098,,,
16.6562500000,2,-1.2061460018,,,
16.6718750000,2,-1.4726560116,,,
16.6875000000,2,-1.6885069609,,,
16.7031250000,2,-1.8410340548,,,
16.7187500000,2,-1.9535520077,,,
16.7343750000,2,-2.0635380745,,,
16.7500000000,2,-2.1929318905,,,
16.7656250000,2,-2.3388669491,,,
16.7812500000,2,-2.4880681038,,,
16.7968750000,2,-2.6219789982,,,
16.8125000000,2,-2.7167050838,,,
16.8281250000,2,-2.7358698845,,,
16.8437500000,2,-2.6051940918,,,
16.8593750000,2,-2.2386469841,,,
16.8750000000,2,-1.5814210176,,,
16.8906250000,2,-0.6605529785,,,
16.9062500000,2,0.4017029107,,,
16.9218750000,2,1.4148859978,,,
16.9375000000,2,2.1947019100,,,
16.9531250000,2,2.6327509880,,,
16.9687500000,2,2.7299499512,,,
16.9843750000,2,2.5826721191,,,
17.0000000000,2,2.3089289665,,,
17.0156250000,2,1.9997559786,,,
17.0312500000,2,1.6649479866,,,
17.0468750000,2,1.2696529627,,,
17.0625000000,2,0.7888793945,,,
17.0781250000,2,0.2502441108,,,
17.0937500000,2,-0.2677307129,,,
17.1093750000,2,-0.6603394151,,,
17.1250000000,2,-0.8583374023,,,
17.1406250000,2,-0.8496704102,,,
17.1562500000,2,-0.7008057237,,,
17.1718750000,2,-0.5114135742,,,
17.1875000000,2,-0.3698729873,,,
17.2031250000,2,-0.3242188096,,,
17.2187500000,2,-0.3742065132,,,
17.2343750000,2,-0.4858703911,,,
17.2500000000,2,-0.6144409180,,,
17.2656250000,2,-0.7197266221,,,
17.2812500000,2,-0.7760009766,,,
17.2968750000,2,-0.7612915039,,,
17.3125000000,2,-0.6611632705,,,
17.3281250000,2,-0.4714049995,,,
17.3437500000,2,-0.2027893066,,,
17.3593750000,2,0.1155090034,,,
17.3750000000,2,0.4490356147,,,
17.3906250000,2,0.7712708116,,,
17.4062500000,2,1.0618289709,,,
17.4218750000,2,1.3076479435,,,
17.4375000000,2,1.4776309729,,,
17.4531250000,2,1.5478520393,,,
17.4687500000,2,1.5018620491,,,
17.4843750000,2,1.3676450253,,,
17.5000000000,2,1.2025760412,,,
17.5156250000,2,1.0786739588,,,
17.5312500000,2,1.0376590490,,,
17.5468750000,2,1.0729980469,,,
17.5625000000,2,1.1430970430,,,
17.5781250000,2,1.1879580021,,,
17.5937500000,2,1.1881099939,,,
17.6093750000,2,1.1570429802,,,
17.6250000000,2,1.1379699707,,,
17.6406250000,2,1.1663819551,,,
17.6562500000,2,1.2280880213,,,
17.6718750000,2,1.2616579533,,,
17.6875000000,2,1.1936650276,,,
17.7031250000,2,0.9868773818,,,
17.7187500000,2,0.6710205078,,,
17.7343750000,2,0.3431091011,,,
17.7500000000,2,0.1046447977,,,
17.7656250000,2,0.0200195294,,,
17.7812500000,2,0.0755615234,,,
17.7968750000,2,0.1980895996,,,
17.8125000000,2,0.2861328125,,,
17.8281250000,2,0.2572020888,,,
17.8437500000,2,0.0997314528,,,
17.8593750000,2,-0.1464844048,,,
17.8750000000,2,-0.3952026069,,,
17.8906250000,2,-0.5610045791,,,
17.9062500000,2,-0.5984802246,,,
17.9218750000,2,-0.4973450005,,,
17.9375000000,2,-0.3064880073,,,
17.9531250000,2,-0.0833435133,,,
17.9687500000,2,0.0968322828,,,
17.9843750000,2,0.1790160984,,,
18.0000000000,2,0.1367798001,,,
18.0156250000,2,-0.0211486798,,,
18.0312500000,2,-0.2436829060,,,
18.0468750000,2,-0.4752807915,,,
18.0625000000,2,-0.6454467773,,,
18.0781250000,2,-0.7279052734,,,
18.0937500000,2,-0.7226563096,,,
18.1093750000,2,-0.6720581055,,,
18.1250000000,2,-0.6402893066,,,
18.1406250000,2,-0.6993712783,,,
18.1562500000,2,-0.8732910156,,,
18.1718750000,2,-1.1533809900,,,
18.1875000000,2,-1.4926760197,,,
18.2031250000,2,-1.7975460291,,,
18.2187500000,2,-1.9914549589,,,
18.2343750000,2,-2.0058290958,,,
18.2500000000,2,-1.8202209473,,,
18.2656250000,2,-1.4466550350,,,
18.2812500000,2,-0.9418640137,,,
18.2968750000,2,-0.3865967095,,,
18.3125000000,2,0.1446228027,,,
18.3281250000,2,0.5910645127,,,
18.3437500000,2,0.9430847168,,,
18.3593750000,2,1.2145999670,,,
18.3750000000,2,1.4459530115,,,
18.3906250000,2,1.6691889763,,,
18.4062500000,2,1.8633730412,,,
18.4218750000,2,1.9836119413,,,
18.4375000000,2,1.9614559412,,,
18.4531250000,2,1.7538449764,,,
18.4687500000,2,1.3670959473,,,
18.4843750000,2,0.8767700195,,,
18.5000000000,2,0.3895874023,,,
18.5156250000,2,0.0164794903,,,
18.5312500000,2,-0.1762389988,,,
18.5468750000,2,-0.2085876018,,,
18.5625000000,2,-0.1617431939,,,
18.5781250000,2,-0.1582642049,,,
18.5937500000,2,-0.2963866889,,,
18.6093750000,2,-0.6142882705,,,
18.6250000000,2,-1.0450129509,,,
18.6406250000,2,-1.4660340548,,,
18.6562500000,2,-1.7342220545,,,
18.6718750000,2,-1.7574160099,,,
18.6875000000,2,-1.5427550077,,,
18.7031250000,2,-1.1699830294,,,
18.7187500000,2,-0.7523192763,,,
18.7343750000,2,-0.4001159966,,,
18.7500000000,2,-0.1645202935,,,
18.7656250000,2,-0.0505981408,,,
18.7812500000,2,-0.0323181190,,,
18.7968750000,2,-0.0895996094,,,
18.8125000000,2,-0.2183227986,,,
18.8281250000,2,-0.4201659858,,,
18.8437500000,2,-0.6795043945,,,
18.8593750000,2,-0.9602965713,,,
18.8750000000,2,-1.2153630257,,,
18.8906250000,2,-1.3963619471,,,
18.9062500000,2,-1.4767149687,,,
18.9218750000,2,-1.4523619413,,,
18.9375000000,2,-1.3319699764,,,
18.9531250000,2,-1.1195369959,,,
18.9687500000,2,-0.8203734756,,,
18.9843750000,2,-0.4443359077,,,
19.0000000000,2,-0.0119934101,,,
19.0156250000,2,0.4450378120,,,
19.0312500000,2,0.8932189941,,,
19.0468750000,2,1.3063960075,,,
19.0625000000,2,1.6629329920,,,
19.0781250000,2,1.9353640079,,,
19.0937500000,2,2.0943300724,,,
19.1093750000,2,2.0831599236,,,
19.1250000000,2,1.8605959415,,,
19.1406250000,2,1.4337769747,,,
19.1562500000,2,0.8710021973,,,
19.1718750000,2,0.3063353896,,,
19.1875000000,2,-0.1015625000,,,
19.2031250000,2,-0.2518311143,,,
19.2187500000,2,-0.1312866062,,,
19.2343750000,2,0.1553954929,,,
19.2500000000,2,0.4622192085,,,
19.2656250000,2,0.6503295898,,,
19.2812500000,2,0.6676940918,,,
19.2968750000,2,0.5430297852,,,
19.3125000000,2,0.3486633003,,,
19.3281250000,2,0.1415099949,,,
19.3437500000,2,-0.0765380934,,,
19.3593750000,2,-0.3276978135,,,
19.3750000000,2,-0.6256104112,,,
19.3906250000,2,-0.9342041016,,,
19.4062500000,2,-1.1632080078,,,
19.4218750000,2,-1.2258299589,,,
19.4375000000,2,-1.1025090218,,,
19.4531250000,2,-0.8681334853,,,
19.4687500000,2,-0.6460266113,,,
19.4843750000,2,-0.5507202148,,,
19.5000000000,2,-0.5924987793,,,
19.5156250000,2,-0.6856688857,,,
19.5312500000,2,-0.7094116211,,,
19.5468750000,2,-0.5848082900,,,
19.5625000000,2,-0.3346252143,,,
19.5781250000,2,-0.0656433105,,,
19.5937500000,2,0.1129150018,,,
19.6093750000,2,0.1452331990,,,
19.6250000000,2,0.0533752404,,,
19.6406250000,2,-0.0475769006,,,
19.6562500000,2,-0.0352783203,,,
19.6718750000,2,0.1549683064,,,
19.6875000000,2,0.5157775879,,,
19.7031250000,2,0.9602661133,,,
19.7187500000,2,1.3892209530,,,
19.7343750000,2,1.7031559944,,,
19.7500000000,2,1.8651429415,,,
19.7656250000,2,1.8604429960,,,
19.7812500000,2,1.7023320198,,,
19.7968750000,2,1.4087220430,,,
19.8125000000,2,1.0140689611,,,
19.8281250000,2,0.5967407227,,,
19.8437500000,2,0.2507019043,,,
19.8593750000,2,0.0777282715,,,
19.8750000000,2,0.1274109036,,,
19.8906250000,2,0.3488770127,,,
19.9062500000,2,0.6055297852,,,
19.9218750000,2,0.7262268066,,,
19.9375000000,2,0.5996704102,,,
19.9531250000,2,0.2337951958,,,
19.9687500000,2,-0.2289429009,,,
19.9843750000,2,-0.6016845703,,,
20.0000000000,2,-0.7391967773,,,
20.0156250000,2,-0.6321411133,,,
20.0312500000,2,-0.3865661919,,,
20.0468750000,2,-0.1640625000,,,
20.0625000000,2,-0.0924377367,,,
20.0781250000,2,-0.2153014988,,,
20.0937500000,2,-0.4753723145,,,
20.1093750000,2,-0.7731627822,,,
20.1250000000,2,-1.0361629725,,,
20.1406250000,2,-1.2292180061,,,
20.1562500000,2,-1.3588869572,,,
20.1718750000,2,-1.4379880428,,,
20.1875000000,2,-1.4702450037,,,
20.2031250000,2,-1.4360959530,,,
20.2187500000,2,-1.3080140352,,,
20.2343750000,2,-1.1010739803,,,
20.2500000000,2,-0.8616942763,,,
20.2656250000,2,-0.6680908203,,,
20.2812500000,2,-0.5670471191,,,
20.2968750000,2,-0.5600280762,,,
20.3125000000,2,-0.5763245225,,,
20.3281250000,2,-0.4999389946,,,
20.3437500000,2,-0.2492675930,,,
20.3593750000,2,0.1785278022,,,
20.3750000000,2,0.7044373155,,,
20.3906250000,2,1.1959530115,,,
20.4062500000,2,1.5162349939,,,
20.4218750000,2,1.6012879610,,,
20.4375000000,2,1.4622189999,,,
20.4531250000,2,1.1819150448,,,
20.4687500000,2,0.8807982802,,,
20.4843750000,2,0.6585388184,,,
20.5000000000,2,0.5800170898,,,
20.5156250000,2,0.6443480849,,,
20.5312500000,2,0.8043518066,,,
20.5468750000,2,0.9866638184,,,
20.5625000000,2,1.1206049919,,,
20.5781250000,2,1.1561889648,,,
20.5937500000,2,1.0773320198,,,
20.6093750000,2,0.9049376845,,,
20.6250000000,2,0.6922606826,,,
20.6406250000,2,0.4947510064,,,
20.6562500000,2,0.3405762017,,,
20.6718750000,2,0.2429199070,,,
20.6875000000,2,0.1591491997,,,
20.7031250000,2,0.0358276404,,,
20.7187500000,2,-0.1813049018,,,
20.7343750000,2,-0.5104370117,,,
20.7500000000,2,-0.9331665039,,,
20.7656250000,2,-1.4024349451,,,
20.7812500000,2,-1.8610839844,,,
20.7968750000,2,-2.2814030647,,,
20.8125000000,2,-2.6483459473,,,
20.8281250000,2,-2.9429628849,,,
20.8437500000,2,-3.1217648983,,,
20.8593750000,2,-3.1221311092,,,
20.8750000000,2,-2.9017639160,,,
20.8906250000,2,-2.4662170410,,,
20.9062500000,2,-1.8996579647,,,
20.9218750000,2,-1.3153079748,,,
20.9375000000,2,-0.8117064834,,,
20.9531250000,2,-0.4248656929,,,
20.9687500000,2,-0.1247558966,,,
20.9843750000,2,0.1589049995,,,
21.0000000000,2,0.4849242866,,,
21.0156250000,2,0.8958740234,,,
21.0312500000,2,1.3754580021,,,
21.0468750000,2,1.8789670467,,,
21.0625000000,2,2.3310239315,,,
21.0781250000,2,2.6514279842,,,
21.0937500000,2,2.7652890682,,,
21.1093750000,2,2.6347959042,,,
21.1250000000,2,2.2774960995,,,
21.1406250000,2,1.7675479650,,,
21.1562500000,2,1.2025150061,,,
21.1718750000,2,0.6953430176,,,
21.1875000000,2,0.3256531060,,,
21.2031250000,2,0.1271362007,,,
21.2187500000,2,0.0780944824,,,
21.2343750000,2,0.1299743950,,,
21.2500000000,2,0.2030944973,,,
21.2656250000,2,0.2264709026,,,
21.2812500000,2,0.1612854004,,,
21.2968750000,2,0.0082092294,,,
21.3125000000,2,-0.1916808933,,,
21.3281250000,2,-0.3696593940,,,
21.3437500000,2,-0.4691162109,,,
21.3593750000,2,-0.4521484077,,,
21.3750000000,2,-0.3199158013,,,
21.3906250000,2,-0.1054992974,,,
21.4062500000,2,0.1296997070,,,
21.4218750000,2,0.2998046875,,,
21.4375000000,2,0.3124389946,,,
21.4531250000,2,0.1059570014,,,
21.4687500000,2,-0.3141478896,,,
21.4843750000,2,-0.8440856934,,,
21.5000000000,2,-1.3390810490,,,
21.5156250000,2,-1.6534119844,,,
21.5312500000,2,-1.7423399687,,,
21.5468750000,2,-1.6671450138,,,
21.5625000000,2,-1.5450129509,,,
21.5781250000,2,-1.4775700569,,,
21.5937500000,2,-1.4755860567,,,
21.6093750000,2,-1.4728389978,,,
21.6250000000,2,-1.3709410429,,,
21.6406250000,2,-1.1303410530,,,
21.6562500000,2,-0.7923278809,,,
21.6718750000,2,-0.4485473931,,,
21.6875000000,2,-0.1650695950,,,
21.7031250000,2,0.0609741211,,,
21.7187500000,2,0.2851257026,,,
21.7343750000,2,0.5734863281,,,
21.7500000000,2,0.9581604004,,,
21.7656250000,2,1.3939820528,,,
21.7812500000,2,1.7996220589,,,
21.7968750000,2,2.1046450138,,,
21.8125000000,2,2.2621769905,,,
21.8281250000,2,2.2892758846,,,
21.8437500000,2,2.2256770134,,,
21.8593750000,2,2.1041870117,,,
21.8750000000,2,1.9391479492,,,
21.8906250000,2,1.7262270451,,,
21.9062500000,2,1.4599000216,,,
21.9218750000,2,1.1451109648,,,
21.9375000000,2,0.7986145020,,,
21.9531250000,2,0.4311828911,,,
21.9687500000,2,0.0502014197,,,
21.9843750000,2,-0.3334350884,,,
22.0000000000,2,-0.7055053711,,,
22.0156250000,2,-1.0369570255,,,
22.0312500000,2,-1.2855219841,,,
22.0468750000,2,-1.4357910156,,,
22.0625000000,2,-1.4980159998,,,
22.0781250000,2,-1.5227359533,,,
22.0937500000,2,-1.5570069551,,,
22.1093750000,2,-1.6274720430,,,
22.1250000000,2,-1.6972049475,,,
22.1406250000,2,-1.7095639706,,,
22.1562500000,2,-1.6170350313,,,
22.1718750000,2,-1.4449770451,,,
22.1875000000,2,-1.2799379826,,,
22.2031250000,2,-1.2203370333,,,
22.2187500000,2,-1.2983089685,,,
22.2343750000,2,-1.4577640295,,,
22.2500000000,2,-1.5691219568,,,
22.2656250000,2,-1.5291140079,,,
22.2812500000,2,-1.3177490234,,,
22.2968750000,2,-1.0071719885,,,
22.3125000000,2,-0.7198181152,,,
22.3281250000,2,-0.5360106826,,,
22.3437500000,2,-0.4464111030,,,
22.3593750000,2,-0.3865661919,,,
22.3750000000,2,-0.3024902046,,,
22.3906250000,2,-0.1868591011,,,
22.4062500000,2,-0.0719909668,,,
22.4218750000,2,-0.0023498540,,,
22.4375000000,2,0.0167541504,,,
22.4531250000,2,0.0158386193,,,
22.4687500000,2,0.0223999005,,,
22.4843750000,2,0.0359191895,,,
22.5000000000,2,0.0092163086,,,
22.5156250000,2,-0.1077575982,,,
22.5312500000,2,-0.3052979112,,,
22.5468750000,2,-0.5054016113,,,
22.5625000000,2,-0.5804138184,,,
22.5781250000,2,-0.4178467095,,,
22.5937500000,2,0.0200195294,,,
22.6093750000,2,0.6759337783,,,
22.6250000000,2,1.4406130314,,,
22.6406250000,2,2.1975400448,,,
22.6562500000,2,2.8616640568,,,
22.6718750000,2,3.3918149471,,,
22.6875000000,2,3.7715759277,,,
22.7031250000,2,3.9798278809,,,
22.7187500000,2,3.9960629940,,,
22.7343750000,2,3.8119809628,,,
22.7500000000,2,3.4460749626,,,
22.7656250000,2,2.9579470158,,,
22.7812500000,2,2.4290471077,,,
22.7968750000,2,1.9335329533,,,
22.8125000000,2,1.5098270178,,,
22.8281250000,2,1.1467900276,,,
22.8437500000,2,0.8073425293,,,
22.8593750000,2,0.4643554986,,,
22.8750000000,2,0.1129456013,,,
22.8906250000,2,-0.2216797024,,,
22.9062500000,2,-0.4917297065,,,
22.9218750000,2,-0.6403809190,,,
22.9375000000,2,-0.6430358887,,,
22.9531250000,2,-0.5145264268,,,
22.9687500000,2,-0.3179320991,,,
22.9843750000,2,-0.1594237983,,,
23.0000000000,2,-0.1604004055,,,
23.0156250000,2,-0.3987731934,,,
23.0312500000,2,-0.8713684082,,,
23.0468750000,2,-1.4690250158,,,
23.0625000000,2,-2.0104060173,,,
23.0781250000,2,-2.3273010254,,,
23.0937500000,2,-2.3133239746,,,
23.1093750000,2,-1.9786380529,,,
23.1250000000,2,-1.4172060490,,,
23.1406250000,2,-0.7472534180,,,
23.1562500000,2,-0.0822448730,,,
23.1718750000,2,0.4953002930,,,
23.1875000000,2,0.9092102051,,,
23.2031250000,2,1.0764770508,,,
23.2187500000,2,0.9229431152,,,
23.2343750000,2,0.4481812119,,,
23.2500000000,2,-0.2562865913,,,
23.2656250000,2,-0.9971007705,,,
23.2812500000,2,-1.5503230095,,,
23.2968750000,2,-1.7449040413,,,
23.3125000000,2,-1.5564579964,,,
23.3281250000,2,-1.1021419764,,,
23.3437500000,2,-0.5889893174,,,
23.3593750000,2,-0.2107239068,,,
23.3750000000,2,-0.0470886193,,,
23.3906250000,2,-0.0633544922,,,
23.4062500000,2,-0.1401672065,,,
23.4218750000,2,-0.1430968940,,,
23.4375000000,2,-0.0128479004,,,
23.4531250000,2,0.2058715969,,,
23.4687500000,2,0.4138793945,,,
23.4843750000,2,0.5013123155,,,
23.5000000000,2,0.4245604873,,,
23.5156250000,2,0.2315979004,,,
23.5312500000,2,0.0074768071,,,
23.5468750000,2,-0.1664429009,,,
23.5625000000,2,-0.2628174126,,,
23.5781250000,2,-0.3270569146,,,
23.5937500000,2,-0.4194641113,,,
23.6093750000,2,-0.5663452148,,,
23.6250000000,2,-0.7375183105,,,
23.6406250000,2,-0.8618773818,,,
23.6562500000,2,-0.8859252930,,,
23.6718750000,2,-0.8147583008,,,
23.6875000000,2,-0.7152709961,,,
23.7031250000,2,-0.6679688096,,,
23.7187500000,2,-0.7046204209,,,
23.7343750000,2,-0.7657470703,,,
23.7500000000,2,-0.7377318740,,,
23.7656250000,2,-0.5155333877,,,
23.7812500000,2,-0.0859985426,,,
23.7968750000,2,0.4696044922,,,
23.8125000000,2,1.0278019905,,,
23.8281250000,2,1.4823909998,,,
23.8437500000,2,1.8017879725,,,
23.8593750000,2,1.9955140352,,,
23.8750000000,2,2.0902709961,,,
23.8906250000,2,2.0671689510,,,
23.9062500000,2,1.8780210018,,,
23.9218750000,2,1.4956049919,,,
23.9375000000,2,0.9530944824,,,
23.9531250000,2,0.3494873047,,,
23.9687500000,2,-0.1743468940,,,
23.9843750000,2,-0.5151671767,,,
24.0000000000,3,-0.6448975205,,,
24.0156250000,3,-0.6211547852,,,
24.0312500000,3,-0.5568541884,,,
24.0468750000,3,-0.5403748155,,,
24.0625000000,3,-0.6071472168,,,
24.0781250000,3,-0.7202454209,,,
24.0937500000,3,-0.7857971191,,,
24.1093750000,3,-0.7025452256,,,
24.1250000000,3,-0.4265137017,,,
24.1406250000,3,0.0037841799,,,
24.1562500000,3,0.4634093940,,,
24.1718750000,3,0.8019713759,,,
24.1875000000,3,0.9019165039,,,
24.2031250000,3,0.7690734863,,,
24.2187500000,3,0.5137329102,,,
24.2343750000,3,0.3042908013,,,
24.2500000000,3,0.2463379055,,,
24.2656250000,3,0.3302307129,,,
24.2812500000,3,0.4414063096,,,
24.2968750000,3,0.4206848145,,,
24.3125000000,3,0.1890868992,,,
24.3281250000,3,-0.2130126953,,,
24.3437500000,3,-0.6311951280,,,
24.3593750000,3,-0.8941956162,,,
24.3750000000,3,-0.8948975205,,,
24.3906250000,3,-0.6425781250,,,
24.4062500000,3,-0.2354125977,,,
24.4218750000,3,0.2052001953,,,
24.4375000000,3,0.5805664063,,,
24.4531250000,3,0.8394470215,,,
24.4687500000,3,0.9590759277,,,
24.4843750000,3,0.9270935059,,,
24.5000000000,3,0.7558289170,,,
24.5156250000,3,0.4952392876,,,
24.5312500000,3,0.2296752930,,,
24.5468750000,3,0.0611572303,,,
24.5625000000,3,0.0482177697,,,
24.5781250000,3,0.1612548977,,,
24.5937500000,3,0.2980042100,,,
24.6093750000,3,0.3420715034,,,
24.6250000000,3,0.2225646973,,,
24.6406250000,3,-0.0343933105,,,
24.6562500000,3,-0.3376770020,,,
24.6718750000,3,-0.5789489746,,,
24.6875000000,3,-0.7177429199,,,
24.7031250000,3,-0.7800598145,,,
24.7187500000,3,-0.8452758789,,,
24.7343750000,3,-0.9643555284,,,
24.7500000000,3,-1.1189270020,,,
24.7656250000,3,-1.2420959473,,,
24.7812500000,3,-1.2448430061,,,
24.7968750000,3,-1.0875849724,,,
24.8125000000,3,-0.8104248047,,,
24.8281250000,3,-0.5048522949,,,
24.8437500000,3,-0.2596436143,,,
24.8593750000,3,-0.1117248982,,,
24.8750000000,3,-0.0446472205,,,
24.8906250000,3,-0.0067138672,,,
24.9062500000,3,0.0502014197,,,
24.9218750000,3,0.1454468071,,,
24.9375000000,3,0.2674255073,,,
24.9531250000,3,0.3811950982,,,
24.9687500000,3,0.4732361138,,,
24.9843750000,3,0.5288696289,,,
25.0000000000,3,0.5439453125,,,
25.0156250000,3,0.5087584853,,,
25.0312500000,3,0.4134826958,,,
25.0468750000,3,0.2537231147,,,
25.0625000000,3,0.0592956506,,,
25.0781250000,3,-0.1099854037,,,
25.0937500000,3,-0.1893310994,,,
25.1093750000,3,-0.1357422024,,,
25.1250000000,3,0.0469360389,,,
25.1406250000,3,0.3033446968,,,
25.1562500000,3,0.5445250869,,,
25.1718750000,3,0.7001342773,,,
25.1875000000,3,0.7313842773,,,
25.2031250000,3,0.6698303223,,,
25.2187500000,3,0.5745543838,,,
25.2343750000,3,0.4968872070,,,
25.2500000000,3,0.4497986138,,,
25.2656250000,3,0.3958435059,,,
25.2812500000,3,0.3028869927,,,
25.2968750000,3,0.1719055027,,,
25.3125000000,3,0.0557861291,,,
25.3281250000,3,0.0248107892,,,
25.3437500000,3,0.1032409966,,,
25.3593750000,3,0.2475281060,,,
25.3750000000,3,0.3581848145,,,
25.3906250000,3,0.3427124023,,,
25.4062500000,3,0.1785583049,,,
25.4218750000,3,-0.0734558105,,,
25.4375000000,3,-0.3110961914,,,
25.4531250000,3,-0.4671630859,,,
25.4687500000,3,-0.5394896865,,,
25.4843750000,3,-0.5833435059,,,
25.5000000000,3,-0.6479187012,,,
25.5156250000,3,-0.7320250869,,,
25.5312500000,3,-0.7829895020,,,
25.5468750000,3,-0.7610778809,,,
25.5625000000,3,-0.6694946289,,,
25.5781250000,3,-0.5867003798,,,
25.5937500000,3,-0.6030579209,,,
25.6093750000,3,-0.7612305284,,,
25.6250000000,3,-1.0293270350,,,
25.6406250000,3,-1.3021240234,,,
25.6562500000,3,-1.4850770235,,,
25.6718750000,3,-1.5267939568,,,
25.6875000000,3,-1.4633790255,,,
25.7031250000,3,-1.3639529943,,,
25.7187500000,3,-1.3014830351,,,
25.7343750000,3,-1.2861330509,,,
25.7500000000,3,-1.2731020451,,,
25.7656250000,3,-1.1751710176,,,
25.7812500000,3,-0.8988037109,,,
25.7968750000,3,-0.3977355957,,,
25.8125000000,3,0.2999573052,,,
25.8281250000,3,1.0758670568,,,
25.8437500000,3,1.7548520565,,,
25.8593750000,3,2.1616210938,,,
25.8750000000,3,2.1919560432,,,
25.8906250000,3,1.8526309729,,,
25.9062500000,3,1.2588200569,,,
25.9218750000,3,0.5897216797,,,
25.9375000000,3,0.0011901860,,,
25.9531250000,3,-0.3988341987,,,
25.9687500000,3,-0.5954895020,,,
25.9843750000,3,-0.6195678711,,,
26.0000000000,3,-0.5279235840,,,
26.0156250000,3,-0.3560180962,,,
26.0312500000,3,-0.1282348931,,,
26.0468750000,3,0.1284485012,,,
26.0625000000,3,0.3801575005,,,
26.0781250000,3,0.5757141113,,,
26.0937500000,3,0.6663208008,,,
26.1093750000,3,0.6444702148,,,
26.1250000000,3,0.5368041992,,,
26.1406250000,3,0.4059447944,,,
26.1562500000,3,0.3212584853,,,
26.1718750000,3,0.3159790039,,,
26.1875000000,3,0.3703308105,,,
26.2031250000,3,0.4257202148,,,
26.2187500000,3,0.4028015137,,,
26.2343750000,3,0.2690734863,,,
26.2500000000,3,0.0402831994,,,
26.2656250000,3,-0.2082519978,,,
26.2812500000,3,-0.3895874023,,,
26.2968750000,3,-0.4557189941,,,
26.3125000000,3,-0.4174500108,,,
26.3281250000,3,-0.3225097954,,,
26.3437500000,3,-0.2111510932,,,
26.3593750000,3,-0.1022339016,,,
26.3750000000,3,0.0000305176,,,
26.3906250000,3,0.0872802734,,,
26.4062500000,3,0.1213074028,,,
26.4218750000,3,0.0742797926,,,
26.4375000000,3,-0.0494995117,,,
26.4531250000,3,-0.1571349949,,,
26.4687500000,3,-0.1393126994,,,
26.4843750000,3,0.0802917480,,,
26.5000000000,3,0.4740600884,,,
26.5156250000,3,0.8962097168,,,
26.5312500000,3,1.1528019905,,,
26.5468750000,3,1.0893549919,,,
26.5625000000,3,0.6833190918,,,
26.5781250000,3,0.0597534217,,,
26.5937500000,3,-0.5721129775,,,
26.6093750000,3,-0.9982299805,,,
26.6250000000,3,-1.0935970545,,,
26.6406250000,3,-0.8797606826,,,
26.6562500000,3,-0.4907226861,,,
26.6718750000,3,-0.1427612007,,,
26.6875000000,3,-0.0419006310,,,
26.7031250000,3,-0.3065795898,,,
26.7187500000,3,-0.8924561143,,,
26.7343750000,3,-1.5881350040,,,
26.7500000000,3,-2.0905148983,,,
26.7656250000,3,-2.1411440372,,,
26.7812500000,3,-1.6416319609,,,
26.7968750000,3,-0.7115479112,,,
26.8125000000,3,0.3595885932,,,
26.8281250000,3,1.2488709688,,,
26.8437500000,3,1.7338559628,,,
26.8593750000,3,1.7689210176,,,
26.8750000000,3,1.4687500000,,,
26.8906250000,3,1.0322270393,,,
26.9062500000,3,0.6408690810,,,
26.9218750000,3,0.3960570991,,,
26.9375000000,3,0.2911072075,,,
26.9531250000,3,0.2785339057,,,
26.9687500000,3,0.2998656929,,,
26.9843750000,3,0.3234252930,,,
27.0000000000,3,0.3497313857,,,
27.0156250000,3,0.3822326958,,,
27.0312500000,3,0.4327087104,,,
27.0468750000,3,0.4976500869,,,
27.0625000000,3,0.5827941895,,,
27.0781250000,3,0.7009583116,,,
27.0937500000,3,0.8606873155,,,
27.1093750000,3,1.0579830408,,,
27.1250000000,3,1.2613830566,,,
27.1406250000,3,1.4169919491,,,
27.1562500000,3,1.4769899845,,,
27.1718750000,3,1.4276119471,,,
27.1875000000,3,1.2949219942,,,
27.2031250000,3,1.1275629997,,,
27.2187500000,3,0.9809569716,,,
27.2343750000,3,0.8655396104,,,
27.2500000000,3,0.7581176758,,,
27.2656250000,3,0.6266478896,,,
27.2812500000,3,0.4564513862,,,
27.2968750000,3,0.2672119141,,,
27.3125000000,3,0.0985412598,,,
27.3281250000,3,-0.0227050800,,,
27.3437500000,3,-0.0930481032,,,
27.3593750000,3,-0.1321410984,,,
27.3750000000,3,-0.1712035984,,,
27.3906250000,3,-0.2239380032,,,
27.4062500000,3,-0.2900390923,,,
27.4218750000,3,-0.3677673042,,,
27.4375000000,3,-0.4575499892,,,
27.4531250000,3,-0.5580750108,,,
27.4687500000,3,-0.6728820801,,,
27.4843750000,3,-0.7842711806,,,
27.5000000000,3,-0.8712769151,,,
27.5156250000,3,-0.9206848145,,,
27.5312500000,3,-0.9342346191,,,
27.5468750000,3,-0.9312744141,,,
27.5625000000,3,-0.9299011230,,,
27.5781250000,3,-0.9251708984,,,
27.5937500000,3,-0.9096068740,,,
27.6093750000,3,-0.8688353896,,,
27.6250000000,3,-0.8237609863,,,
27.6406250000,3,-0.8201904297,,,
27.6562500000,3,-0.9070435166,,,
27.6718750000,3,-1.0817569494,,,
27.6875000000,3,-1.2860720158,,,
27.7031250000,3,-1.4263609648,,,
27.7187500000,3,-1.4236450195,,,
27.7343750000,3,-1.2704470158,,,
27.7500000000,3,-1.0314940214,,,
27.7656250000,3,-0.8085327148,,,
27.7812500000,3,-0.6543579102,,,
27.7968750000,3,-0.5460510254,,,
27.8125000000,3,-0.4165343940,,,
27.8281250000,3,-0.2086791992,,,
27.8437500000,3,0.0533447303,,,
27.8593750000,3,0.3046570122,,,
27.8750000000,3,0.4567565918,,,
27.8906250000,3,0.4933167100,,,
27.9062500000,3,0.4753723145,,,
27.9218750000,3,0.4786682129,,,
27.9375000000,3,0.5556641221,,,
27.9531250000,3,0.6867371202,,,
27.9687500000,3,0.8024901748,,,
27.9843750000,3,0.8372498155,,,
28.0000000000,3,0.7871398926,,,
28.0156250000,3,0.6921691895,,,
28.0312500000,3,0.6159362793,,,
28.0468750000,3,0.5915526748,,,
28.0625000000,3,0.5750731826,,,
28.0781250000,3,0.5062866211,,,
28.0937500000,3,0.3233948052,,,
28.1093750000,3,0.0238342304,,,
28.1250000000,3,-0.3430480957,,,
28.1406250000,3,-0.6867371202,,,
28.1562500000,3,-0.9270629883,,,
28.1718750000,3,-1.0060420036,,,
28.1875000000,3,-0.9097899795,,,
28.2031250000,3,-0.6520996094,,,
28.2187500000,3,-0.2754516900,,,
28.2343750000,3,0.1508179009,,,
28.2500000000,3,0.5485228896,,,
28.2656250000,3,0.8208312988,,,
28.2812500000,3,0.8914794922,,,
28.2968750000,3,0.7231749892,,,
28.3125000000,3,0.3361510932,,,
28.3281250000,3,-0.1717834026,,,
28.3437500000,3,-0.6861572266,,,
28.3593750000,3,-1.0891720057,,,
28.3750000000,3,-1.3235169649,,,
28.3906250000,3,-1.3928220272,,,
28.4062500000,3,-1.3290410042,,,
28.4218750000,3,-1.1677550077,,,
28.4375000000,3,-0.9124755859,,,
28.4531250000,3,-0.5557860732,,,
28.4687500000,3,-0.1071472019,,,
28.4843750000,3,0.3741455078,,,
28.5000000000,3,0.8006287217,,,
28.5156250000,3,1.0604549646,,,
28.5312500000,3,1.1032710075,,,
28.5468750000,3,0.9415587783,,,
28.5625000000,3,0.6562805176,,,
28.5781250000,3,0.3574829102,,,
28.5937500000,3,0.1455993950,,,
28.6093750000,3,0.1013488993,,,
28.6250000000,3,0.2404479980,,,
28.6406250000,3,0.5451354980,,,
28.6562500000,3,0.9438781738,,,
28.6718750000,3,1.3310240507,,,
28.6875000000,3,1.5958559513,,,
28.7031250000,3,1.6536870003,,,
28.7187500000,3,1.4845579863,,,
28.7343750000,3,1.1455080509,,,
28.7500000000,3,0.7355347276,,,
28.7656250000,3,0.3593445122,,,
28.7812500000,3,0.0887756273,,,
28.7968750000,3,-0.0406189002,,,
28.8125000000,3,-0.0472106896,,,
28.8281250000,3,0.0440368690,,,
28.8437500000,3,0.1883545071,,,
28.8593750000,3,0.3230591118,,,
28.8750000000,3,0.3815613091,,,
28.8906250000,3,0.2876282036,,,
28.9062500000,3,0.0069885249,,,
28.9218750000,3,-0.4392699897,,,
28.9375000000,3,-0.9478455186,,,
28.9531250000,3,-1.3696899414,,,
28.9687500000,3,-1.5616459846,,,
28.9843750000,3,-1.4512939453,,,
29.0000000000,3,-1.0849299431,,,
29.0156250000,3,-0.6101685166,,,
29.0312500000,3,-0.2247314006,,,
29.0468750000,3,-0.1062621996,,,
29.0625000000,3,-0.3003540039,,,
29.0781250000,3,-0.7099915147,,,
29.0937500000,3,-1.1277159452,,,
29.1093750000,3,-1.3226319551,,,
29.1250000000,3,-1.1502079964,,,
29.1406250000,3,-0.6339417100,,,
29.1562500000,3,0.0633544922,,,
29.1718750000,3,0.7061461806,,,
29.1875000000,3,1.1120300293,,,
29.2031250000,3,1.1994320154,,,
29.2187500000,3,1.0050959587,,,
29.2343750000,3,0.6460571289,,,
29.2500000000,3,0.2526549995,,,
29.2656250000,3,-0.0590209998,,,
29.2812500000,3,-0.2169494927,,,
29.2968750000,3,-0.1710814983,,,
29.3125000000,3,0.0521850586,,,
29.3281250000,3,0.3850097954,,,
29.3437500000,3,0.7109984756,,,
29.3593750000,3,0.9024658203,,,
29.3750000000,3,0.8832396865,,,
29.3906250000,3,0.6532592773,,,
29.4062500000,3,0.2900390923,,,
29.4218750000,3,-0.0919494629,,,
29.4375000000,3,-0.3818053901,,,
29.4531250000,3,-0.5408020020,,,
29.4687500000,3,-0.5643004775,,,
29.4843750000,3,-0.4883422852,,,
29.5000000000,3,-0.3785705864,,,
29.5156250000,3,-0.2877502143,,,
29.5312500000,3,-0.2727661133,,,
29.5468750000,3,-0.3721008003,,,
29.5625000000,3,-0.6048278809,,,
29.5781250000,3,-0.9115294814,,,
29.5937500000,3,-1.1906739473,,,
29.6093750000,3,-1.3234859705,,,
29.6250000000,3,-1.2141109705,,,
29.6406250000,3,-0.8616638184,,,
29.6562500000,3,-0.3515625000,,,
29.6718750000,3,0.1694945991,,,
29.6875000000,3,0.5639647841,,,
29.7031250000,3,0.7243347168,,,
29.7187500000,3,0.6059265137,,,
29.7343750000,3,0.2168273926,,,
29.7500000000,3,-0.3854370117,,,
29.7656250000,3,-1.0954279900,,,
29.7812500000,3,-1.7608950138,,,
29.7968750000,3,-2.2053830624,,,
29.8125000000,3,-2.2855830193,,,
29.8281250000,3,-1.9260560274,,,
29.8437500000,3,-1.1933590174,,,
29.8593750000,3,-0.2599182129,,,
29.8750000000,3,0.6484069824,,,
29.8906250000,3,1.3461300135,,,
29.9062500000,3,1.7322080135,,,
29.9218750000,3,1.8064270020,,,
29.9375000000,3,1.6737669706,,,
29.9531250000,3,1.4321899414,,,
29.9687500000,3,1.1743769646,,,
29.9843750000,3,0.9499511719,,,
30.0000000000,3,0.7694702148,,,
30.0156250000,3,0.6226500869,,,
30.0312500000,3,0.5102233887,,,
30.0468750000,3,0.4506225884,,,
30.0625000000,3,0.4546509087,,,
30.0781250000,3,0.5377197266,,,
30.0937500000,3,0.6673583984,,,
30.1093750000,3,0.7904968262,,,
30.1250000000,3,0.8529357910,,,
30.1406250000,3,0.8422852159,,,
30.1562500000,3,0.7810974121,,,
30.1718750000,3,0.7301940918,,,
30.1875000000,3,0.7295227051,,,
30.2031250000,3,0.7753295898,,,
30.2187500000,3,0.8302307129,,,
30.2343750000,3,0.8420410156,,,
30.2500000000,3,0.7735900879,,,
30.2656250000,3,0.6160582900,,,
30.2812500000,3,0.3901366889,,,
30.2968750000,3,0.0944518968,,,
30.3125000000,3,-0.2815856934,,,
30.3281250000,3,-0.7292479873,,,
30.3437500000,3,-1.2206419706,,,
30.3593750000,3,-1.6777950525,,,
30.3750000000,3,-2.0145869255,,,
30.3906250000,3,-2.1583559513,,,
30.4062500000,3,-2.1004331112,,,
30.4218750000,3,-1.8874210119,,,
30.4375000000,3,-1.5979000330,,,
30.4531250000,3,-1.3079220057,,,
30.4687500000,3,-1.0509949923,,,
30.4843750000,3,-0.8370360732,,,
30.5000000000,3,-0.6485291123,,,
30.5156250000,3,-0.4685364068,,,
30.5312500000,3,-0.2860107124,,,
30.5468750000,3,-0.0909729004,,,
30.5625000000,3,0.1223144978,,,
30.5781250000,3,0.3695068061,,,
30.5937500000,3,0.6519774795,,,
30.6093750000,3,0.9562988281,,,
30.6250000000,3,1.2431030273,,,
30.6406250000,3,1.4722290039,,,
30.6562500000,3,1.5940250158,,,
30.6718750000,3,1.5931700468,,,
30.6875000000,3,1.4720760584,,,
30.7031250000,3,1.2638850212,,,
30.7187500000,3,1.0127559900,,,
30.7343750000,3,0.7784423828,,,
30.7500000000,3,0.6104431152,,,
30.7656250000,3,0.5300598145,,,
30.7812500000,3,0.5265197754,,,
30.7968750000,3,0.5547180176,,,
30.8125000000,3,0.5444946289,,,
30.8281250000,3,0.4397583008,,,
30.8437500000,3,0.2124633938,,,
30.8593750000,3,-0.1209105998,,,
30.8750000000,3,-0.5025330186,,,
30.8906250000,3,-0.8739014268,,,
30.9062500000,3,-1.2069089413,,,
30.9218750000,3,-1.5009770393,,,
30.9375000000,3,-1.7952879667,,,
30.9531250000,3,-2.0878601074,,,
30.9687500000,3,-2.3255920410,,,
30.9843750000,3,-2.4133300781,,,
31.0000000000,3,-2.2699580193,,,
31.0156250000,3,-1.8791500330,,,
31.0312500000,3,-1.3404849768,,,
31.0468750000,3,-0.8333740234,,,
31.0625000000,3,-0.5395812988,,,
31.0781250000,3,-0.5518494248,,,
31.0937500000,3,-0.8248596191,,,
31.1093750000,3,-1.1995849609,,,
31.1250000000,3,-1.4729310274,,,
31.1406250000,3,-1.4901729822,,,
31.1562500000,3,-1.2062070370,,,
31.1718750000,3,-0.6729735732,,,
31.1875000000,3,-0.0040588379,,,
31.2031250000,3,0.7070922852,,,
31.2187500000,3,1.3723750114,,,
31.2343750000,3,1.9349370003,,,
31.2500000000,3,2.3320620060,,,
31.2656250000,3,2.5042109489,,,
31.2812500000,3,2.4047849178,,,
31.2968750000,3,2.0529170036,,,
31.3125000000,3,1.5418399572,,,
31.3281250000,3,1.0150450468,,,
31.3437500000,3,0.6291809082,,,
31.3593750000,3,0.4542846978,,,
31.3750000000,3,0.4799500108,,,
31.3906250000,3,0.5966796875,,,
31.4062500000,3,0.6794127822,,,
31.4218750000,3,0.6471558213,,,
31.4375000000,3,0.5000916123,,,
31.4531250000,3,0.3253783882,,,
31.4687500000,3,0.2301331013,,,
31.4843750000,3,0.2953796089,,,
31.5000000000,3,0.4906005859,,,
31.5156250000,3,0.7137145996,,,
31.5312500000,3,0.8216857910,,,
31.5468750000,3,0.7137145996,,,
31.5625000000,3,0.3999938965,,,
31.5781250000,3,0.0021972661,,,
31.5937500000,3,-0.3061523139,,,
31.6093750000,3,-0.3901672065,,,
31.6250000000,3,-0.2214965969,,,
31.6406250000,3,0.0968627930,,,
31.6562500000,3,0.3867797852,,,
31.6718750000,3,0.4767456055,,,
31.6875000000,3,0.2739867866,,,
31.7031250000,3,-0.1812743992,,,
31.7187500000,3,-0.7738953233,,,
31.7343750000,3,-1.3479609489,,,
31.7500000000,3,-1.7881159782,,,
31.7656250000,3,-2.0271298885,,,
31.7812500000,3,-2.0460209846,,,
31.7968750000,3,-1.8484189510,,,
31.8125000000,3,-1.4573669434,,,
31.8281250000,3,-0.9195557237,,,
31.8437500000,3,-0.3198853135,,,
31.8593750000,3,0.2380675972,,,
31.8750000000,3,0.6880187988,,,
31.8906250000,3,1.0125730038,,,
31.9062500000,3,1.2626039982,,,
31.9218750000,3,1.4943540096,,,
31.9375000000,3,1.7357180119,,,
31.9531250000,3,1.9469300508,,,
31.9687500000,3,2.0515749454,,,
31.9843750000,3,2.0069890022,,,
32.0000000000,4,1.8126219511,,,
32.0156250000,4,1.5436400175,,,
32.0312500000,4,1.2805479765,,,
32.0468750000,4,1.0522769690,,,
32.0625000000,4,0.8262023926,,,
32.0781250000,4,0.5497130752,,,
32.0937500000,4,0.2047118992,,,
32.1093750000,4,-0.1481934041,,,
32.1250000000,4,-0.3922728896,,,
32.1406250000,4,-0.4269408882,,,
32.1562500000,4,-0.2371215969,,,
32.1718750000,4,0.0924682617,,,
32.1875000000,4,0.4110107124,,,
32.2031250000,4,0.5845642090,,,
32.2187500000,4,0.5439147949,,,
32.2343750000,4,0.3243103027,,,
32.2500000000,4,-0.0043334961,,,
32.2656250000,4,-0.3539429009,,,
32.2812500000,4,-0.6630858779,,,
32.2968750000,4,-0.9081726074,,,
32.3125000000,4,-1.0915830135,,,
32.3281250000,4,-1.2131960392,,,
32.3437500000,4,-1.2940980196,,,
32.3593750000,4,-1.3706970215,,,
32.3750000000,4,-1.4892580509,,,
32.3906250000,4,-1.6768800020,,,
32.4062500000,4,-1.9074399471,,,
32.4218750000,4,-2.0939640999,,,
32.4375000000,4,-2.1103210449,,,
32.4531250000,4,-1.8564150333,,,
32.4687500000,4,-1.3046879768,,,
32.4843750000,4,-0.5292968750,,,
32.5000000000,4,0.3026123047,,,
32.5156250000,4,1.0109250546,,,
32.5312500000,4,1.4653929472,,,
32.5468750000,4,1.6366269588,,,
32.5625000000,4,1.5877690315,,,
32.5781250000,4,1.4209899902,,,
32.5937500000,4,1.2353210449,,,
32.6093750000,4,1.0859680176,,,
32.6250000000,4,0.9912108779,,,
32.6406250000,4,0.9392395020,,,
32.6562500000,4,0.8897705078,,,
32.6718750000,4,0.8011168838,,,
32.6875000000,4,0.6491394043,,,
32.7031250000,4,0.4507141113,,,
32.7187500000,4,0.2618103027,,,
32.7343750000,4,0.1701049954,,,
32.7500000000,4,0.2164306939,,,
32.7656250000,4,0.3905945122,,,
32.7812500000,4,0.6148375869,,,
32.7968750000,4,0.7825623155,,,
32.8125000000,4,0.7963867188,,,
32.8281250000,4,0.6080322266,,,
32.8437500000,4,0.2552489936,,,
32.8593750000,4,-0.1670531929,,,
32.8750000000,4,-0.5528870225,,,
32.8906250000,4,-0.8234252930,,,
32.9062500000,4,-0.9683837891,,,
32.9218750000,4,-1.0273439884,,,
32.9375000000,4,-1.0589900017,,,
32.9531250000,4,-1.1104429960,,,
32.9687500000,4,-1.2023619413,,,
32.9843750000,4,-1.3100279570,,,
33.0000000000,4,-1.4135440588,,,
33.0156250000,4,-1.4760739803,,,
33.0312500000,4,-1.4917910099,,,
33.0468750000,4,-1.4747010469,,,
33.0625000000,4,-1.4399110079,,,
33.0781250000,4,-1.4008790255,,,
33.0937500000,4,-1.3419189453,,,
33.1093750000,4,-1.2413640022,,,
33.1250000000,4,-1.0829470158,,,
33.1406250000,4,-0.8846436143,,,
33.1562500000,4,-0.6734619141,,,
33.1718750000,4,-0.4664306939,,,
33.1875000000,4,-0.2500610054,,,
33.2031250000,4,0.0194702093,,,
33.2187500000,4,0.3856506050,,,
33.2343750000,4,0.8559569716,,,
33.2500000000,4,1.3729250431,,,
33.2656250000,4,1.8303220272,,,
33.2812500000,4,2.0927429199,,,
33.2968750000,4,2.0857849121,,,
33.3125000000,4,1.8345030546,,,
33.3281250000,4,1.4535219669,,,
33.3437500000,4,1.1098940372,,,
33.3593750000,4,0.9490051270,,,
33.3750000000,4,1.0190119743,,,
33.3906250000,4,1.2798459530,,,
33.4062500000,4,1.6140140295,,,
33.4218750000,4,1.8797910213,,,
33.4375000000,4,1.9718019962,,,
33.4531250000,4,1.8411870003,,,
33.4687500000,4,1.5097049475,,,
33.4843750000,4,1.0765080452,,,
33.5000000000,4,0.6499938965,,,
33.5156250000,4,0.3396300972,,,
33.5312500000,4,0.1754456013,,,
33.5468750000,4,0.1123047024,,,
33.5625000000,4,0.0558776893,,,
33.5781250000,4,-0.0682372972,,,
33.5937500000,4,-0.2628174126,,,
33.6093750000,4,-0.4479674995,,,
33.6250000000,4,-0.5249633789,,,
33.6406250000,4,-0.4754332900,,,
33.6562500000,4,-0.3846436143,,,
33.6718750000,4,-0.4250792861,,,
33.6875000000,4,-0.7436522841,,,
33.7031250000,4,-1.3469239473,,,
33.7187500000,4,-2.0731201172,,,
33.7343750000,4,-2.6723940372,,,
33.7500000000,4,-2.9335939884,,,
33.7656250000,4,-2.7927858829,,,
33.7812500000,4,-2.3677370548,,,
33.7968750000,4,-1.8773189783,,,
33.8125000000,4,-1.5382080078,,,
33.8281250000,4,-1.4661250114,,,
33.8437500000,4,-1.6522220373,,,
33.8593750000,4,-1.9904479980,,,
33.8750000000,4,-2.3360900879,,,
33.8906250000,4,-2.5307009220,,,
33.9062500000,4,-2.4613039494,,,
33.9218750000,4,-2.0669250488,,,
33.9375000000,4,-1.3524169922,,,
33.9531250000,4,-0.4177246094,,,
33.9687500000,4,0.5720214844,,,
33.9843750000,4,1.4098509550,,,
34.0000000000,4,1.9354250431,,,
34.0156250000,4,2.0906980038,,,
34.0312500000,4,1.9264529943,,,
34.0468750000,4,1.5863950253,,,
34.0625000000,4,1.2189639807,,,
34.0781250000,4,0.9441527724,,,
34.0937500000,4,0.8139038086,,,
34.1093750000,4,0.8220520020,,,
34.1250000000,4,0.9192504883,,,
34.1406250000,4,1.0252079964,,,
34.1562500000,4,1.0671999454,,,
34.1718750000,4,1.0026860237,,,
34.1875000000,4,0.8429564834,,,
34.2031250000,4,0.6717833877,,,
34.2187500000,4,0.5959777832,,,
34.2343750000,4,0.7145385742,,,
34.2500000000,4,1.0384830236,,,
34.2656250000,4,1.4654539824,,,
34.2812500000,4,1.8265689611,,,
34.2968750000,4,1.9512939453,,,
34.3125000000,4,1.7564090490,,,
34.3281250000,4,1.2952580452,,,
34.3437500000,4,0.7286376953,,,
34.3593750000,4,0.2398376018,,,
34.3750000000,4,-0.0664367676,,,
34.3906250000,4,-0.1792908013,,,
34.4062500000,4,-0.1649779975,,,
34.4218750000,4,-0.0960388184,,,
34.4375000000,4,-0.0108032199,,,
34.4531250000,4,0.0924987793,,,
34.4687500000,4,0.2147826999,,,
34.4843750000,4,0.2957457900,,,
34.5000000000,4,0.2279053032,,,
34.5156250000,4,-0.0914306566,,,
34.5312500000,4,-0.6825255752,,,
34.5468750000,4,-1.4306950569,,,
34.5625000000,4,-2.1102290154,,,
34.5781250000,4,-2.4831540585,,,
34.5937500000,4,-2.4223020077,,,
34.6093750000,4,-1.9623719454,,,
34.6250000000,4,-1.2953490019,,,
34.6406250000,4,-0.6539307237,,,
34.6562500000,4,-0.2125243992,,,
34.6718750000,4,-0.0192260705,,,
34.6875000000,4,-0.0007629395,,,
34.7031250000,4,-0.0208129901,,,
34.7187500000,4,0.0176391602,,,
34.7343750000,4,0.1278686970,,,
34.7500000000,4,0.2525635064,,,
34.7656250000,4,0.2934265137,,,
34.7812500000,4,0.1918334961,,,
34.7968750000,4,-0.0425720215,,,
34.8125000000,4,-0.3276366889,,,
34.8281250000,4,-0.5447998047,,,
34.8437500000,4,-0.6251525879,,,
34.8593750000,4,-0.5635070801,,,
34.8750000000,4,-0.4254455864,,,
34.8906250000,4,-0.2897338867,,,
34.9062500000,4,-0.1869812012,,,
34.9218750000,4,-0.0861206129,,,
34.9375000000,4,0.0739135668,,,
34.9531250000,4,0.3333739936,,,
34.9687500000,4,0.6513062119,,,
34.9843750000,4,0.9243164063,,,
35.0000000000,4,1.0420839787,,,
35.0156250000,4,0.9492797852,,,
35.0312500000,4,0.6790770888,,,
35.0468750000,4,0.3087768853,,,
35.0625000000,4,-0.0754089430,,,
35.0781250000,4,-0.4186401069,,,
35.0937500000,4,-0.7052307129,,,
35.1093750000,4,-0.9167175293,,,
35.1250000000,4,-1.0208129883,,,
35.1406250000,4,-0.9658203125,,,
35.1562500000,4,-0.7470703125,,,
35.1718750000,4,-0.4413452148,,,
35.1875000000,4,-0.1967467964,,,
35.2031250000,4,-0.1585998982,,,
35.2187500000,4,-0.3792113960,,,
35.2343750000,4,-0.7851256728,,,
35.2500000000,4,-1.1784060001,,,
35.2656250000,4,-1.3457950354,,,
35.2812500000,4,-1.1341550350,,,
35.2968750000,4,-0.5171508789,,,
35.3125000000,4,0.4016723931,,,
35.3281250000,4,1.4406130314,,,
35.3437500000,4,2.3995060921,,,
35.3593750000,4,3.1035768986,,,
35.3750000000,4,3.4389948845,,,
35.3906250000,4,3.3714900017,,,
35.4062500000,4,2.9410099983,,,
35.4218750000,4,2.2439579964,,,
35.4375000000,4,1.4153749943,,,
35.4531250000,4,0.5902100205,,,
35.4687500000,4,-0.1361083984,,,
35.4843750000,4,-0.6990355849,,,
35.5000000000,4,-1.0635379553,,,
35.5156250000,4,-1.2181400061,,,
35.5312500000,4,-1.1864320040,,,
35.5468750000,4,-1.0396120548,,,
35.5625000000,4,-0.8740233779,,,
35.5781250000,4,-0.7792664170,,,
35.5937500000,4,-0.7929077148,,,
35.6093750000,4,-0.8875122070,,,
35.6250000000,4,-0.9830626845,,,
35.6406250000,4,-0.9961547852,,,
35.6562500000,4,-0.8958435059,,,
35.6718750000,4,-0.7069396973,,,
35.6875000000,4,-0.4931946099,,,
35.7031250000,4,-0.2979736030,,,
35.7187500000,4,-0.1392516941,,,
35.7343750000,4,-0.0109863300,,,
35.7500000000,4,0.0924377367,,,
35.7656250000,4,0.1633300930,,,
35.7812500000,4,0.1797790974,,,
35.7968750000,4,0.1331786960,,,
35.8125000000,4,0.0462951697,,,
35.8281250000,4,-0.0440673791,,,
35.8437500000,4,-0.1206664965,,,
35.8593750000,4,-0.2008361965,,,
35.8750000000,4,-0.3215026855,,,
35.8906250000,4,-0.4985351861,,,
35.9062500000,4,-0.6923522949,,,
35.9218750000,4,-0.8109741211,,,
35.9375000000,4,-0.7494202256,,,
35.9531250000,4,-0.4451293945,,,
35.9687500000,4,0.0602416992,,,
35.9843750000,4,0.6302490234,,,
36.0000000000,4,1.0946660042,,,
36.0156250000,4,1.3416440487,,,
36.0312500000,4,1.3695980310,,,
36.0468750000,4,1.2818599939,,,
36.0625000000,4,1.2207950354,,,
36.0781250000,4,1.2741999626,,,
36.0937500000,4,1.4308470488,,,
36.1093750000,4,1.5895080566,,,
36.1250000000,4,1.6295779943,,,
36.1406250000,4,1.4842829704,,,
36.1562500000,4,1.1696469784,,,
36.1718750000,4,0.7677611709,,,
36.1875000000,4,0.3748778999,,,
36.2031250000,4,0.0817871094,,,
36.2187500000,4,-0.0671997070,,,
36.2343750000,4,-0.0625915527,,,
36.2500000000,4,0.0581359901,,,
36.2656250000,4,0.2466430962,,,
36.2812500000,4,0.4277038872,,,
36.2968750000,4,0.5227050781,,,
36.3125000000,4,0.4796448052,,,
36.3281250000,4,0.3091124892,,,
36.3437500000,4,0.0608520508,,,
36.3593750000,4,-0.1843567044,,,
36.3750000000,4,-0.3656921089,,,
36.3906250000,4,-0.4796142876,,,
36.4062500000,4,-0.5473937988,,,
36.4218750000,4,-0.5964050293,,,
36.4375000000,4,-0.6482238770,,,
36.4531250000,4,-0.6959229112,,,
36.4687500000,4,-0.7259520888,,,
36.4843750000,4,-0.7462158203,,,
36.5000000000,4,-0.7711486816,,,
36.5156250000,4,-0.8239746094,,,
36.5312500000,4,-0.9113770127,,,
36.5468750000,4,-1.0346980095,,,
36.5625000000,4,-1.1578979492,,,
36.5781250000,4,-1.2442630529,,,
36.5937500000,4,-1.2402650118,,,
36.6093750000,4,-1.1114200354,,,
36.6250000000,4,-0.8461914063,,,
36.6406250000,4,-0.4671021104,,,
36.6562500000,4,-0.0270385705,,,
36.6718750000,4,0.4005126953,,,
36.6875000000,4,0.7474365234,,,
36.7031250000,4,0.9820250869,,,
36.7187500000,4,1.1142580509,,,
36.7343750000,4,1.1740109921,,,
36.7500000000,4,1.1679079533,,,
36.7656250000,4,1.0804439783,,,
36.7812500000,4,0.8962097168,,,
36.7968750000,4,0.6326293945,,,
36.8125000000,4,0.3424071968,,,
36.8281250000,4,0.1082153022,,,
36.8437500000,4,-0.0072937012,,,
36.8593750000,4,0.0006103516,,,
36.8750000000,4,0.0744934082,,,
36.8906250000,4,0.1188659966,,,
36.9062500000,4,0.0452270508,,,
36.9218750000,4,-0.1676331013,,,
36.9375000000,4,-0.4725646973,,,
36.9531250000,4,-0.7882385254,,,
36.9687500000,4,-1.0260620117,,,
36.9843750000,4,-1.1393129826,,,
37.0000000000,4,-1.1389770508,,,
37.0156250000,4,-1.0681760311,,,
37.0312500000,4,-0.9607543945,,,
37.0468750000,4,-0.8362731934,,,
37.0625000000,4,-0.6721497178,,,
37.0781250000,4,-0.4464417100,,,
37.0937500000,4,-0.1508484036,,,
37.1093750000,4,0.1614989936,,,
37.1250000000,4,0.4076538086,,,
37.1406250000,4,0.4963074028,,,
37.1562500000,4,0.4088439941,,,
37.1718750000,4,0.2264098972,,,
37.1875000000,4,0.0901794434,,,
37.2031250000,4,0.1173096001,,,
37.2187500000,4,0.3068847954,,,
37.2343750000,4,0.5276489258,,,
37.2500000000,4,0.5746765137,,,
37.2656250000,4,0.3045653999,,,
37.2812500000,4,-0.2643127143,,,
37.2968750000,4,-0.9462584853,,,
37.3125000000,4,-1.4909360409,,,
37.3281250000,4,-1.7265319824,,,
37.3437500000,4,-1.6328740120,,,
37.3593750000,4,-1.3209840059,,,
37.3750000000,4,-0.9424437881,,,
37.3906250000,4,-0.5712584853,,,
37.4062500000,4,-0.1882935017,,,
37.4218750000,4,0.2682495117,,,
37.4375000000,4,0.8206787109,,,
37.4531250000,4,1.3959350586,,,
37.4687500000,4,1.8409420252,,,
37.4843750000,4,2.0221250057,,,
37.5000000000,4,1.8736269474,,,
37.5156250000,4,1.4409179688,,,
37.5312500000,4,0.8451843262,,,
37.5468750000,4,0.2290648967,,,
37.5625000000,4,-0.3021545112,,,
37.5781250000,4,-0.6870728135,,,
37.5937500000,4,-0.9004210830,,,
37.6093750000,4,-0.9573668838,,,
37.6250000000,4,-0.8570557237,,,
37.6406250000,4,-0.6093140244,,,
37.6562500000,4,-0.2308654934,,,
37.6718750000,4,0.2328186035,,,
37.6875000000,4,0.7166138291,,,
37.7031250000,4,1.1248780489,,,
37.7187500000,4,1.3599849939,,,
37.7343750000,4,1.3756710291,,,
37.7500000000,4,1.1766049862,,,
37.7656250000,4,0.8241577148,,,
37.7812500000,4,0.4022827148,,,
37.7968750000,4,-0.0129699698,,,
37.8125000000,4,-0.3711547852,,,
37.8281250000,4,-0.6567382813,,,
37.8437500000,4,-0.8652039170,,,
37.8593750000,4,-0.9905089736,,,
37.8750000000,4,-1.0154720545,,,
37.8906250000,4,-0.9491271973,,,
37.9062500000,4,-0.8180541992,,,
37.9218750000,4,-0.6649169922,,,
37.9375000000,4,-0.5378417969,,,
37.9531250000,4,-0.4734801948,,,
37.9687500000,4,-0.5008850098,,,
37.9843750000,4,-0.6133118272,,,
38.0000000000,4,-0.7846984863,,,
38.0156250000,4,-0.9649353027,,,
38.0312500000,4,-1.0897220373,,,
38.0468750000,4,-1.1011660099,,,
38.0625000000,4,-0.9943848252,,,
38.0781250000,4,-0.8005065918,,,
38.0937500000,4,-0.5712280273,,,
38.1093750000,4,-0.3540039063,,,
38.1250000000,4,-0.1530762017,,,
38.1406250000,4,0.0568847694,,,
38.1562500000,4,0.3016051948,,,
38.1718750000,4,0.5507202148,,,
38.1875000000,4,0.7410277724,,,
38.2031250000,4,0.7959899902,,,
38.2187500000,4,0.6795043945,,,
38.2343750000,4,0.4417419136,,,
38.2500000000,4,0.1794127971,,,
38.2656250000,4,-0.0001525879,,,
38.2812500000,4,-0.0354614295,,,
38.2968750000,4,0.0681457520,,,
38.3125000000,4,0.2551270127,,,
38.3281250000,4,0.4459229112,,,
38.3437500000,4,0.5633239746,,,
38.3593750000,4,0.5408629775,,,
38.3750000000,4,0.3700866997,,,
38.3906250000,4,0.0808715820,,,
38.4062500000,4,-0.2461853027,,,
38.4218750000,4,-0.5082092285,,,
38.4375000000,4,-0.6307982802,,,
38.4531250000,4,-0.5852050781,,,
38.4687500000,4,-0.4161987007,,,
38.4843750000,4,-0.1930541992,,,
38.5000000000,4,0.0206298791,,,
38.5156250000,4,0.1977843940,,,
38.5312500000,4,0.3412170112,,,
38.5468750000,4,0.4821777046,,,
38.5625000000,4,0.6111450195,,,
38.5781250000,4,0.6878051758,,,
38.5937500000,4,0.6511840820,,,
38.6093750000,4,0.4574890137,,,
38.6250000000,4,0.1037902981,,,
38.6406250000,4,-0.3702698052,,,
38.6562500000,4,-0.8986815810,,,
38.6718750000,4,-1.3892819881,,,
38.6875000000,4,-1.7434999943,,,
38.7031250000,4,-1.8741149902,,,
38.7187500000,4,-1.7356259823,,,
38.7343750000,4,-1.3211669922,,,
38.7500000000,4,-0.7038878798,,,
38.7656250000,4,-0.0034484861,,,
38.7812500000,4,0.6552429199,,,
38.7968750000,4,1.1758120060,,,
38.8125000000,4,1.5110780001,,,
38.8281250000,4,1.6769410372,,,
38.8437500000,4,1.7232359648,,,
38.8593750000,4,1.7109069824,,,
38.8750000000,4,1.6882929802,,,
38.8906250000,4,1.6616519690,,,
38.9062500000,4,1.6028139591,,,
38.9218750000,4,1.4700620174,,,
38.9375000000,4,1.2338260412,,,
38.9531250000,4,0.8887938857,,,
38.9687500000,4,0.4654541016,,,
38.9843750000,4,0.0184631292,,,
39.0000000000,4,-0.3897095025,,,
39.0156250000,4,-0.7043457031,,,
39.0312500000,4,-0.8832396865,,,
39.0468750000,4,-0.9033812881,,,
39.0625000000,4,-0.7775878906,,,
39.0781250000,4,-0.5439453125,,,
39.0937500000,4,-0.2592773139,,,
39.1093750000,4,0.0291137695,,,
39.1250000000,4,0.2911987007,,,
39.1406250000,4,0.5273438096,,,
39.1562500000,4,0.7425842285,,,
39.1718750000,4,0.9177551270,,,
39.1875000000,4,1.0054019690,,,
39.2031250000,4,0.9509888291,,,
39.2187500000,4,0.7214965820,,,
39.2343750000,4,0.3451842964,,,
39.2500000000,4,-0.0916137695,,,
39.2656250000,4,-0.4877625108,,,
39.2812500000,4,-0.7645874023,,,
39.2968750000,4,-0.8934630752,,,
39.3125000000,4,-0.9062194824,,,
39.3281250000,4,-0.8437805176,,,
39.3437500000,4,-0.7465515137,,,
39.3593750000,4,-0.6289368272,,,
39.3750000000,4,-0.4948120117,,,
39.3906250000,4,-0.3411560059,,,
39.4062500000,4,-0.1667480022,,,
39.4218750000,4,0.0225830097,,,
39.4375000000,4,0.2138366997,,,
39.4531250000,4,0.3761292100,,,
39.4687500000,4,0.4769287109,,,
39.4843750000,4,0.5018615723,,,
39.5000000000,4,0.4732055962,,,
39.5156250000,4,0.4281615913,,,
39.5312500000,4,0.4133605957,,,
39.5468750000,4,0.4220275879,,,
39.5625000000,4,0.4081420898,,,
39.5781250000,4,0.2987670898,,,
39.5937500000,4,0.0560302697,,,
39.6093750000,4,-0.2738952935,,,
39.6250000000,4,-0.5866088867,,,
39.6406250000,4,-0.7660828233,,,
39.6562500000,4,-0.7553710938,,,
39.6718750000,4,-0.5881652832,,,
39.6875000000,4,-0.3733825982,,,
39.7031250000,4,-0.2216797024,,,
39.7187500000,4,-0.1635131985,,,
39.7343750000,4,-0.1641846001,,,
39.7500000000,4,-0.1346741021,,,
39.7656250000,4,-0.0027160640,,,
39.7812500000,4,0.2292480022,,,
39.7968750000,4,0.4990845025,,,
39.8125000000,4,0.7005615234,,,
39.8281250000,4,0.7554625869,,,
39.8437500000,4,0.6371154785,,,
39.8593750000,4,0.3839417100,,,
39.8750000000,4,0.0789489672,,,
39.8906250000,4,-0.1902770996,,,
39.9062500000,4,-0.3694762886,,,
39.9218750000,4,-0.4527283013,,,
39.9375000000,4,-0.4952698052,,,
39.9531250000,4,-0.5809326172,,,
39.9687500000,4,-0.7794799805,,,
39.9843750000,4,-1.1159670353,,,
40.0000000000,5,-1.5100100040,,,
40.0156250000,5,-1.8193360567,,,
40.0312500000,5,-1.8859859705,,,
40.0468750000,5,-1.6286319494,,,
40.0625000000,5,-1.0817259550,,,
40.0781250000,5,-0.3933104873,,,
40.0937500000,5,0.2617492974,,,
40.1093750000,5,0.7479553223,,,
40.1250000000,5,1.0257259607,,,
40.1406250000,5,1.1420899630,,,
40.1562500000,5,1.1615600586,,,
40.1718750000,5,1.1230770350,,,
40.1875000000,5,1.0218809843,,,
40.2031250000,5,0.8171691895,,,
40.2187500000,5,0.5048522949,,,
40.2343750000,5,0.1227111965,,,
40.2500000000,5,-0.2564392090,,,
40.2656250000,5,-0.5605468750,,,
40.2812500000,5,-0.7599791884,,,
40.2968750000,5,-0.8553771973,,,
40.3125000000,5,-0.8593444824,,,
40.3281250000,5,-0.7614135742,,,
40.3437500000,5,-0.5429077148,,,
40.3593750000,5,-0.2033690959,,,
40.3750000000,5,0.2024535984,,,
40.3906250000,5,0.5700073242,,,
40.4062500000,5,0.8092041016,,,
40.4218750000,5,0.8883972168,,,
40.4375000000,5,0.8497924805,,,
40.4531250000,5,0.7842407227,,,
40.4687500000,5,0.7852478027,,,
40.4843750000,5,0.8560181260,,,
40.5000000000,5,0.9267272949,,,
40.5156250000,5,0.8857727051,,,
40.5312500000,5,0.6434630752,,,
40.5468750000,5,0.2175597996,,,
40.5625000000,5,-0.2778930962,,,
40.5781250000,5,-0.6886901855,,,
40.5937500000,5,-0.8847656250,,,
40.6093750000,5,-0.8457031250,,,
40.6250000000,5,-0.6618347168,,,
40.6406250000,5,-0.4727782905,,,
40.6562500000,5,-0.3942871094,,,
40.6718750000,5,-0.4572143853,,,
40.6875000000,5,-0.6090393066,,,
40.7031250000,5,-0.7814636230,,,
40.7187500000,5,-0.9198914170,,,
40.7343750000,5,-1.0108640194,,,
40.7500000000,5,-1.0497440100,,,
40.7656250000,5,-1.0031739473,,,
40.7812500000,5,-0.8035582900,,,
40.7968750000,5,-0.3937987983,,,
40.8125000000,5,0.2059326023,,,
40.8281250000,5,0.8792725205,,,
40.8437500000,5,1.4480899572,,,
40.8593750000,5,1.7750240564,,,
40.8750000000,5,1.8298950195,,,
40.8906250000,5,1.6988830566,,,
40.9062500000,5,1.5237729549,,,
40.9218750000,5,1.4143370390,,,
40.9375000000,5,1.3939210176,,,
40.9531250000,5,1.4082030058,,,
40.9687500000,5,1.3981629610,,,
40.9843750000,5,1.3299560547,,,
41.0000000000,5,1.2241209745,,,
41.0156250000,5,1.1162110567,,,
41.0312500000,5,1.0071719885,,,
41.0468750000,5,0.8781127930,,,
41.0625000000,5,0.6983336806,,,
41.0781250000,5,0.4523926079,,,
41.0937500000,5,0.1625670940,,,
41.1093750000,5,-0.1070251018,,,
41.1250000000,5,-0.2984619141,,,
41.1406250000,5,-0.3686217964,,,
41.1562500000,5,-0.3126221001,,,
41.1718750000,5,-0.1742554009,,,
41.1875000000,5,-0.0414733887,,,
41.2031250000,5,-0.0154418899,,,
41.2187500000,5,-0.1601867974,,,
41.2343750000,5,-0.4699707031,,,
41.2500000000,5,-0.8559265137,,,
41.2656250000,5,-1.1997989416,,,
41.2812500000,5,-1.3994139433,,,
41.2968750000,5,-1.4397579432,,,
41.3125000000,5,-1.3963010311,,,
41.3281250000,5,-1.3861689568,,,
41.3437500000,5,-1.4714360237,,,
41.3593750000,5,-1.6213070154,,,
41.3750000000,5,-1.7374269962,,,
41.3906250000,5,-1.7028199434,,,
41.4062500000,5,-1.4930109978,,,
41.4218750000,5,-1.1820679903,,,
41.4375000000,5,-0.9179381728,,,
41.4531250000,5,-0.8240051270,,,
41.4687500000,5,-0.9214171767,,,
41.4843750000,5,-1.1203000546,,,
41.5000000000,5,-1.2625730038,,,
41.5156250000,5,-1.2208859921,,,
41.5312500000,5,-0.9519042969,,,
41.5468750000,5,-0.5057373047,,,
41.5625000000,5,0.0171814002,,,
41.5781250000,5,0.5328369141,,,
41.5937500000,5,0.9916381836,,,
41.6093750000,5,1.3855899572,,,
41.6250000000,5,1.6922910213,,,
41.6406250000,5,1.8580930233,,,
41.6562500000,5,1.8124389648,,,
41.6718750000,5,1.5235899687,,,
41.6875000000,5,1.0352170467,,,
41.7031250000,5,0.4777526855,,,
41.7187500000,5,0.0078125000,,,
41.7343750000,5,-0.2641296089,,,
41.7500000000,5,-0.3244628906,,,
41.7656250000,5,-0.2648009956,,,
41.7812500000,5,-0.2138366997,,,
41.7968750000,5,-0.2415466011,,,
41.8125000000,5,-0.3234252930,,,
41.8281250000,5,-0.3806458116,,,
41.8437500000,5,-0.3424377143,,,
41.8593750000,5,-0.2005005032,,,
41.8750000000,5,-0.0273437500,,,
41.8906250000,5,0.1063842997,,,
41.9062500000,5,0.1741638035,,,
41.9218750000,5,0.2156372070,,,
41.9375000000,5,0.2781066895,,,
41.9531250000,5,0.3610228896,,,
41.9687500000,5,0.4071654975,,,
41.9843750000,5,0.3258056939,,,
42.0000000000,5,0.0823059082,,,
42.0156250000,5,-0.2666015923,,,
42.0312500000,5,-0.6020203233,,,
42.0468750000,5,-0.8142395020,,,
42.0625000000,5,-0.8733521104,,,
42.0781250000,5,-0.8309020996,,,
42.0937500000,5,-0.7765808105,,,
42.1093750000,5,-0.7465515137,,,
42.1250000000,5,-0.7127075195,,,
42.1406250000,5,-0.6013793945,,,
42.1562500000,5,-0.3748168945,,,
42.1718750000,5,-0.0623168908,,,
42.1875000000,5,0.2546691895,,,
42.2031250000,5,0.5128784180,,,
42.2187500000,5,0.6959534287,,,
42.2343750000,5,0.8280333877,,,
42.2500000000,5,0.9479370117,,,
42.2656250000,5,1.0596619844,,,
42.2812500000,5,1.1275939941,,,
42.2968750000,5,1.1218260527,,,
42.3125000000,5,1.0332950354,,,
42.3281250000,5,0.9042357802,,,
42.3437500000,5,0.7828978896,,,
42.3593750000,5,0.6959534287,,,
42.3750000000,5,0.6204833984,,,
42.3906250000,5,0.5112915039,,,
42.4062500000,5,0.3375549018,,,
42.4218750000,5,0.1248169020,,,
42.4375000000,5,-0.0568847694,,,
42.4531250000,5,-0.1451721042,,,
42.4687500000,5,-0.1064452976,,,
42.4843750000,5,0.0325317383,,,
42.5000000000,5,0.2010803074,,,
42.5156250000,5,0.3324890137,,,
42.5312500000,5,0.3911742866,,,
42.5468750000,5,0.3810119927,,,
42.5625000000,5,0.3376770020,,,
42.5781250000,5,0.2992554009,,,
42.5937500000,5,0.2601012886,,,
42.6093750000,5,0.2104492038,,,
42.6250000000,5,0.1235657036,,,
42.6406250000,5,0.0047302251,,,
42.6562500000,5,-0.1031493992,,,
42.6718750000,5,-0.1407471001,,,
42.6875000000,5,-0.0767822266,,,
42.7031250000,5,0.0541687012,,,
42.7187500000,5,0.1564940959,,,
42.7343750000,5,0.1088562012,,,
42.7500000000,5,-0.1614989936,,,
42.7656250000,5,-0.6298828125,,,
42.7812500000,5,-1.1690670252,,,
42.7968750000,5,-1.6127619743,,,
42.8125000000,5,-1.8459780216,,,
42.8281250000,5,-1.8385930061,,,
42.8437500000,5,-1.6665949821,,,
42.8593750000,5,-1.4368289709,,,
42.8750000000,5,-1.2424010038,,,
42.8906250000,5,-1.1158139706,,,
42.9062500000,5,-1.0567630529,,,
42.9218750000,5,-1.0485229492,,,
42.9375000000,5,-1.0594179630,,,
42.9531250000,5,-1.0512080193,,,
42.9687500000,5,-0.9609680176,,,
42.9843750000,5,-0.7195739746,,,
43.0000000000,5,-0.2961730957,,,
43.0156250000,5,0.2617492974,,,
43.0312500000,5,0.8317871094,,,
43.0468750000,5,1.2518010139,,,
43.0625000000,5,1.4164730310,,,
43.0781250000,5,1.3304140568,,,
43.0937500000,5,1.0920100212,,,
43.1093750000,5,0.8606566787,,,
43.1250000000,5,0.7597960830,,,
43.1406250000,5,0.8282166123,,,
43.1562500000,5,1.0002139807,,,
43.1718750000,5,1.1675109863,,,
43.1875000000,5,1.2308349609,,,
43.2031250000,5,1.1430660486,,,
43.2187500000,5,0.9372252822,,,
43.2343750000,5,0.6870728135,,,
43.2500000000,5,0.4860840142,,,
43.2656250000,5,0.3874207139,,,
43.2812500000,5,0.4016112983,,,
43.2968750000,5,0.5012512207,,,
43.3125000000,5,0.6353759766,,,
43.3281250000,5,0.7816467285,,,
43.3437500000,5,0.9101563096,,,
43.3593750000,5,1.0003050566,,,
43.3750000000,5,1.0026550293,,,
43.3906250000,5,0.8712769151,,,
43.4062500000,5,0.5674437881,,,
43.4218750000,5,0.1092834026,,,
43.4375000000,5,-0.4116516113,,,
43.4531250000,5,-0.8695374131,,,
43.4687500000,5,-1.1511839628,,,
43.4843750000,5,-1.2043149471,,,
43.5000000000,5,-1.0650939941,,,
43.5156250000,5,-0.8230590820,,,
43.5312500000,5,-0.5672302246,,,
43.5468750000,5,-0.3559570014,,,
43.5625000000,5,-0.1849364936,,,
43.5781250000,5,-0.0203857403,,,
43.5937500000,5,0.1607055962,,,
43.6093750000,5,0.3570862114,,,
43.6250000000,5,0.5491942763,,,
43.6406250000,5,0.7098082900,,,
43.6562500000,5,0.8186035156,,,
43.6718750000,5,0.8593444824,,,
43.6875000000,5,0.8227844238,,,
43.7031250000,5,0.7063599229,,,
43.7187500000,5,0.5345764160,,,
43.7343750000,5,0.3223572075,,,
43.7500000000,5,0.1053771973,,,
43.7656250000,5,-0.1008910984,,,
43.7812500000,5,-0.3075562119,,,
43.7968750000,5,-0.5245667100,,,
43.8125000000,5,-0.7657470703,,,
43.8281250000,5,-1.0025939941,,,
43.8437500000,5,-1.1846009493,,,
43.8593750000,5,-1.2654110193,,,
43.8750000000,5,-1.2417299747,,,
43.8906250000,5,-1.1473389864,,,
43.9062500000,5,-1.0406800508,,,
43.9218750000,5,-0.9585875869,,,
43.9375000000,5,-0.9002075195,,,
43.9531250000,5,-0.8406981826,,,
43.9687500000,5,-0.7722473145,,,
43.9843750000,5,-0.7167968750,,,
44.0000000000,5,-0.7095031738,,,
44.0156250000,5,-0.7651367188,,,
44.0312500000,5,-0.8394774795,,,
44.0468750000,5,-0.8667296767,,,
44.0625000000,5,-0.8129578233,,,
44.0781250000,5,-0.7098693848,,,
44.0937500000,5,-0.6450194716,,,
44.1093750000,5,-0.6912841797,,,
44.1250000000,5,-0.8400573730,,,
44.1406250000,5,-0.9808959961,,,
44.1562500000,5,-0.9544373155,,,
44.1718750000,5,-0.6521605849,,,
44.1875000000,5,-0.0790710375,,,
44.2031250000,5,0.6556702256,,,
44.2187500000,5,1.4001159668,,,
44.2343750000,5,2.0306699276,,,
44.2500000000,5,2.4880979061,,,
44.2656250000,5,2.7526860237,,,
44.2812500000,5,2.8012080193,,,
44.2968750000,5,2.6011960506,,,
44.3125000000,5,2.1375429630,,,
44.3281250000,5,1.4636839628,,,
44.3437500000,5,0.7200012207,,,
44.3593750000,5,0.0912780836,,,
44.3750000000,5,-0.2796021104,,,
44.3906250000,5,-0.3598633111,,,
44.4062500000,5,-0.2421569973,,,
44.4218750000,5,-0.0828247070,,,
44.4375000000,5,-0.0203552209,,,
44.4531250000,5,-0.1067505032,,,
44.4687500000,5,-0.2940979004,,,
44.4843750000,5,-0.4913330078,,,
44.5000000000,5,-0.6216735840,,,
44.5156250000,5,-0.6599121094,,,
44.5312500000,5,-0.6161499023,,,
44.5468750000,5,-0.5143126845,,,
44.5625000000,5,-0.3619079888,,,
44.5781250000,5,-0.1683350056,,,
44.5937500000,5,0.0530700684,,,
44.6093750000,5,0.2776794136,,,
44.6250000000,5,0.4692383111,,,
44.6406250000,5,0.6217041016,,,
44.6562500000,5,0.7415465713,,,
44.6718750000,5,0.8418273926,,,
44.6875000000,5,0.9021912217,,,
44.7031250000,5,0.8708190918,,,
44.7187500000,5,0.6879882813,,,
44.7343750000,5,0.3293761909,,,
44.7500000000,5,-0.1558533013,,,
44.7656250000,5,-0.6616821289,,,
44.7812500000,5,-1.0755000114,,,
44.7968750000,5,-1.3380739689,,,
44.8125000000,5,-1.4528809786,,,
44.8281250000,5,-1.4631960392,,,
44.8437500000,5,-1.3926390409,,,
44.8593750000,5,-1.2236020565,,,
44.8750000000,5,-0.9194335938,,,
44.8906250000,5,-0.4764403999,,,
44.9062500000,5,0.0441284217,,,
44.9218750000,5,0.5400695801,,,
44.9375000000,5,0.8984680176,,,
44.9531250000,5,1.0464780331,,,
44.9687500000,5,0.9920654297,,,
44.9843750000,5,0.7965698242,,,
45.0000000000,5,0.5405579209,,,
45.0156250000,5,0.2698669136,,,
45.0312500000,5,-0.0092773438,,,
45.0468750000,5,-0.3203429878,,,
45.0625000000,5,-0.6636046767,,,
45.0781250000,5,-0.9953613281,,,
45.0937500000,5,-1.2207950354,,,
45.1093750000,5,-1.2312320471,,,
45.1250000000,5,-0.9777832031,,,
45.1406250000,5,-0.4975281060,,,
45.1562500000,5,0.0765075684,,,
45.1718750000,5,0.5858458877,,,
45.1875000000,5,0.9103394151,,,
45.2031250000,5,1.0318599939,,,
45.2187500000,5,1.0197139978,,,
45.2343750000,5,0.9690551758,,,
45.2500000000,5,0.9397277832,,,
45.2656250000,5,0.9216002822,,,
45.2812500000,5,0.8623657227,,,
45.2968750000,5,0.7118225098,,,
45.3125000000,5,0.4624938965,,,
45.3281250000,5,0.1556396037,,,
45.3437500000,5,-0.1415404975,,,
45.3593750000,5,-0.3815917969,,,
45.3750000000,5,-0.5545958877,,,
45.3906250000,5,-0.6844177246,,,
45.4062500000,5,-0.8139954209,,,
45.4218750000,5,-0.9658812881,,,
45.4375000000,5,-1.1267089844,,,
45.4531250000,5,-1.2577819824,,,
45.4687500000,5,-1.3129580021,,,
45.4843750000,5,-1.2773129940,,,
45.5000000000,5,-1.1772160530,,,
45.5156250000,5,-1.0779110193,,,
45.5312500000,5,-1.0528559685,,,
45.5468750000,5,-1.1400150061,,,
45.5625000000,5,-1.3100589514,,,
45.5781250000,5,-1.4779050350,,,
45.5937500000,5,-1.5171810389,,,
45.6093750000,5,-1.3162540197,,,
45.6250000000,5,-0.8223876953,,,
45.6406250000,5,-0.0725708008,,,
45.6562500000,5,0.8079224229,,,
45.6718750000,5,1.6398010254,,,
45.6875000000,5,2.2265930176,,,
45.7031250000,5,2.4605710506,,,
45.7187500000,5,2.3482060432,,,
45.7343750000,5,2.0345149040,,,
45.7500000000,5,1.7180180550,,,
45.7656250000,5,1.5624079704,,,
45.7812500000,5,1.5883179903,,,
45.7968750000,5,1.6807860136,,,
45.8125000000,5,1.6566469669,,,
45.8281250000,5,1.4018249512,,,
45.8437500000,5,0.9433593750,,,
45.8593750000,5,0.4400024116,,,
45.8750000000,5,0.0506286584,,,
45.8906250000,5,-0.1685791016,,,
45.9062500000,5,-0.2992858887,,,
45.9218750000,5,-0.4878540039,,,
45.9375000000,5,-0.8049315810,,,
45.9531250000,5,-1.1925050020,,,
45.9687500000,5,-1.4821469784,,,
45.9843750000,5,-1.5233149529,,,
46.0000000000,5,-1.2973630428,,,
46.0156250000,5,-0.9386597276,,,
46.0312500000,5,-0.6565856934,,,
46.0468750000,5,-0.6189270020,,,
46.0625000000,5,-0.8442078233,,,
46.0781250000,5,-1.2207030058,,,
46.0937500000,5,-1.5545649529,,,
46.1093750000,5,-1.6770319939,,,
46.1250000000,5,-1.5186159611,,,
46.1406250000,5,-1.1011049747,,,
46.1562500000,5,-0.5252075195,,,
46.1718750000,5,0.0528869592,,,
46.1875000000,5,0.4573363960,,,
46.2031250000,5,0.5520020127,,,
46.2187500000,5,0.2920531929,,,
46.2343750000,5,-0.2167664021,,,
46.2500000000,5,-0.7636718750,,,
46.2656250000,5,-1.1071469784,,,
46.2812500000,5,-1.0978089571,,,
46.2968750000,5,-0.7291564941,,,
46.3125000000,5,-0.1301575005,,,
46.3281250000,5,0.5406798720,,,
46.3437500000,5,1.1577759981,,,
46.3593750000,5,1.6882020235,,,
46.3750000000,5,2.1413269043,,,
46.3906250000,5,2.5279240608,,,
46.4062500000,5,2.8039860725,,,
46.4218750000,5,2.8775939941,,,
46.4375000000,5,2.6781620979,,,
46.4531250000,5,2.1856989861,,,
46.4687500000,5,1.4736020565,,,
46.4843750000,5,0.6809387207,,,
46.5000000000,5,-0.0364990197,,,
46.5156250000,5,-0.5566101074,,,
46.5312500000,5,-0.8254395127,,,
46.5468750000,5,-0.8965454102,,,
46.5625000000,5,-0.8905640244,,,
46.5781250000,5,-0.9532775879,,,
46.5937500000,5,-1.1642760038,,,
46.6093750000,5,-1.4758609533,,,
46.6250000000,5,-1.7493900061,,,
46.6406250000,5,-1.8337099552,,,
46.6562500000,5,-1.6431579590,,,
46.6718750000,5,-1.2207030058,,,
46.6875000000,5,-0.6968079209,,,
46.7031250000,5,-0.2172241062,,,
46.7187500000,5,0.1322326958,,,
46.7343750000,5,0.3500365913,,,
46.7500000000,5,0.4739075005,,,
46.7656250000,5,0.5305175781,,,
46.7812500000,5,0.5053101182,,,
46.7968750000,5,0.3618468940,,,
46.8125000000,5,0.0763549805,,,
46.8281250000,5,-0.3152160943,,,
46.8437500000,5,-0.7252808213,,,
46.8593750000,5,-1.0394899845,,,
46.8750000000,5,-1.1712340117,,,
46.8906250000,5,-1.0910639763,,,
46.9062500000,5,-0.8187255859,,,
46.9218750000,5,-0.4434508979,,,
46.9375000000,5,-0.0813903809,,,
46.9531250000,5,0.1547852010,,,
46.9687500000,5,0.2144165039,,,
46.9843750000,5,0.1411132962,,,
47.0000000000,5,0.0617370605,,,
47.0156250000,5,0.1292725056,,,
47.0312500000,5,0.4382629097,,,
47.0468750000,5,0.9689025879,,,
47.0625000000,5,1.5766910315,,,
47.0781250000,5,2.0623168945,,,
47.0937500000,5,2.2648010254,,,
47.1093750000,5,2.1446230412,,,
47.1250000000,5,1.7919919491,,,
47.1406250000,5,1.3624570370,,,
47.1562500000,5,1.0075069666,,,
47.1718750000,5,0.8037415147,,,
47.1875000000,5,0.7411193848,,,
47.2031250000,5,0.7595520020,,,
47.2187500000,5,0.7920532227,,,
47.2343750000,5,0.8128967285,,,
47.2500000000,5,0.8201904297,,,
47.2656250000,5,0.8316649795,,,
47.2812500000,5,0.8480225205,,,
47.2968750000,5,0.8538208008,,,
47.3125000000,5,0.8180236816,,,
47.3281250000,5,0.7145081162,,,
47.3437500000,5,0.5242919922,,,
47.3593750000,5,0.2639465034,,,
47.3750000000,5,-0.0292358398,,,
47.3906250000,5,-0.2989197075,,,
47.4062500000,5,-0.4912415147,,,
47.4218750000,5,-0.5848082900,,,
47.4375000000,5,-0.5968627930,,,
47.4531250000,5,-0.5573120117,,,
47.4687500000,5,-0.4907836914,,,
47.4843750000,5,-0.3941955864,,,
47.5000000000,5,-0.2596436143,,,
47.5156250000,5,-0.1018982008,,,
47.5312500000,5,0.0215454102,,,
47.5468750000,5,0.0387573205,,,
47.5625000000,5,-0.0880127028,,,
47.5781250000,5,-0.3197632134,,,
47.5937500000,5,-0.5651550293,,,
47.6093750000,5,-0.7408142090,,,
47.6250000000,5,-0.8304138184,,,
47.6406250000,5,-0.8955078125,,,
47.6562500000,5,-1.0096739531,,,
47.6718750000,5,-1.1757810116,,,
47.6875000000,5,-1.3021550179,,,
47.7031250000,5,-1.2405699492,,,
47.7187500000,5,-0.9010314941,,,
47.7343750000,5,-0.3163757026,,,
47.7500000000,5,0.3403930962,,,
47.7656250000,5,0.8619080186,,,
47.7812500000,5,1.1097409725,,,
47.7968750000,5,1.0739140511,,,
47.8125000000,5,0.8620911241,,,
47.8281250000,5,0.6145324707,,,
47.8437500000,5,0.4192200005,,,
47.8593750000,5,0.2691040039,,,
47.8750000000,5,0.0850830078,,,
47.8906250000,5,-0.2162169963,,,
47.9062500000,5,-0.6654357910,,,
47.9218750000,5,-1.2137449980,,,
47.9375000000,5,-1.7469480038,,,
47.9531250000,5,-2.1206359863,,,
47.9687500000,5,-2.2333068848,,,
47.9843750000,5,-2.0529170036,,,
48.0000000000,6,-1.6622920036,,,
48.0156250000,6,-1.2018430233,,,
48.0312500000,6,-0.8200988770,,,
48.0468750000,6,-0.6122130752,,,
48.0625000000,6,-0.5778809190,,,
48.0781250000,6,-0.6376342773,,,
48.0937500000,6,-0.6682739258,,,
48.1093750000,6,-0.5783690810,,,
48.1250000000,6,-0.3278503120,,,
48.1406250000,6,0.0421142615,,,
48.1562500000,6,0.4367065132,,,
48.1718750000,6,0.7534790039,,,
48.1875000000,6,0.9148560166,,,
48.2031250000,6,0.9088439941,,,
48.2187500000,6,0.7755126953,,,
48.2343750000,6,0.5791931152,,,
48.2500000000,6,0.3626098931,,,
48.2656250000,6,0.1372985989,,,
48.2812500000,6,-0.0999755934,,,
48.2968750000,6,-0.3521729112,,,
48.3125000000,6,-0.6040344238,,,
48.3281250000,6,-0.8344116211,,,
48.3437500000,6,-1.0217900276,,,
48.3593750000,6,-1.1675720215,,,
48.3750000000,6,-1.2674560547,,,
48.3906250000,6,-1.2984310389,,,
48.4062500000,6,-1.2033079863,,,
48.4218750000,6,-0.9135437012,,,
48.4375000000,6,-0.4020386040,,,
48.4531250000,6,0.2816466987,,,
48.4687500000,6,0.9841002822,,,
48.4843750000,6,1.5337829590,,,
48.5000000000,6,1.7904659510,,,
48.5156250000,6,1.7379150391,,,
48.5312500000,6,1.4732060432,,,
48.5468750000,6,1.1533509493,,,
48.5625000000,6,0.9086914063,,,
48.5781250000,6,0.7794188857,,,
48.5937500000,6,0.7331848145,,,
48.6093750000,6,0.6947631836,,,
48.6250000000,6,0.6249390244,,,
48.6406250000,6,0.5440062881,,,
48.6562500000,6,0.5110474229,,,
48.6718750000,6,0.6065369248,,,
48.6875000000,6,0.8583068848,,,
48.7031250000,6,1.2229609489,,,
48.7187500000,6,1.5960999727,,,
48.7343750000,6,1.8550109863,,,
48.7500000000,6,1.8987729549,,,
48.7656250000,6,1.6946109533,,,
48.7812500000,6,1.2816770077,,,
48.7968750000,6,0.7648925781,,,
48.8125000000,6,0.2571716011,,,
48.8281250000,6,-0.1397095025,,,
48.8437500000,6,-0.3822632134,,,
48.8593750000,6,-0.4843445122,,,
48.8750000000,6,-0.5039672852,,,
48.8906250000,6,-0.4968566895,,,
48.9062500000,6,-0.4971924126,,,
48.9218750000,6,-0.5105286241,,,
48.9375000000,6,-0.5267943740,,,
48.9531250000,6,-0.5417479873,,,
48.9687500000,6,-0.5545349121,,,
48.9843750000,6,-0.5619202256,,,
49.0000000000,6,-0.5606995225,,,
49.0156250000,6,-0.5408020020,,,
49.0312500000,6,-0.5116271973,,,
49.0468750000,6,-0.5237731934,,,
49.0625000000,6,-0.6508178711,,,
49.0781250000,6,-0.9507141113,,,
49.0937500000,6,-1.3950500488,,,
49.1093750000,6,-1.8619689941,,,
49.1250000000,6,-2.1585390568,,,
49.1406250000,6,-2.1311340332,,,
49.1562500000,6,-1.7633060217,,,
49.1718750000,6,-1.1855159998,,,
49.1875000000,6,-0.6092529297,,,
49.2031250000,6,-0.2061768025,,,
49.2187500000,6,-0.0254211407,,,
49.2343750000,6,0.0180969201,,,
49.2500000000,6,0.0693054199,,,
49.2656250000,6,0.2297362983,,,
49.2812500000,6,0.5045471191,,,
49.2968750000,6,0.8214417100,,,
49.3125000000,6,1.0646970272,,,
49.3281250000,6,1.1746829748,,,
49.3437500000,6,1.1290889978,,,
49.3593750000,6,0.9845886230,,,
49.3750000000,6,0.8056641221,,,
49.3906250000,6,0.6399536133,,,
49.4062500000,6,0.4947814941,,,
49.4218750000,6,0.3464966118,,,
49.4375000000,6,0.1613464057,,,
49.4531250000,6,-0.0989990234,,,
49.4687500000,6,-0.4259338081,,,
49.4843750000,6,-0.7542725205,,,
49.5000000000,6,-0.9896851182,,,
49.5156250000,6,-1.0327450037,,,
49.5312500000,6,-0.8443297744,,,
49.5468750000,6,-0.4797058105,,,
49.5625000000,6,-0.0606079102,,,
49.5781250000,6,0.2851563096,,,
49.5937500000,6,0.4798279107,,,
49.6093750000,6,0.5134888291,,,
49.6250000000,6,0.4496155083,,,
49.6406250000,6,0.3637999892,,,
49.6562500000,6,0.3210448921,,,
49.6718750000,6,0.3410033882,,,
49.6875000000,6,0.3901366889,,,
49.7031250000,6,0.3995055854,,,
49.7187500000,6,0.2871704102,,,
49.7343750000,6,-0.0072631841,,,
49.7500000000,6,-0.4790343940,,,
49.7656250000,6,-1.0425419807,,,
49.7812500000,6,-1.5555109978,,,
49.7968750000,6,-1.8743590117,,,
49.8125000000,6,-1.9150090218,,,
49.8281250000,6,-1.6584470272,,,
49.8437500000,6,-1.1708070040,,,
49.8593750000,6,-0.5384827256,,,
49.8750000000,6,0.1496582031,,,
49.8906250000,6,0.8037415147,,,
49.9062500000,6,1.3257750273,,,
49.9218750000,6,1.6183780432,,,
49.9375000000,6,1.6170040369,,,
49.9531250000,6,1.3451230526,,,
49.9687500000,6,0.9355164170,,,
49.9843750000,6,0.5530396104,,,
50.0000000000,6,0.3240967095,,,
50.0156250000,6,0.2669678032,,,
50.0312500000,6,0.2817383111,,,
50.0468750000,6,0.2511596978,,,
50.0625000000,6,0.1093444973,,,
50.0781250000,6,-0.0935363770,,,
50.0937500000,6,-0.2278441936,,,
50.1093750000,6,-0.1847229004,,,
50.1250000000,6,0.0586547889,,,
50.1406250000,6,0.4080199897,,,
50.1562500000,6,0.7205811143,,,
50.1718750000,6,0.8904724121,,,
50.1875000000,6,0.9005736709,,,
50.2031250000,6,0.8229064941,,,
50.2187500000,6,0.7555847168,,,
50.2343750000,6,0.7478026748,,,
50.2500000000,6,0.7636718750,,,
50.2656250000,6,0.7113953233,,,
50.2812500000,6,0.5117188096,,,
50.2968750000,6,0.1381835938,,,
50.3125000000,6,-0.3457030952,,,
50.3281250000,6,-0.8162230849,,,
50.3437500000,6,-1.1736149788,,,
50.3593750000,6,-1.3719179630,,,
50.3750000000,6,-1.4362180233,,,
50.3906250000,6,-1.4571839571,,,
50.4062500000,6,-1.5109250546,,,
50.4218750000,6,-1.6032099724,,,
50.4375000000,6,-1.6779789925,,,
50.4531250000,6,-1.6314389706,,,
50.4687500000,6,-1.3690190315,,,
50.4843750000,6,-0.8745728135,,,
50.5000000000,6,-0.2163390964,,,
50.5156250000,6,0.4984130859,,,
50.5312500000,6,1.1480710506,,,
50.5468750000,6,1.6731569767,,,
50.5625000000,6,2.0408020020,,,
50.5781250000,6,2.2397460938,,,
50.5937500000,6,2.2511899471,,,
50.6093750000,6,2.0612790585,,,
50.6250000000,6,1.6979370117,,,
50.6406250000,6,1.2471920252,,,
50.6562500000,6,0.8364257813,,,
50.6718750000,6,0.5866394043,,,
50.6875000000,6,0.5320739746,,,
50.7031250000,6,0.5947875977,,,
50.7187500000,6,0.6386718750,,,
50.7343750000,6,0.5526732802,,,
50.7500000000,6,0.3116759956,,,
50.7656250000,6,-0.0063476558,,,
50.7812500000,6,-0.2597351074,,,
50.7968750000,6,-0.3345336914,,,
50.8125000000,6,-0.2147826999,,,
50.8281250000,6,0.0324706994,,,
50.8437500000,6,0.2757262886,,,
50.8593750000,6,0.3815002143,,,
50.8750000000,6,0.2707825005,,,
50.8906250000,6,-0.0755615234,,,
50.9062500000,6,-0.5953063965,,,
50.9218750000,6,-1.1656800508,,,
50.9375000000,6,-1.6640009880,,,
50.9531250000,6,-1.9965820313,,,
50.9687500000,6,-2.1338810921,,,
50.9843750000,6,-2.1023249626,,,
51.0000000000,6,-1.9683840275,,,
51.0156250000,6,-1.7910159826,,,
51.0312500000,6,-1.6152650118,,,
51.0468750000,6,-1.4404909611,,,
51.0625000000,6,-1.2633060217,,,
51.0781250000,6,-1.0596309900,,,
51.0937500000,6,-0.8487854004,,,
51.1093750000,6,-0.6486815810,,,
51.1250000000,6,-0.4830321968,,,
51.1406250000,6,-0.3503417969,,,
51.1562500000,6,-0.2314452976,,,
51.1718750000,6,-0.0737304688,,,
51.1875000000,6,0.1826172024,,,
51.2031250000,6,0.5471801758,,,
51.2187500000,6,0.9759827256,,,
51.2343750000,6,1.3659360409,,,
51.2500000000,6,1.5979000330,,,
51.2656250000,6,1.5941469669,,,
51.2812500000,6,1.3698120117,,,
51.2968750000,6,1.0292359591,,,
51.3125000000,6,0.7095336914,,,
51.3281250000,6,0.5043640137,,,
51.3437500000,6,0.4131165147,,,
51.3593750000,6,0.3750000000,,,
51.3750000000,6,0.3392944038,,,
51.3906250000,6,0.3063659966,,,
51.4062500000,6,0.3483276069,,,
51.4218750000,6,0.5424805284,,,
51.4375000000,6,0.8683472276,,,
51.4531250000,6,1.1895450354,,,
51.4687500000,6,1.3167109489,,,
51.4843750000,6,1.1057130098,,,
51.5000000000,6,0.5794982910,,,
51.5156250000,6,-0.0764160231,,,
51.5312500000,6,-0.6044005752,,,
51.5468750000,6,-0.8207396865,,,
51.5625000000,6,-0.7357788086,,,
51.5781250000,6,-0.5095214844,,,
51.5937500000,6,-0.3715820014,,,
51.6093750000,6,-0.4531554878,,,
51.6250000000,6,-0.7300109863,,,
51.6406250000,6,-1.0376889706,,,
51.6562500000,6,-1.1977540255,,,
51.6718750000,6,-1.1244200468,,,
51.6875000000,6,-0.8602905273,,,
51.7031250000,6,-0.5378112793,,,
51.7187500000,6,-0.2729187012,,,
51.7343750000,6,-0.0958862305,,,
51.7500000000,6,0.0603332482,,,
51.7656250000,6,0.2883605957,,,
51.7812500000,6,0.6289672852,,,
51.7968750000,6,1.0081180334,,,
51.8125000000,6,1.2906800508,,,
51.8281250000,6,1.3558959961,,,
51.8437500000,6,1.1875610352,,,
51.8593750000,6,0.8991699219,,,
51.8750000000,6,0.6664124131,,,
51.8906250000,6,0.6148682237,,,
51.9062500000,6,0.7260131836,,,
51.9218750000,6,0.8731688857,,,
51.9375000000,6,0.9098815918,,,
51.9531250000,6,0.7830811143,,,
51.9687500000,6,0.5656127930,,,
51.9843750000,6,0.3776549995,,,
52.0000000000,6,0.2985228896,,,
52.0156250000,6,0.2900084853,,,
52.0312500000,6,0.2298583984,,,
52.0468750000,6,0.0153808603,,,
52.0625000000,6,-0.3501892090,,,
52.0781250000,6,-0.7482604980,,,
52.0937500000,6,-1.0209959745,,,
52.1093750000,6,-1.0816349983,,,
52.1250000000,6,-0.9677429199,,,
52.1406250000,6,-0.8054810166,,,
52.1562500000,6,-0.7179260254,,,
52.1718750000,6,-0.7346497178,,,
52.1875000000,6,-0.7956542969,,,
52.2031250000,6,-0.8011475205,,,
52.2187500000,6,-0.7006835938,,,
52.2343750000,6,-0.5347899795,,,
52.2500000000,6,-0.4208984077,,,
52.2656250000,6,-0.4621582031,,,
52.2812500000,6,-0.6999816895,,,
52.2968750000,6,-1.0837099552,,,
52.3125000000,6,-1.4914250374,,,
52.3281250000,6,-1.7910159826,,,
52.3437500000,6,-1.8861390352,,,
52.3593750000,6,-1.7306820154,,,
52.3750000000,6,-1.3292540312,,,
52.3906250000,6,-0.7085571289,,,
52.4062500000,6,0.0880127028,,,
52.4218750000,6,0.9734802246,,,
52.4375000000,6,1.8129880428,,,
52.4531250000,6,2.4403989315,,,
52.4687500000,6,2.7083740234,,,
52.4843750000,6,2.5569760799,,,
52.5000000000,6,2.0751340389,,,
52.5156250000,6,1.4742740393,,,
52.5312500000,6,1.0079959631,,,
52.5468750000,6,0.8468322754,,,
52.5625000000,6,0.9982299805,,,
52.5781250000,6,1.3125000000,,,
52.5937500000,6,1.5720520020,,,
52.6093750000,6,1.6178890467,,,
52.6250000000,6,1.4173280001,,,
52.6406250000,6,1.0522459745,,,
52.6562500000,6,0.6402282715,,,
52.6718750000,6,0.2640990913,,,
52.6875000000,6,-0.0619812012,,,
52.7031250000,6,-0.3556824028,,,
52.7187500000,6,-0.6297302246,,,
52.7343750000,6,-0.8596497178,,,
52.7500000000,6,-1.0095520020,,,
52.7656250000,6,-1.0520939827,,,
52.7812500000,6,-1.0188599825,,,
52.7968750000,6,-0.9849854112,,,
52.8125000000,6,-1.0413509607,,,
52.8281250000,6,-1.2224730253,,,
52.8437500000,6,-1.4869689941,,,
52.8593750000,6,-1.7191159725,,,
52.8750000000,6,-1.8018800020,,,
52.8906250000,6,-1.6865229607,,,
52.9062500000,6,-1.4272160530,,,
52.9218750000,6,-1.1562190056,,,
52.9375000000,6,-1.0178829432,,,
52.9531250000,6,-1.0765689611,,,
52.9687500000,6,-1.2688900232,,,
52.9843750000,6,-1.4472349882,,,
53.0000000000,6,-1.4335629940,,,
53.0156250000,6,-1.1475219727,,,
53.0312500000,6,-0.6223754883,,,
53.0468750000,6,0.0108337402,,,
53.0625000000,6,0.6115723252,,,
53.0781250000,6,1.1060489416,,,
53.0937500000,6,1.4919739962,,,
53.1093750000,6,1.7966920137,,,
53.1250000000,6,2.0122680664,,,
53.1406250000,6,2.0755620003,,,
53.1562500000,6,1.9069819450,,,
53.1718750000,6,1.4818420410,,,
53.1875000000,6,0.8667907715,,,
53.2031250000,6,0.2089232951,,,
53.2187500000,6,-0.3312073052,,,
53.2343750000,6,-0.6522216797,,,
53.2500000000,6,-0.7600402832,,,
53.2656250000,6,-0.7499694824,,,
53.2812500000,6,-0.7546082139,,,
53.2968750000,6,-0.8397216797,,,
53.3125000000,6,-0.9784240723,,,
53.3281250000,6,-1.0490720272,,,
53.3437500000,6,-0.9183959961,,,
53.3593750000,6,-0.5078734756,,,
53.3750000000,6,0.1262512058,,,
53.3906250000,6,0.8050231934,,,
53.4062500000,6,1.2740479708,,,
53.4218750000,6,1.3282779455,,,
53.4375000000,6,0.8920288086,,,
53.4531250000,6,0.0729370117,,,
53.4687500000,6,-0.8817749023,,,
53.4843750000,6,-1.6794739962,,,
53.5000000000,6,-2.1164860725,,,
53.5156250000,6,-2.1410830021,,,
53.5312500000,6,-1.8594059944,,,
53.5468750000,6,-1.4673459530,,,
53.5625000000,6,-1.1497499943,,,
53.5781250000,6,-1.0068659782,,,
53.5937500000,6,-1.0125429630,,,
53.6093750000,6,-1.0731509924,,,
53.6250000000,6,-1.0536799431,,,
53.6406250000,6,-0.8695374131,,,
53.6562500000,6,-0.5083007813,,,
53.6718750000,6,-0.0130004901,,,
53.6875000000,6,0.5429077148,,,
53.7031250000,6,1.0896300077,,,
53.7187500000,6,1.5799560547,,,
53.7343750000,6,1.9889830351,,,
53.7500000000,6,2.2951049805,,,
53.7656250000,6,2.4702448845,,,
53.7812500000,6,2.4711000919,,,
53.7968750000,6,2.2637629509,,,
53.8125000000,6,1.8404539824,,,
53.8281250000,6,1.2565000057,,,
53.8437500000,6,0.6225280762,,,
53.8593750000,6,0.0812072828,,,
53.8750000000,6,-0.2438964993,,,
53.8906250000,6,-0.3038330078,,,
53.9062500000,6,-0.1436768025,,,
53.9218750000,6,0.1353148967,,,
53.9375000000,6,0.4038085938,,,
53.9531250000,6,0.5888367295,,,
53.9687500000,6,0.6677855849,,,
53.9843750000,6,0.6750792861,,,
54.0000000000,6,0.6286010742,,,
54.0156250000,6,0.5424193740,,,
54.0312500000,6,0.3906250000,,,
54.0468750000,6,0.1429748982,,,
54.0625000000,6,-0.1997375041,,,
54.0781250000,6,-0.5963134766,,,
54.0937500000,6,-0.9696350098,,,
54.1093750000,6,-1.2346500158,,,
54.1250000000,6,-1.3252559900,,,
54.1406250000,6,-1.2297359705,,,
54.1562500000,6,-0.9960327148,,,
54.1718750000,6,-0.7274475098,,,
54.1875000000,6,-0.5372009277,,,
54.2031250000,6,-0.5154418945,,,
54.2187500000,6,-0.6844788194,,,
54.2343750000,6,-0.9785460830,,,
54.2500000000,6,-1.2630000114,,,
54.2656250000,6,-1.3738399744,,,
54.2812500000,6,-1.1939090490,,,
54.2968750000,6,-0.6819152832,,,
54.3125000000,6,0.0945434570,,,
54.3281250000,6,0.9864196777,,,
54.3437500000,6,1.8131409883,,,
54.3593750000,6,2.4109499454,,,
54.3750000000,6,2.6925959587,,,
54.3906250000,6,2.6674799919,,,
54.4062500000,6,2.4193120003,,,
54.4218750000,6,2.0665280819,,,
54.4375000000,6,1.7012330294,,,
54.4531250000,6,1.3616329432,,,
54.4687500000,6,1.0420529842,,,
54.4843750000,6,0.7429810166,,,
54.5000000000,6,0.4657287896,,,
54.5156250000,6,0.2635802925,,,
54.5312500000,6,0.1799315959,,,
54.5468750000,6,0.2131042033,,,
54.5625000000,6,0.2937316895,,,
54.5781250000,6,0.3215332031,,,
54.5937500000,6,0.2080383003,,,
54.6093750000,6,-0.0497436486,,,
54.6250000000,6,-0.3642272949,,,
54.6406250000,6,-0.6045836806,,,
54.6562500000,6,-0.6651610732,,,
54.6718750000,6,-0.5254517198,,,
54.6875000000,6,-0.2734679878,,,
54.7031250000,6,-0.0589599609,,,
54.7187500000,6,-0.0154113797,,,
54.7343750000,6,-0.1999206990,,,
54.7500000000,6,-0.5557556152,,,
54.7656250000,6,-0.9206237793,,,
54.7812500000,6,-1.1127619743,,,
54.7968750000,6,-1.0186159611,,,
54.8125000000,6,-0.6563720703,,,
54.8281250000,6,-0.1809082031,,,
54.8437500000,6,0.1867064983,,,
54.8593750000,6,0.2774963081,,,
54.8750000000,6,0.0535888709,,,
54.8906250000,6,-0.3602294922,,,
54.9062500000,6,-0.7446289063,,,
54.9218750000,6,-0.9007874131,,,
54.9375000000,6,-0.7385864258,,,
54.9531250000,6,-0.3194580078,,,
54.9687500000,6,0.1965941936,,,
54.9843750000,6,0.6527100205,,,
55.0000000000,6,0.9577025771,,,
55.0156250000,6,1.1351009607,,,
55.0312500000,6,1.2717900276,,,
55.0468750000,6,1.4469909668,,,
55.0625000000,6,1.6664119959,,,
55.0781250000,6,1.8563840389,,,
55.0937500000,6,1.9016419649,,,
55.1093750000,6,1.7276309729,,,
55.1250000000,6,1.3305050135,,,
55.1406250000,6,0.8024597168,,,
55.1562500000,6,0.2694396973,,,
55.1718750000,6,-0.1551208049,,,
55.1875000000,6,-0.4275512993,,,
55.2031250000,6,-0.5741577148,,,
55.2187500000,6,-0.6448668838,,,
55.2343750000,6,-0.6827086806,,,
55.2500000000,6,-0.7150573730,,,
55.2656250000,6,-0.7420043945,,,
55.2812500000,6,-0.7683411241,,,
55.2968750000,6,-0.8196411133,,,
55.3125000000,6,-0.9168395996,,,
55.3281250000,6,-1.0813289881,,,
55.3437500000,6,-1.3036500216,,,
55.3593750000,6,-1.5299990177,,,
55.3750000000,6,-1.6862490177,,,
55.3906250000,6,-1.6997989416,,,
55.4062500000,6,-1.5438840389,,,
55.4218750000,6,-1.2586979866,,,
55.4375000000,6,-0.9463195801,,,
55.4531250000,6,-0.7336121202,,,
55.4687500000,6,-0.7056273818,,,
55.4843750000,6,-0.8765563965,,,
55.5000000000,6,-1.1703799963,,,
55.5156250000,6,-1.4747619629,,,
55.5312500000,6,-1.6896669865,,,
55.5468750000,6,-1.7642819881,,,
55.5625000000,6,-1.6975400448,,,
55.5781250000,6,-1.4982910156,,,
55.5937500000,6,-1.1604310274,,,
55.6093750000,6,-0.6453552246,,,
55.6250000000,6,0.0428161584,,,
55.6406250000,6,0.8293762207,,,
55.6562500000,6,1.5534060001,,,
55.6718750000,6,2.0429689884,,,
55.6875000000,6,2.1941220760,,,
55.7031250000,6,2.0469970703,,,
55.7187500000,6,1.7616879940,,,
55.7343750000,6,1.5381159782,,,
55.7500000000,6,1.4968869686,,,
55.7656250000,6,1.6191710234,,,
55.7812500000,6,1.7548220158,,,
55.7968750000,6,1.7219849825,,,
55.8125000000,6,1.4438480139,,,
55.8281250000,6,0.9697266221,,,
55.8437500000,6,0.4557495117,,,
55.8593750000,6,0.0770874023,,,
55.8750000000,6,-0.0784606934,,,
55.8906250000,6,-0.0588989295,,,
55.9062500000,6,0.0151977502,,,
55.9218750000,6,0.0360107385,,,
55.9375000000,6,-0.0395812988,,,
55.9531250000,6,-0.1611327976,,,
55.9687500000,6,-0.2475890964,,,
55.9843750000,6,-0.2643432915,,,
56.0000000000,7,-0.2344665974,,,
56.0156250000,7,-0.2417297065,,,
56.0312500000,7,-0.3503417969,,,
56.0468750000,7,-0.5701904297,,,
56.0625000000,7,-0.8345031738,,,
56.0781250000,7,-1.0405579805,,,
56.0937500000,7,-1.1182860136,,,
56.1093750000,7,-1.0807800293,,,
56.1250000000,7,-1.0168759823,,,
56.1406250000,7,-1.0469059944,,,
56.1562500000,7,-1.2641910315,,,
56.1718750000,7,-1.6690059900,,,
56.1875000000,7,-2.1749880314,,,
