Time:64Hz,Epoch,Channel 1,Event Id,Event Date,Event Duration
0.0000000000,0,0.0602416992,,,
0.0156250000,0,0.2654114068,,,
0.0312500000,0,0.4143371880,,,
0.0468750000,0,0.4663695991,,,
0.0625000000,0,0.4788208008,,,
0.0781250000,0,0.5401000977,,,
0.0937500000,0,0.7165222168,,,
0.1093750000,0,0.9981079102,,,
0.1250000000,0,1.2965999842,,,
0.1406250000,0,1.4908449650,,,
0.1562500000,0,1.4972840548,,,
0.1718750000,0,1.3262629509,,,
0.1875000000,0,1.0911870003,,,
0.2031250000,0,0.9463806152,,,
0.2187500000,0,0.9980164170,,,
0.2343750000,0,1.2427059412,,,
0.2500000000,0,1.5625920296,,,
0.2656250000,0,1.7846070528,,,
0.2812500000,0,1.7964780331,,,
0.2968750000,0,1.6136169434,,,
0.3125000000,0,1.3570560217,,,
0.3281250000,0,1.1755980253,,,
0.3437500000,0,1.1415410042,,,
0.3593750000,0,1.2017209530,,,
0.3750000000,0,1.2055050135,,,
0.3906250000,0,1.0028079748,,,
0.4062500000,0,0.5395507813,,,
0.4218750000,0,-0.1147461012,,,
0.4375000000,0,-0.8099365234,,,
0.4531250000,0,-1.3791810274,,,
0.4687500000,0,-1.7248840332,,,
0.4843750000,0,-1.8285219669,,,
0.5000000000,0,-1.7364809513,,,
0.5156250000,0,-1.5063170195,,,
0.5312500000,0,-1.1860660315,,,
0.5468750000,0,-0.8174437881,,,
0.5625000000,0,-0.4515686035,,,
0.5781250000,0,-0.1455993950,,,
0.5937500000,0,0.0427551307,,,
0.6093750000,0,0.0750427172,,,
0.6250000000,0,-0.0515136681,,,
0.6406250000,0,-0.2868652046,,,
0.6562500000,0,-0.5589600205,,,
0.6718750000,0,-0.7718505859,,,
0.6875000000,0,-0.8295288086,,,
0.7031250000,0,-0.6697692871,,,
0.7187500000,0,-0.2921142876,,,
0.7343750000,0,0.2322693020,,,
0.7500000000,0,0.7683411241,,,
0.7656250000,0,1.1562809944,,,
0.7812500000,0,1.2869570255,,,
0.7968750000,0,1.1531070471,,,
0.8125000000,0,0.8406677246,,,
0.8281250000,0,0.4822387993,,,
0.8437500000,0,0.1938170940,,,
0.8593750000,0,0.0260925293,,,
0.8750000000,0,-0.0368347205,,,
0.8906250000,0,-0.0599670410,,,
0.9062500000,0,-0.0899047926,,,
0.9218750000,0,-0.1745910943,,,
0.9375000000,0,-0.3352051079,,,
0.9531250000,0,-0.5560913086,,,
0.9687500000,0,-0.8014221191,,,
0.9843750000,0,-1.0000000000,,,
1.0000000000,0,-1.0834660530,,,
1.0156250000,0,-1.0078430176,,,
1.0312500000,0,-0.7939147949,,,
1.0468750000,0,-0.5217896104,,,
1.0625000000,0,-0.3075256050,,,
1.0781250000,0,-0.2070007026,,,
1.0937500000,0,-0.2023621053,,,
1.1093750000,0,-0.2000731975,,,
1.1250000000,0,-0.0916747972,,,
1.1406250000,0,0.1671448052,,,
1.1562500000,0,0.5255432129,,,
1.1718750000,0,0.8533325195,,,
1.1875000000,0,1.0130920410,,,
1.2031250000,0,0.9160156250,,,
1.2187500000,0,0.5661010742,,,
1.2343750000,0,0.0371093787,,,
1.2500000000,0,-0.5436096191,,,
1.2656250000,0,-1.0540469885,,,
1.2812500000,0,-1.3966059685,,,
1.2968750000,0,-1.4990229607,,,
1.3125000000,0,-1.3417359591,,,
1.3281250000,0,-0.9721068740,,,
1.3437500000,0,-0.4900817871,,,
1.3593750000,0,-0.0181274395,,,
1.3750000000,0,0.3242188096,,,
1.3906250000,0,0.4727172852,,,
1.4062500000,0,0.4691771865,,,
1.4218750000,0,0.3993834853,,,
1.4375000000,0,0.3651427925,,,
1.4531250000,0,0.4105834961,,,
1.4687500000,0,0.5158081055,,,
1.4843750000,0,0.6060485840,,,
1.5000000000,0,0.6057434082,,,
1.5156250000,0,0.4862061143,,,
1.5312500000,0,0.2850342095,,,
1.5468750000,0,0.0752258301,,,
1.5625000000,0,-0.0782470703,,,
1.5781250000,0,-0.1505737007,,,
1.5937500000,0,-0.1725158989,,,
1.6093750000,0,-0.1943970025,,,
1.6250000000,0,-0.2569580078,,,
1.6406250000,0,-0.3616637886,,,
1.6562500000,0,-0.4786072075,,,
1.6718750000,0,-0.5622863770,,,
1.6875000000,0,-0.5939636230,,,
1.7031250000,0,-0.5879210830,,,
1.7187500000,0,-0.5913391113,,,
1.7343750000,0,-0.6476439834,,,
1.7500000000,0,-0.7675170898,,,
1.7656250000,0,-0.9169921875,,,
1.7812500000,0,-1.0326230526,,,
1.7968750000,0,-1.0627440214,,,
1.8125000000,0,-0.9792786241,,,
1.8281250000,0,-0.7993164063,,,
1.8437500000,0,-0.5783386230,,,
1.8593750000,0,-0.3541564941,,,
1.8750000000,0,-0.1616210938,,,
1.8906250000,0,-0.0204467792,,,
1.9062500000,0,0.0665588379,,,
1.9218750000,0,0.1099547967,,,
1.9375000000,0,0.1415404975,,,
1.9531250000,0,0.2159423977,,,
1.9687500000,0,0.4000549018,,,
1.9843750000,0,0.7444152832,,,
2.0000000000,0,1.2445679903,,,
2.0156250000,0,1.8246459961,,,
2.0312500000,0,2.3469240665,,,
2.0468750000,0,2.6564331055,,,
2.0625000000,0,2.6593019962,,,
2.0781250000,0,2.3469851017,,,
2.0937500000,0,1.8346250057,,,
2.1093750000,0,1.2807010412,,,
2.1250000000,0,0.8016052246,,,
2.1406250000,0,0.4362792969,,,
2.1562500000,0,0.1335753947,,,
2.1718750000,0,-0.1524962932,,,
2.1875000000,0,-0.4262390137,,,
2.2031250000,0,-0.5969238281,,,
2.2187500000,0,-0.5656127930,,,
2.2343750000,0,-0.2885132134,,,
2.2500000000,0,0.1539001018,,,
2.2656250000,0,0.5587769151,,,
2.2812500000,0,0.7244567871,,,
2.2968750000,0,0.5523682237,,,
2.3125000000,0,0.1159057990,,,
2.3281250000,0,-0.3853454888,,,
2.3437500000,0,-0.7567749023,,,
2.3593750000,0,-0.8977355957,,,
2.3750000000,0,-0.8450012207,,,
2.3906250000,0,-0.7253417969,,,
2.4062500000,0,-0.6557617188,,,
2.4218750000,0,-0.6800537109,,,
2.4375000000,0,-0.7760620117,,,
2.4531250000,0,-0.8820189834,,,
2.4687500000,0,-0.9557189941,,,
2.4843750000,0,-0.9720153809,,,
2.5000000000,0,-0.9385070801,,,
2.5156250000,0,-0.8647460938,,,
2.5312500000,0,-0.7767333984,,,
2.5468750000,0,-0.6896973252,,,
2.5625000000,0,-0.6138916016,,,
2.5781250000,0,-0.5516052246,,,
2.5937500000,0,-0.4817200005,,,
2.6093750000,0,-0.3789978027,,,
2.6250000000,0,-0.2479553074,,,
2.6406250000,0,-0.1275023967,,,
2.6562500000,0,-0.0719299316,,,
2.6718750000,0,-0.1267700046,,,
2.6875000000,0,-0.2772217095,,,
2.7031250000,0,-0.4396972954,,,
2.7187500000,0,-0.5219727159,,,
2.7343750000,0,-0.4535216987,,,
2.7500000000,0,-0.2362671047,,,
2.7656250000,0,0.0686035231,,,
2.7812500000,0,0.3650208116,,,
2.7968750000,0,0.5908507705,,,
2.8125000000,0,0.7185974121,,,
2.8281250000,0,0.7733458877,,,
2.8437500000,0,0.7783203125,,,
2.8593750000,0,0.7583618164,,,
2.8750000000,0,0.7209473252,,,
2.8906250000,0,0.6649475098,,,
2.9062500000,0,0.5910034180,,,
2.9218750000,0,0.4864501953,,,
2.9375000000,0,0.3511962891,,,
2.9531250000,0,0.2079468071,,,
2.9687500000,0,0.0914916992,,,
2.9843750000,0,0.0619812012,,,
3.0000000000,0,0.1538390964,,,
3.0156250000,0,0.3686828911,,,
3.0312500000,0,0.6631774902,,,
3.0468750000,0,0.9742432237,,,
3.0625000000,0,1.2378230095,,,
3.0781250000,0,1.4267580509,,,
3.0937500000,0,1.5280150175,,,
3.1093750000,0,1.5439449549,,,
3.1250000000,0,1.4841920137,,,
3.1406250000,0,1.3367609978,,,
3.1562500000,0,1.0988769531,,,
3.1718750000,0,0.7771912217,,,
3.1875000000,0,0.4139403999,,,
3.2031250000,0,0.0833129883,,,
3.2187500000,0,-0.1300048977,,,
3.2343750000,0,-0.1588135064,,,
3.2500000000,0,0.0058288570,,,
3.2656250000,0,0.3180846870,,,
3.2812500000,0,0.6662598252,,,
3.2968750000,0,0.9378356934,,,
3.3125000000,0,1.0482480526,,,
3.3281250000,0,0.9768065810,,,
3.3437500000,0,0.7405396104,,,
3.3593750000,0,0.4111937881,,,
3.3750000000,0,0.0607910194,,,
3.3906250000,0,-0.2467346042,,,
3.4062500000,0,-0.4569396973,,,
3.4218750000,0,-0.5706481934,,,
3.4375000000,0,-0.6404418945,,,
3.4531250000,0,-0.7649536133,,,
3.4687500000,0,-1.0487979650,,,
3.4843750000,0,-1.5169370174,,,
3.5000000000,0,-2.0674130917,,,
3.5156250000,0,-2.5009160042,,,
3.5312500000,0,-2.5924069881,,,
3.5468750000,0,-2.2257390022,,,
3.5625000000,0,-1.4873960018,,,
3.5781250000,0,-0.6155089736,,,
3.5937500000,0,0.1037902981,,,
3.6093750000,0,0.4833069146,,,
3.6250000000,0,0.5197144151,,,
3.6406250000,0,0.3590393066,,,
3.6562500000,0,0.1827393025,,,
3.6718750000,0,0.1160888970,,,
3.6875000000,0,0.1716918945,,,
3.7031250000,0,0.2817383111,,,
3.7187500000,0,0.3719787896,,,
3.7343750000,0,0.4040527046,,,
3.7500000000,0,0.3832091987,,,
3.7656250000,0,0.3376770020,,,
3.7812500000,0,0.2969054878,,,
3.7968750000,0,0.2481383979,,,
3.8125000000,0,0.1590270996,,,
3.8281250000,0,0.0033264160,,,
3.8437500000,0,-0.2450561970,,,
3.8593750000,0,-0.5676270127,,,
3.8750000000,0,-0.9030761719,,,
3.8906250000,0,-1.1600949764,,,
3.9062500000,0,-1.2472230196,,,
3.9218750000,0,-1.1286929846,,,
3.9375000000,0,-0.8489685059,,,
3.9531250000,0,-0.5169066787,,,
3.9687500000,0,-0.2643127143,,,
3.9843750000,0,-0.1801757962,,,
4.0000000000,0,-0.2645263970,,,
4.0156250000,0,-0.4612121880,,,
4.0312500000,0,-0.6825255752,,,
4.0468750000,0,-0.8463439941,,,
4.0625000000,0,-0.9236145020,,,
4.0781250000,0,-0.9115601182,,,
4.0937500000,0,-0.8351746202,,,
4.1093750000,0,-0.7439270020,,,
4.1250000000,0,-0.6820678711,,,
4.1406250000,0,-0.6887816787,,,
4.1562500000,0,-0.7597351074,,,
4.1718750000,0,-0.8196105957,,,
4.1875000000,0,-0.7771605849,,,
4.2031250000,0,-0.5572509766,,,
4.2187500000,0,-0.1581726074,,,
4.2343750000,0,0.3376159966,,,
4.2500000000,0,0.8089293838,,,
4.2656250000,0,1.1634219885,,,
4.2812500000,0,1.3622130156,,,
4.2968750000,0,1.4368900061,,,
4.3125000000,0,1.4285279512,,,
4.3281250000,0,1.3764649630,,,
4.3437500000,0,1.2936099768,,,
4.3593750000,0,1.1841429472,,,
4.3750000000,0,1.0682979822,,,
4.3906250000,0,0.9673767090,,,
4.4062500000,0,0.8966674805,,,
4.4218750000,0,0.8283081055,,,
4.4375000000,0,0.7043151855,,,
4.4531250000,0,0.4867554009,,,
4.4687500000,0,0.1956786960,,,
4.4843750000,0,-0.0957946777,,,
4.5000000000,0,-0.2705078125,,,
4.5156250000,0,-0.2491150051,,,
4.5312500000,0,-0.0453185998,,,
4.5468750000,0,0.2480469048,,,
4.5625000000,0,0.4937134087,,,
4.5781250000,0,0.5824584961,,,
4.5937500000,0,0.4791870117,,,
4.6093750000,0,0.2227173001,,,
4.6250000000,0,-0.0856933594,,,
4.6406250000,0,-0.3441466987,,,
4.6562500000,0,-0.4757995903,,,
4.6718750000,0,-0.4546203911,,,
4.6875000000,0,-0.3085632026,,,
4.7031250000,0,-0.0943298265,,,
4.7187500000,0,0.1186522990,,,
4.7343750000,0,0.2557983100,,,
4.7500000000,0,0.2516174018,,,
4.7656250000,0,0.0899658203,,,
4.7812500000,0,-0.2056273967,,,
4.7968750000,0,-0.5388793945,,,
4.8125000000,0,-0.7935485840,,,
4.8281250000,0,-0.8862305284,,,
4.8437500000,0,-0.7877501845,,,
4.8593750000,0,-0.5460510254,,,
4.8750000000,0,-0.2411499023,,,
4.8906250000,0,0.0583496094,,,
4.9062500000,0,0.3237609863,,,
4.9218750000,0,0.5648499131,,,
4.9375000000,0,0.7850952148,,,
4.9531250000,0,0.9713439941,,,
4.9687500000,0,1.0641479492,,,
4.9843750000,0,1.0119630098,,,
5.0000000000,0,0.8110656738,,,
5.0156250000,0,0.5312194824,,,
5.0312500000,0,0.2782287896,,,
5.0468750000,0,0.1374512017,,,
5.0625000000,0,0.1306152046,,,
5.0781250000,0,0.2109069973,,,
5.0937500000,0,0.2966308892,,,
5.1093750000,0,0.3309631050,,,
5.1250000000,0,0.2931518853,,,
5.1406250000,0,0.1926575005,,,
5.1562500000,0,0.0651855469,,,
5.1718750000,0,-0.0399475098,,,
5.1875000000,0,-0.0709228516,,,
5.2031250000,0,0.0135192899,,,
5.2187500000,0,0.2153930962,,,
5.2343750000,0,0.4869689941,,,
5.2500000000,0,0.7202758789,,,
5.2656250000,0,0.8177794814,,,
5.2812500000,0,0.7387694716,,,
5.2968750000,0,0.5288696289,,,
5.3125000000,0,0.3109130859,,,
5.3281250000,0,0.1872864068,,,
5.3437500000,0,0.1752929986,,,
5.3593750000,0,0.1936645955,,,
5.3750000000,0,0.1126099005,,,
5.3906250000,0,-0.1446228027,,,
5.4062500000,0,-0.5478516221,,,
5.4218750000,0,-0.9601439834,,,
5.4375000000,0,-1.2275999784,,,
5.4531250000,0,-1.2590329647,,,
5.4687500000,0,-1.0771180391,,,
5.4843750000,0,-0.8043518066,,,
5.5000000000,0,-0.5794677734,,,
5.5156250000,0,-0.4869689941,,,
5.5312500000,0,-0.5375366211,,,
5.5468750000,0,-0.6594849229,,,
5.5625000000,0,-0.7557067871,,,
5.5781250000,0,-0.7240905762,,,
5.5937500000,0,-0.5288085938,,,
5.6093750000,0,-0.1768493950,,,
5.6250000000,0,0.2571716011,,,
5.6406250000,0,0.6679381728,,,
5.6562500000,0,0.9624022841,,,
5.6718750000,0,1.0721739531,,,
5.6875000000,0,0.9725341797,,,
5.7031250000,0,0.6770629883,,,
5.7187500000,0,0.2225951999,,,
5.7343750000,0,-0.3354187012,,,
5.7500000000,0,-0.9239501953,,,
5.7656250000,0,-1.4593199492,,,
5.7812500000,0,-1.8596500158,,,
5.7968750000,0,-2.0539860725,,,
5.8125000000,0,-2.0267639160,,,
5.8281250000,0,-1.8104859591,,,
5.8437500000,0,-1.4772950411,,,
5.8593750000,0,-1.1116640568,,,
5.8750000000,0,-0.7698364258,,,
5.8906250000,0,-0.4473876953,,,
5.9062500000,0,-0.1037598029,,,
5.9218750000,0,0.3045958877,,,
5.9375000000,0,0.7884520888,,,
5.9531250000,0,1.2908020020,,,
5.9687500000,0,1.7338869572,,,
5.9843750000,0,2.0219728947,,,
6.0000000000,0,2.1033329964,,,
6.0156250000,0,1.9848330021,,,
6.0312500000,0,1.7180180550,,,
6.0468750000,0,1.3776860237,,,
6.0625000000,0,1.0397340059,,,
6.0781250000,0,0.7601624131,,,
6.0937500000,0,0.5499572754,,,
6.1093750000,0,0.4084472954,,,
6.1250000000,0,0.3122864068,,,
6.1406250000,0,0.2396851033,,,
6.1562500000,0,0.1817931980,,,
6.1718750000,0,0.1538085938,,,
6.1875000000,0,0.1758117974,,,
6.2031250000,0,0.2603149116,,,
6.2187500000,0,0.3923949897,,,
6.2343750000,0,0.5283507705,,,
6.2500000000,0,0.6071166992,,,
6.2656250000,0,0.5878295898,,,
6.2812500000,0,0.4480591118,,,
6.2968750000,0,0.2289123982,,,
6.3125000000,0,-0.0220336895,,,
6.3281250000,0,-0.2581481934,,,
6.3437500000,0,-0.4443359077,,,
6.3593750000,0,-0.5654296875,,,
6.3750000000,0,-0.6260985732,,,
6.3906250000,0,-0.6446533203,,,
6.4062500000,0,-0.6518859863,,,
6.4218750000,0,-0.6927490234,,,
6.4375000000,0,-0.7768250108,,,
6.4531250000,0,-0.8885192871,,,
6.4687500000,0,-0.9651793838,,,
6.4843750000,0,-0.9275208116,,,
6.5000000000,0,-0.7250061035,,,
6.5156250000,0,-0.3868407905,,,
6.5312500000,0,-0.0075988770,,,
6.5468750000,0,0.2700499892,,,
6.5625000000,0,0.3571471870,,,
6.5781250000,0,0.2524718940,,,
6.5937500000,0,0.0378112793,,,
6.6093750000,0,-0.1713256985,,,
6.6250000000,0,-0.2887572944,,,
6.6406250000,0,-0.2945556939,,,
6.6562500000,0,-0.2351074070,,,
6.6718750000,0,-0.1668090969,,,
6.6875000000,0,-0.1318664998,,,
6.7031250000,0,-0.1380310059,,,
6.7187500000,0,-0.1755675972,,,
6.7343750000,0,-0.2144165039,,,
6.7500000000,0,-0.2466125041,,,
6.7656250000,0,-0.2649841011,,,
6.7812500000,0,-0.2749634087,,,
6.7968750000,0,-0.2678528130,,,
6.8125000000,0,-0.2257689983,,,
6.8281250000,0,-0.1279602051,,,
6.8437500000,0,0.0282592792,,,
6.8593750000,0,0.2212830037,,,
6.8750000000,0,0.4020386040,,,
6.8906250000,0,0.5208129883,,,
6.9062500000,0,0.5454406738,,,
6.9218750000,0,0.4755553901,,,
6.9375000000,0,0.3651733100,,,
6.9531250000,0,0.2870788872,,,
6.9687500000,0,0.3028258979,,,
6.9843750000,0,0.4241637886,,,
7.0000000000,0,0.5948181152,,,
7.0156250000,0,0.6939697266,,,
7.0312500000,0,0.5909729004,,,
7.0468750000,0,0.1844788045,,,
7.0625000000,0,-0.5109863281,,,
7.0781250000,0,-1.3451839685,,,
7.0937500000,0,-2.0699460506,,,
7.1093750000,0,-2.4328920841,,,
7.1250000000,0,-2.2842099667,,,
7.1406250000,0,-1.6658940315,,,
7.1562500000,0,-0.8118590713,,,
7.1718750000,0,-0.0388793908,,,
7.1875000000,0,0.3954468071,,,
7.2031250000,0,0.4044188857,,,
7.2187500000,0,0.0928039625,,,
7.2343750000,0,-0.3323363960,,,
7.2500000000,0,-0.6753845215,,,
7.2656250000,0,-0.8518372178,,,
7.2812500000,0,-0.8865355849,,,
7.2968750000,0,-0.8666687012,,,
7.3125000000,0,-0.8558959961,,,
7.3281250000,0,-0.8456420898,,,
7.3437500000,0,-0.7848206162,,,
7.3593750000,0,-0.6177062988,,,
7.3750000000,0,-0.3523865044,,,
7.3906250000,0,-0.0502929688,,,
7.4062500000,0,0.2037964016,,,
7.4218750000,0,0.3539429009,,,
7.4375000000,0,0.3999328911,,,
7.4531250000,0,0.4133911133,,,
7.4687500000,0,0.4865416884,,,
7.4843750000,0,0.6666259766,,,
7.5000000000,0,0.9359436035,,,
7.5156250000,0,1.2086490393,,,
7.5312500000,0,1.3882750273,,,
7.5468750000,0,1.4113160372,,,
7.5625000000,0,1.2903139591,,,
7.5781250000,0,1.1110229492,,,
7.5937500000,0,0.9705200195,,,
7.6093750000,0,0.9350280762,,,
7.6250000000,0,1.0018010139,,,
7.6406250000,0,1.1236569881,,,
7.6562500000,0,1.2348630428,,,
7.6718750000,0,1.2732239962,,,
7.6875000000,0,1.2038569450,,,
7.7031250000,0,1.0102230310,,,
7.7187500000,0,0.6937255859,,,
7.7343750000,0,0.2792969048,,,
7.7500000000,0,-0.1844481975,,,
7.7656250000,0,-0.6251220703,,,
7.7812500000,0,-0.9602355957,,,
7.7968750000,0,-1.1305240393,,,
7.8125000000,0,-1.1189270020,,,
7.8281250000,0,-0.9468079209,,,
7.8437500000,0,-0.6707764268,,,
7.8593750000,0,-0.3377380073,,,
7.8750000000,0,0.0102233896,,,
7.8906250000,0,0.3267517090,,,
7.9062500000,0,0.5594177246,,,
7.9218750000,0,0.6666564941,,,
7.9375000000,0,0.6376953125,,,
7.9531250000,0,0.5036621094,,,
7.9687500000,0,0.3452759087,,,
7.9843750000,0,0.2239989936,,,
8.0000000000,1,0.1419983059,,,
8.0156250000,1,0.0376281701,,,
8.0312500000,1,-0.1654358059,,,
8.0468750000,1,-0.5019531250,,,
8.0625000000,1,-0.9062500000,,,
8.0781250000,1,-1.2464900017,,,
8.0937500000,1,-1.4047549963,,,
8.1093750000,1,-1.3233339787,,,
8.1250000000,1,-1.0630190372,,,
8.1406250000,1,-0.7480468750,,,
8.1562500000,1,-0.4971924126,,,
8.1718750000,1,-0.3737182915,,,
8.1875000000,1,-0.3714599907,,,
8.2031250000,1,-0.4122619927,,,
8.2187500000,1,-0.4266968071,,,
8.2343750000,1,-0.3865967095,,,
8.2500000000,1,-0.3083190918,,,
8.2656250000,1,-0.2458191067,,,
8.2812500000,1,-0.2514038086,,,
8.2968750000,1,-0.3505553901,,,
8.3125000000,1,-0.5197753906,,,
8.3281250000,1,-0.6975708008,,,
8.3437500000,1,-0.8237915039,,,
8.3593750000,1,-0.8556519151,,,
8.3750000000,1,-0.8073425293,,,
8.3906250000,1,-0.7250061035,,,
8.4062500000,1,-0.6565551758,,,
8.4218750000,1,-0.5872498155,,,
8.4375000000,1,-0.4350585938,,,
8.4531250000,1,-0.1230774000,,,
8.4687500000,1,0.3512878120,,,
8.4843750000,1,0.8889160156,,,
8.5000000000,1,1.3102420568,,,
8.5156250000,1,1.4634699821,,,
8.5312500000,1,1.3233339787,,,
8.5468750000,1,0.9966735840,,,
8.5625000000,1,0.7001647949,,,
8.5781250000,1,0.6091002822,,,
8.5937500000,1,0.7890319824,,,
8.6093750000,1,1.1568909883,,,
8.6250000000,1,1.5466610193,,,
8.6406250000,1,1.7833859921,,,
8.6562500000,1,1.7803649902,,,
8.6718750000,1,1.5475159883,,,
8.6875000000,1,1.1592710018,,,
8.7031250000,1,0.7304688096,,,
8.7187500000,1,0.3656311035,,,
8.7343750000,1,0.1387328953,,,
8.7500000000,1,0.0648803711,,,
8.7656250000,1,0.1001892015,,,
8.7812500000,1,0.1439514011,,,
8.7968750000,1,0.0918273926,,,
8.8125000000,1,-0.1038817987,,,
8.8281250000,1,-0.4129638970,,,
8.8437500000,1,-0.7390747070,,,
8.8593750000,1,-0.9825745225,,,
8.8750000000,1,-1.0920410156,,,
8.8906250000,1,-1.0815429688,,,
8.9062500000,1,-1.0045779943,,,
8.9218750000,1,-0.9025878906,,,
8.9375000000,1,-0.7728577256,,,
8.9531250000,1,-0.5823975205,,,
8.9687500000,1,-0.3335266113,,,
8.9843750000,1,-0.0967407227,,,
9.0000000000,1,0.0169372596,,,
9.0156250000,1,-0.0512084998,,,
9.0312500000,1,-0.2768859863,,,
9.0468750000,1,-0.5189208984,,,
9.0625000000,1,-0.6026917100,,,
9.0781250000,1,-0.4418640137,,,
9.0937500000,1,-0.0679931566,,,
9.1093750000,1,0.3603515923,,,
9.1250000000,1,0.6719970703,,,
9.1406250000,1,0.7540587783,,,
9.1562500000,1,0.6319885254,,,
9.1718750000,1,0.4083251953,,,
9.1875000000,1,0.2200012058,,,
9.2031250000,1,0.1390075982,,,
9.2187500000,1,0.1457214057,,,
9.2343750000,1,0.1748047024,,,
9.2500000000,1,0.1469116062,,,
9.2656250000,1,0.0496826209,,,
9.2812500000,1,-0.0806884766,,,
9.2968750000,1,-0.1982116997,,,
9.3125000000,1,-0.2782287896,,,
9.3281250000,1,-0.3306274116,,,
9.3437500000,1,-0.3614197075,,,
9.3593750000,1,-0.3847655952,,,
9.3750000000,1,-0.3871765137,,,
9.3906250000,1,-0.3692322075,,,
9.4062500000,1,-0.3279724121,,,
9.4218750000,1,-0.2626647949,,,
9.4375000000,1,-0.1769104004,,,
9.4531250000,1,-0.0661010668,,,
9.4687500000,1,0.0802612305,,,
9.4843750000,1,0.2556152046,,,
9.5000000000,1,0.4455871880,,,
9.5156250000,1,0.6551207900,,,
9.5312500000,1,0.8778380752,,,
9.5468750000,1,1.1400760412,,,
9.5625000000,1,1.4523619413,,,
9.5781250000,1,1.7665100098,,,
9.5937500000,1,1.9864200354,,,
9.6093750000,1,1.9996030331,,,
9.6250000000,1,1.7468869686,,,
9.6406250000,1,1.2611080408,,,
9.6562500000,1,0.6718140244,,,
9.6718750000,1,0.1089783013,,,
9.6875000000,1,-0.3295592964,,,
9.7031250000,1,-0.6269226074,,,
9.7187500000,1,-0.8173828125,,,
9.7343750000,1,-0.9315490723,,,
9.7500000000,1,-0.9730834961,,,
9.7656250000,1,-0.9203186035,,,
9.7812500000,1,-0.7616881728,,,
9.7968750000,1,-0.5430908203,,,
9.8125000000,1,-0.3488770127,,,
9.8281250000,1,-0.2739258111,,,
9.8437500000,1,-0.3542174995,,,
9.8593750000,1,-0.5643311143,,,
9.8750000000,1,-0.7893372178,,,
9.8906250000,1,-0.9224547744,,,
9.9062500000,1,-0.9013367295,,,
9.9218750000,1,-0.7426453233,,,
9.9375000000,1,-0.5207213759,,,
9.9531250000,1,-0.3260802925,,,
9.9687500000,1,-0.2187500000,,,
9.9843750000,1,-0.2020568997,,,
10.0000000000,1,-0.2337951958,,,
10.0156250000,1,-0.2435912937,,,
10.0312500000,1,-0.1885681003,,,
10.0468750000,1,-0.0479736291,,,
10.0625000000,1,0.1584167033,,,
10.0781250000,1,0.4092406929,,,
10.0937500000,1,0.6727294922,,,
10.1093750000,1,0.9193115234,,,
10.1250000000,1,1.0976560116,,,
10.1406250000,1,1.1788940430,,,
10.1562500000,1,1.1489260197,,,
10.1718750000,1,1.0241999626,,,
10.1875000000,1,0.8443909287,,,
10.2031250000,1,0.6566162109,,,
10.2187500000,1,0.4935913086,,,
10.2343750000,1,0.3670958877,,,
10.2500000000,1,0.2711181939,,,
10.2656250000,1,0.1863708049,,,
10.2812500000,1,0.1064758003,,,
10.2968750000,1,0.0012512211,,,
10.3125000000,1,-0.1455688030,,,
10.3281250000,1,-0.3272095025,,,
10.3437500000,1,-0.5052490234,,,
10.3593750000,1,-0.6297302246,,,
10.3750000000,1,-0.6302490234,,,
10.3906250000,1,-0.4664612114,,,
10.4062500000,1,-0.1643065959,,,
10.4218750000,1,0.1746520996,,,
10.4375000000,1,0.4110412896,,,
10.4531250000,1,0.4178467095,,,
10.4687500000,1,0.1470641941,,,
10.4843750000,1,-0.3459778130,,,
10.5000000000,1,-0.8977355957,,,
10.5156250000,1,-1.3253480196,,,
10.5312500000,1,-1.4625550508,,,
10.5468750000,1,-1.2551569939,,,
10.5625000000,1,-0.7498168945,,,
10.5781250000,1,-0.1050719991,,,
10.5937500000,1,0.5013732910,,,
10.6093750000,1,0.9321289063,,,
10.6250000000,1,1.1128540039,,,
10.6406250000,1,1.0649410486,,,
10.6562500000,1,0.8435363770,,,
10.6718750000,1,0.5123596191,,,
10.6875000000,1,0.0823059082,,,
10.7031250000,1,-0.4258117974,,,
10.7187500000,1,-0.9756469727,,,
10.7343750000,1,-1.4744260311,,,
10.7500000000,1,-1.7904050350,,,
10.7656250000,1,-1.8177490234,,,
10.7812500000,1,-1.5316159725,,,
10.7968750000,1,-1.0480959415,,,
10.8125000000,1,-0.5693358779,,,
10.8281250000,1,-0.3026733100,,,
10.8437500000,1,-0.3340758979,,,
10.8593750000,1,-0.6051024795,,,
10.8750000000,1,-0.9340515137,,,
10.8906250000,1,-1.1080629826,,,
10.9062500000,1,-1.0018620491,,,
10.9218750000,1,-0.6285399795,,,
10.9375000000,1,-0.1228637993,,,
10.9531250000,1,0.3460387886,,,
10.9687500000,1,0.6322937012,,,
10.9843750000,1,0.6750488281,,,
11.0000000000,1,0.5119934082,,,
11.0156250000,1,0.2222899944,,,
11.0312500000,1,-0.0637817383,,,
11.0468750000,1,-0.2573241889,,,
11.0625000000,1,-0.2816466987,,,
11.0781250000,1,-0.1398621053,,,
11.0937500000,1,0.1210632026,,,
11.1093750000,1,0.4003601074,,,
11.1250000000,1,0.6147766113,,,
11.1406250000,1,0.7265015244,,,
11.1562500000,1,0.7538452148,,,
11.1718750000,1,0.7511597276,,,
11.1875000000,1,0.7550048828,,,
11.2031250000,1,0.7615966797,,,
11.2187500000,1,0.7269287109,,,
11.2343750000,1,0.5959473252,,,
11.2500000000,1,0.3467102051,,,
11.2656250000,1,0.0209045392,,,
11.2812500000,1,-0.2879638970,,,
11.2968750000,1,-0.4744873047,,,
11.3125000000,1,-0.4744262993,,,
11.3281250000,1,-0.2821959853,,,
11.3437500000,1,0.0324401893,,,
11.3593750000,1,0.3602904975,,,
11.3750000000,1,0.5877379775,,,
11.3906250000,1,0.6593627930,,,
11.4062500000,1,0.5986632705,,,
11.4218750000,1,0.5002440810,,,
11.4375000000,1,0.4797058105,,,
11.4531250000,1,0.6103516221,,,
11.4687500000,1,0.8682556152,,,
11.4843750000,1,1.1366269588,,,
11.5000000000,1,1.2768249512,,,
11.5156250000,1,1.1917719841,,,
11.5312500000,1,0.8811035156,,,
11.5468750000,1,0.4296875000,,,
11.5625000000,1,-0.0333251990,,,
11.5781250000,1,-0.4017638862,,,
11.5937500000,1,-0.6180114746,,,
11.6093750000,1,-0.6720581055,,,
11.6250000000,1,-0.6001281738,,,
11.6406250000,1,-0.4479370117,,,
11.6562500000,1,-0.2559508979,,,
11.6718750000,1,-0.0746154785,,,
11.6875000000,1,0.0453491211,,,
11.7031250000,1,0.0596313514,,,
11.7187500000,1,-0.0481262207,,,
11.7343750000,1,-0.2424927056,,,
11.7500000000,1,-0.4538879097,,,
11.7656250000,1,-0.6174622178,,,
11.7812500000,1,-0.6997985840,,,
11.7968750000,1,-0.7049254775,,,
11.8125000000,1,-0.6761779785,,,
11.8281250000,1,-0.6686096191,,,
11.8437500000,1,-0.7037659287,,,
11.8593750000,1,-0.7754517198,,,
11.8750000000,1,-0.8337708116,,,
11.8906250000,1,-0.8167418838,,,
11.9062500000,1,-0.6795349121,,,
11.9218750000,1,-0.4308776855,,,
11.9375000000,1,-0.1276549995,,,
11.9531250000,1,0.1577454060,,,
11.9687500000,1,0.3864440918,,,
11.9843750000,1,0.5600585938,,,
12.0000000000,1,0.7098082900,,,
12.0156250000,1,0.8597412109,,,
12.0312500000,1,0.9762573242,,,
12.0468750000,1,0.9982604980,,,
12.0625000000,1,0.8841857910,,,
12.0781250000,1,0.6717224121,,,
12.0937500000,1,0.4614562988,,,
12.1093750000,1,0.3682250977,,,
12.1250000000,1,0.4315186143,,,
12.1406250000,1,0.6004332900,,,
12.1562500000,1,0.7566223145,,,
12.1718750000,1,0.8014525771,,,
12.1875000000,1,0.7135314941,,,
12.2031250000,1,0.5562744141,,,
12.2187500000,1,0.3772887886,,,
12.2343750000,1,0.1866759956,,,
12.2500000000,1,-0.0493774414,,,
12.2656250000,1,-0.3596191108,,,
12.2812500000,1,-0.7035217285,,,
12.2968750000,1,-0.9827271104,,,
12.3125000000,1,-1.0727540255,,,
12.3281250000,1,-0.9267578125,,,
12.3437500000,1,-0.5972899795,,,
12.3593750000,1,-0.2196045071,,,
12.3750000000,1,0.0627136230,,,
12.3906250000,1,0.1730041951,,,
12.4062500000,1,0.1163024977,,,
12.4218750000,1,-0.0339965783,,,
12.4375000000,1,-0.1968383938,,,
12.4531250000,1,-0.3024902046,,,
12.4687500000,1,-0.3200072944,,,
12.4843750000,1,-0.2598266900,,,
12.5000000000,1,-0.1756591946,,,
12.5156250000,1,-0.1311645955,,,
12.5312500000,1,-0.1618957967,,,
12.5468750000,1,-0.2628174126,,,
12.5625000000,1,-0.3780517876,,,
12.5781250000,1,-0.4375610054,,,
12.5937500000,1,-0.3989258111,,,
12.6093750000,1,-0.2810668945,,,
12.6250000000,1,-0.1619873047,,,
12.6406250000,1,-0.1134949028,,,
12.6562500000,1,-0.1808166951,,,
12.6718750000,1,-0.3251647949,,,
12.6875000000,1,-0.4811095893,,,
12.7031250000,1,-0.5412291884,,,
12.7187500000,1,-0.4531860054,,,
12.7343750000,1,-0.1998596042,,,
12.7500000000,1,0.1721802056,,,
12.7656250000,1,0.5821837783,,,
12.7812500000,1,0.9509888291,,,
12.7968750000,1,1.1916810274,,,
12.8125000000,1,1.2724000216,,,
12.8281250000,1,1.2014160156,,,
12.8437500000,1,1.0141600370,,,
12.8593750000,1,0.7684937119,,,
12.8750000000,1,0.4997558892,,,
12.8906250000,1,0.2141112983,,,
12.9062500000,1,-0.0864257813,,,
12.9218750000,1,-0.3684386909,,,
12.9375000000,1,-0.5636597276,,,
12.9531250000,1,-0.5818787217,,,
12.9687500000,1,-0.3870544136,,,
12.9843750000,1,-0.0228576697,,,
13.0000000000,1,0.3793334961,,,
13.0156250000,1,0.6555480957,,,
13.0312500000,1,0.7033386230,,,
13.0468750000,1,0.5307006836,,,
13.0625000000,1,0.2632141113,,,
13.0781250000,1,0.0579528809,,,
13.0937500000,1,0.0184326209,,,
13.1093750000,1,0.1494141072,,,
13.1250000000,1,0.3457336128,,,
13.1406250000,1,0.4664916992,,,
13.1562500000,1,0.3776549995,,,
13.1718750000,1,0.0476684608,,,
13.1875000000,1,-0.4678649902,,,
13.2031250000,1,-1.0119320154,,,
13.2187500000,1,-1.4060360193,,,
13.2343750000,1,-1.5000610352,,,
13.2500000000,1,-1.2562259436,,,
13.2656250000,1,-0.7476807237,,,
13.2812500000,1,-0.1315001994,,,
13.2968750000,1,0.4031066895,,,
13.3125000000,1,0.7425231934,,,
13.3281250000,1,0.8754882813,,,
13.3437500000,1,0.8483886719,,,
13.3593750000,1,0.7372130752,,,
13.3750000000,1,0.5839843750,,,
13.3906250000,1,0.4023132026,,,
13.4062500000,1,0.2022095025,,,
13.4218750000,1,0.0187683105,,,
13.4375000000,1,-0.1017151028,,,
13.4531250000,1,-0.1173401028,,,
13.4687500000,1,-0.0307922401,,,
13.4843750000,1,0.0877075195,,,
13.5000000000,1,0.1444091946,,,
13.5156250000,1,0.0608215295,,,
13.5312500000,1,-0.1828612983,,,
13.5468750000,1,-0.5243834853,,,
13.5625000000,1,-0.8527526855,,,
13.5781250000,1,-1.0434570313,,,
13.5937500000,1,-1.0393370390,,,
13.6093750000,1,-0.8548278809,,,
13.6250000000,1,-0.5844727159,,,
13.6406250000,1,-0.3563232124,,,
13.6562500000,1,-0.2604674995,,,
13.6718750000,1,-0.3105163872,,,
13.6875000000,1,-0.4437255859,,,
13.7031250000,1,-0.5563964844,,,
13.7187500000,1,-0.5840759277,,,
13.7343750000,1,-0.5293884277,,,
13.7500000000,1,-0.4709166884,,,
13.7656250000,1,-0.4768981934,,,
13.7812500000,1,-0.5643615723,,,
13.7968750000,1,-0.6717224121,,,
13.8125000000,1,-0.6975098252,,,
13.8281250000,1,-0.5718688965,,,
13.8437500000,1,-0.2947387993,,,
13.8593750000,1,0.0602722205,,,
13.8750000000,1,0.3875732124,,,
13.8906250000,1,0.6084899902,,,
13.9062500000,1,0.7127990723,,,
13.9218750000,1,0.7557982802,,,
13.9375000000,1,0.8160095215,,,
13.9531250000,1,0.9298095703,,,
13.9687500000,1,1.0755620003,,,
13.9843750000,1,1.1862180233,,,
14.0000000000,1,1.1703189611,,,
14.0156250000,1,0.9711303711,,,
14.0312500000,1,0.5893859863,,,
14.0468750000,1,0.0917053223,,,
14.0625000000,1,-0.4189147949,,,
14.0781250000,1,-0.8084105849,,,
14.0937500000,1,-1.0074460506,,,
14.1093750000,1,-1.0060729980,,,
14.1250000000,1,-0.8696898818,,,
14.1406250000,1,-0.7027282715,,,
14.1562500000,1,-0.5879210830,,,
14.1718750000,1,-0.5657042861,,,
14.1875000000,1,-0.5989685059,,,
14.2031250000,1,-0.6235656738,,,
14.2187500000,1,-0.5693358779,,,
14.2343750000,1,-0.4147644043,,,
14.2500000000,1,-0.1987610012,,,
14.2656250000,1,0.0012207030,,,
14.2812500000,1,0.1012267992,,,
14.2968750000,1,0.0767517090,,,
14.3125000000,1,-0.0238647498,,,
14.3281250000,1,-0.1065979004,,,
14.3437500000,1,-0.0728759766,,,
14.3593750000,1,0.1254272014,,,
14.3750000000,1,0.4674377143,,,
14.3906250000,1,0.8627625108,,,
14.4062500000,1,1.1925660372,,,
14.4218750000,1,1.3466800451,,,
14.4375000000,1,1.2736209631,,,
14.4531250000,1,1.0067139864,,,
14.4687500000,1,0.6388854980,,,
14.4843750000,1,0.3032226861,,,
14.5000000000,1,0.1261596978,,,
14.5156250000,1,0.1745299995,,,
14.5312500000,1,0.4514771104,,,
14.5468750000,1,0.8920593262,,,
14.5625000000,1,1.3629460335,,,
14.5781250000,1,1.7437130213,,,
14.5937500000,1,1.9273680449,,,
14.6093750000,1,1.8677370548,,,
14.6250000000,1,1.5823669434,,,
14.6406250000,1,1.1541750431,,,
14.6562500000,1,0.6842957139,,,
14.6718750000,1,0.2543640137,,,
14.6875000000,1,-0.0760803223,,,
14.7031250000,1,-0.3197020888,,,
14.7187500000,1,-0.5021361709,,,
14.7343750000,1,-0.6666564941,,,
14.7500000000,1,-0.8218688965,,,
14.7656250000,1,-0.9501038194,,,
14.7812500000,1,-1.0361020565,,,
14.7968750000,1,-1.0734250546,,,
14.8125000000,1,-1.0925899744,,,
14.8281250000,1,-1.1257020235,,,
14.8437500000,1,-1.1996150017,,,
14.8593750000,1,-1.2935179472,,,
14.8750000000,1,-1.3525090218,,,
14.8906250000,1,-1.3106379509,,,
14.9062500000,1,-1.1113280058,,,
14.9218750000,1,-0.7570496202,,,
14.9375000000,1,-0.2940979004,,,
14.9531250000,1,0.1911925972,,,
14.9687500000,1,0.6117858887,,,
14.9843750000,1,0.8901062012,,,
15.0000000000,1,0.9984741211,,,
15.0156250000,1,0.9524840713,,,
15.0312500000,1,0.8156738281,,,
15.0468750000,1,0.6730651855,,,
15.0625000000,1,0.5903015137,,,
15.0781250000,1,0.6004027724,,,
15.0937500000,1,0.6785277724,,,
15.1093750000,1,0.7613220215,,,
15.1250000000,1,0.7582703233,,,
15.1406250000,1,0.6033325195,,,
15.1562500000,1,0.2609862983,,,
15.1718750000,1,-0.2606812119,,,
15.1875000000,1,-0.9091796875,,,
15.2031250000,1,-1.6033630371,,,
15.2187500000,1,-2.2081298828,,,
15.2343750000,1,-2.5498049259,,,
15.2500000000,1,-2.4475400448,,,
15.2656250000,1,-1.7968750000,,,
15.2812500000,1,-0.6736754775,,,
15.2968750000,1,0.6432800293,,,
15.3125000000,1,1.7348630428,,,
15.3281250000,1,2.2116699219,,,
15.3437500000,1,1.8827509880,,,
15.3593750000,1,0.8618773818,,,
15.3750000000,1,-0.4786376953,,,
15.3906250000,1,-1.6455990076,,,
15.4062500000,1,-2.2449951172,,,
15.4218750000,1,-2.1450500488,,,
15.4375000000,1,-1.4767149687,,,
15.4531250000,1,-0.5363159180,,,
15.4687500000,1,0.3745728135,,,
15.4843750000,1,1.0829770565,,,
15.5000000000,1,1.5640259981,,,
15.5156250000,1,1.8868099451,,,
15.5312500000,1,2.1401979923,,,
15.5468750000,1,2.3628849983,,,
15.5625000000,1,2.5465090275,,,
15.5781250000,1,2.6443181038,,,
15.5937500000,1,2.6181950569,,,
15.6093750000,1,2.4580080509,,,
15.6250000000,1,2.1795039177,,,
15.6406250000,1,1.8041379452,,,
15.6562500000,1,1.3233950138,,,
15.6718750000,1,0.7181090713,,,
15.6875000000,1,-0.0339965783,,,
15.7031250000,1,-0.9006348252,,,
15.7187500000,1,-1.7718809843,,,
15.7343750000,1,-2.4810180664,,,
15.7500000000,1,-2.8559269905,,,
15.7656250000,1,-2.7909550667,,,
15.7812500000,1,-2.3168029785,,,
15.7968750000,1,-1.6237790585,,,
15.8125000000,1,-0.9987183213,,,
15.8281250000,1,-0.7105407715,,,
15.8437500000,1,-0.8796691895,,,
15.8593750000,1,-1.3900760412,,,
15.8750000000,1,-1.9245610237,,,
15.8906250000,1,-2.0814819336,,,
15.9062500000,1,-1.5767519474,,,
15.9218750000,1,-0.3781127930,,,
15.9375000000,1,1.2437130213,,,
15.9531250000,1,2.8410949707,,,
15.9687500000,1,3.9465329647,,,
15.9843750000,1,4.2811279297,,,
16.0000000000,2,3.8428649902,,,
16.0156250000,2,2.8828740120,,,
16.0312500000,2,1.7844239473,,,
16.0468750000,2,0.8991699219,,,
16.0625000000,2,0.4265747070,,,
16.0781250000,2,0.3462218940,,,
16.0937500000,2,0.4849548042,,,
16.1093750000,2,0.6033629775,,,
16.1250000000,2,0.5294799805,,,
16.1406250000,2,0.2343750000,,,
16.1562500000,2,-0.1725769043,,,
16.1718750000,2,-0.5188903809,,,
16.1875000000,2,-0.6776732802,,,
16.2031250000,2,-0.6305541992,,,
16.2187500000,2,-0.4503174126,,,
16.2343750000,2,-0.2542113960,,,
16.2500000000,2,-0.1449584961,,,
16.2656250000,2,-0.2088623047,,,
16.2812500000,2,-0.5263671875,,,
16.2968750000,2,-1.1763919592,,,
16.3125000000,2,-2.1911010742,,,
16.3281250000,2,-3.4595339298,,,
16.3437500000,2,-4.6847839355,,,
16.3593750000,2,-5.4431757927,,,
16.3750000000,2,-5.3127751350,,,
16.3906250000,2,-4.0902400017,,,
16.4062500000,2,-1.9138180017,,,
16.4218750000,2,0.7538452148,,,
16.4375000000,2,3.2563169003,,,
16.4531250000,2,5.0083618164,,,
16.4687500000,2,5.6644902229,,,
16.4843750000,2,5.2411799431,,,
16.5000000000,2,4.0576171875,,,
16.5156250000,2,2.6359860897,,,
16.5312500000,2,1.5010989904,,,
16.5468750000,2,1.0311579704,,,
16.5625000000,2,1.3374630213,,,
16.5781250000,2,2.2332460880,,,
16.5937500000,2,3.3092958927,,,
16.6093750000,2,4.0700988770,,,
16.6250000000,2,4.1265258789,,,
16.6406250000,2,3.3263850212,,,
16.6562500000,2,1.8002619743,,,
16.6718750000,2,-0.0830688477,,,
16.6875000000,2,-1.8517459631,,,
16.7031250000,2,-3.0679929256,,,
16.7187500000,2,-3.4615480900,,,
16.7343750000,2,-3.0022580624,,,
16.7500000000,2,-1.9100339413,,,
16.7656250000,2,-0.6044617295,,,
16.7812500000,2,0.4082336128,,,
16.7968750000,2,0.7027282715,,,
16.8125000000,2,0.1029357985,,,
16.8281250000,2,-1.2158199549,,,
16.8437500000,2,-2.7278749943,,,
16.8593750000,2,-3.7621150017,,,
16.8750000000,2,-3.7319951057,,,
16.8906250000,2,-2.4304199219,,,
16.9062500000,2,-0.1082457975,,,
16.9218750000,2,2.6096498966,,,
16.9375000000,2,4.9465031624,,,
16.9531250000,2,6.2811279297,,,
16.9687500000,2,6.2899169922,,,
16.9843750000,2,5.0236821175,,,
17.0000000000,2,2.7988889217,,,
17.0156250000,2,0.0726623535,,,
17.0312500000,2,-2.6944270134,,,
17.0468750000,2,-5.0880742073,,,
17.0625000000,2,-6.7931208611,,,
17.0781250000,2,-7.6060180664,,,
17.0937500000,2,-7.4364619255,,,
17.1093750000,2,-6.3554382324,,,
17.1250000000,2,-4.6093440056,,,
17.1406250000,2,-2.6169428825,,,
17.1562500000,2,-0.9071959853,,,
17.1718750000,2,0.0216369592,,,
17.1875000000,2,-0.1572266072,,,
17.2031250000,2,-1.4505000114,,,
17.2187500000,2,-3.5192871094,,,
17.2343750000,2,-5.7727661133,,,
17.2500000000,2,-7.5861210823,,,
17.2656250000,2,-8.4922790527,,,
17.2812500000,2,-8.3424377441,,,
17.2968750000,2,-7.3218078613,,,
17.3125000000,2,-5.8318181038,,,
17.3281250000,2,-4.3568120003,,,
17.3437500000,2,-3.3033449650,,,
17.3593750000,2,-2.9532170296,,,
17.3750000000,2,-3.4476320744,,,
17.3906250000,2,-4.8290100098,,,
17.4062500000,2,-7.0305790901,,,
17.4218750000,2,-9.8600769043,,,
17.4375000000,2,-13.0164203644,,,
17.4531250000,2,-16.0966205597,,,
17.4687500000,2,-18.7421607971,,,
17.4843750000,2,-20.7696800232,,,
17.5000000000,2,-22.1963500977,,,
17.5156250000,2,-23.2137794495,,,
17.5312500000,2,-24.0072307587,,,
17.5468750000,2,-24.6332397461,,,
17.5625000000,2,-24.9515399933,,,
17.5781250000,2,-24.7848796844,,,
17.5937500000,2,-24.1241493225,,,
17.6093750000,2,-23.3437500000,,,
17.6250000000,2,-23.1683998108,,,
17.6406250000,2,-24.4148597717,,,
17.6562500000,2,-27.5952091217,,,
17.6718750000,2,-32.5524597168,,,
17.6875000000,2,-38.3772315979,,,
17.7031250000,2,-43.6392211914,,,
17.7187500000,2,-46.9556617737,,,
17.7343750000,2,-47.4157409668,,,
17.7500000000,2,-44.9592590332,,,
17.7656250000,2,-40.3377418518,,,
17.7812500000,2,-34.8331909180,,,
17.7968750000,2,-29.9274005890,,,
17.8125000000,2,-26.9953899384,,,
17.8281250000,2,-27.0735492706,,,
17.8437500000,2,-30.4674396515,,,
17.8593750000,2,-36.3098106384,,,
17.8750000000,2,-42.4030799866,,,
17.8906250000,2,-45.7218284607,,,
17.9062500000,2,-43.5025901794,,,
17.9218750000,2,-34.4605102539,,,
17.9375000000,2,-19.4563007355,,,
17.9531250000,2,-1.0769040585,,,
17.9687500000,2,17.5369892120,,,
17.9843750000,2,34.0024986267,,,
18.0000000000,2,47.3612098694,,,
18.0156250000,2,57.7718505859,,,
18.0312500000,2,65.6235427856,,,
18.0468750000,2,70.8419570923,,,
18.0625000000,2,72.8784790039,,,
18.0781250000,2,71.3468017578,,,
18.0937500000,2,66.7227783203,,,
18.1093750000,2,60.4485511780,,,
18.1250000000,2,54.3261108398,,,
18.1406250000,2,49.6312713623,,,
18.1562500000,2,46.5629615784,,,
18.1718750000,2,44.3700103760,,,
18.1875000000,2,42.0517005920,,,
18.2031250000,2,39.0471000671,,,
18.2187500000,2,35.3934516907,,,
18.2343750000,2,31.5937690735,,,
18.2500000000,2,28.1674709320,,,
18.2656250000,2,25.3510704041,,,
18.2812500000,2,23.0367603302,,,
18.2968750000,2,20.9383392334,,,
18.3125000000,2,18.8268909454,,,
18.3281250000,2,16.6881904602,,,
18.3437500000,2,14.6905803680,,,
18.3593750000,2,13.0572204590,,,
18.3750000000,2,11.9344301224,,,
18.3906250000,2,11.2761697769,,,
18.4062500000,2,10.8874397278,,,
18.4218750000,2,10.5049896240,,,
18.4375000000,2,9.9397125244,,,
18.4531250000,2,9.1678771973,,,
18.4687500000,2,8.3193817139,,,
18.4843750000,2,7.5703129768,,,
18.5000000000,2,7.0058751106,,,
18.5156250000,2,6.5706019402,,,
18.5312500000,2,6.0419621468,,,
18.5468750000,2,5.1724848747,,,
18.5625000000,2,3.8279109001,,,
18.5781250000,2,2.0931849480,,,
18.5937500000,2,0.2659148872,,,
18.6093750000,2,-1.2743070126,,,
18.6250000000,2,-2.2445681095,,,
18.6406250000,2,-2.5808410645,,,
18.6562500000,2,-2.4338839054,,,
18.6718750000,2,-2.0833740234,,,
18.6875000000,2,-1.7757259607,,,
18.7031250000,2,-1.6522059441,,,
18.7187500000,2,-1.6952819824,,,
18.7343750000,2,-1.7867130041,,,
18.7500000000,2,-1.8022919893,,,
18.7656250000,2,-1.6796109676,,,
18.7812500000,2,-1.4447020292,,,
18.7968750000,2,-1.1808470488,,,
18.8125000000,2,-0.9812468886,,,
18.8281250000,2,-0.8763123155,,,
18.8437500000,2,-0.8206328750,,,
18.8593750000,2,-0.7149810791,,,
18.8750000000,2,-0.4664000869,,,
18.8906250000,2,-0.0693511963,,,
18.9062500000,2,0.4148254097,,,
18.9218750000,2,0.8658295274,,,
18.9375000000,2,1.2039949894,,,
18.9531250000,2,1.4055479765,,,
18.9687500000,2,1.5051419735,,,
18.9843750000,2,1.5276340246,,,
19.0000000000,2,1.4468380213,,,
19.0156250000,2,1.2086639404,,,
19.0312500000,2,0.7791290283,,,
19.0468750000,2,0.2246246040,,,
19.0625000000,2,-0.3034209907,,,
19.0781250000,2,-0.6342926025,,,
19.0937500000,2,-0.6846466064,,,
19.1093750000,2,-0.4997558892,,,
19.1250000000,2,-0.2308806926,,,
19.1406250000,2,-0.0502777100,,,
19.1562500000,2,-0.0216522198,,,
19.1718750000,2,-0.1094055027,,,
19.1875000000,2,-0.1920623928,,,
19.2031250000,2,-0.1878356934,,,
19.2187500000,2,-0.0841369629,,,
19.2343750000,2,0.0648345873,,,
19.2500000000,2,0.1922149956,,,
19.2656250000,2,0.2441864014,,,
19.2812500000,2,0.1943511963,,,
19.2968750000,2,0.0421142615,,,
19.3125000000,2,-0.2182006985,,,
19.3281250000,2,-0.5649871826,,,
19.3437500000,2,-0.9507598877,,,
19.3593750000,2,-1.2939449549,,,
19.3750000000,2,-1.4971009493,,,
19.3906250000,2,-1.5007020235,,,
19.4062500000,2,-1.2991329432,,,
19.4218750000,2,-0.9522094727,,,
19.4375000000,2,-0.5513306260,,,
19.4531250000,2,-0.2136687934,,,
19.4687500000,2,-0.0042114258,,,
19.4843750000,2,0.0622711182,,,
19.5000000000,2,0.0425415002,,,
19.5156250000,2,0.0356597900,,,
19.5312500000,2,0.1177368015,,,
19.5468750000,2,0.3121795952,,,
19.5625000000,2,0.5314025879,,,
19.5781250000,2,0.6345214844,,,
19.5937500000,2,0.4809874892,,,
19.6093750000,2,0.0377197303,,,
19.6250000000,2,-0.5736389160,,,
19.6406250000,2,-1.1394200325,,,
19.6562500000,2,-1.4093170166,,,
19.6718750000,2,-1.2341920137,,,
19.6875000000,2,-0.6132659912,,,
19.7031250000,2,0.3107909858,,,
19.7187500000,2,1.3038480282,,,
19.7343750000,2,2.1297299862,,,
19.7500000000,2,2.6230010986,,,
19.7656250000,2,2.7150421143,,,
19.7812500000,2,2.4375460148,,,
19.7968750000,2,1.8983759880,,,
19.8125000000,2,1.2258150578,,,
19.8281250000,2,0.5373535156,,,
19.8437500000,2,-0.0938262865,,,
19.8593750000,2,-0.6182097793,,,
19.8750000000,2,-0.9875792861,,,
19.8906250000,2,-1.1459050179,,,
19.9062500000,2,-1.0613859892,,,
19.9218750000,2,-0.7566832900,,,
19.9375000000,2,-0.3389281929,,,
19.9531250000,2,0.0092468262,,,
19.9687500000,2,0.1317290962,,,
19.9843750000,2,-0.0245208703,,,
20.0000000000,2,-0.3621368110,,,
20.0156250000,2,-0.7015991211,,,
20.0312500000,2,-0.8743438721,,,
20.0468750000,2,-0.8206940293,,,
20.0625000000,2,-0.6186981201,,,
20.0781250000,2,-0.3921967149,,,
20.0937500000,2,-0.2378997952,,,
20.1093750000,2,-0.1660460979,,,
20.1250000000,2,-0.0838317871,,,
20.1406250000,2,0.1032257006,,,
20.1562500000,2,0.4533691108,,,
20.1718750000,2,0.9332885742,,,
20.1875000000,2,1.4347380400,,,
20.2031250000,2,1.8446500301,,,
20.2187500000,2,2.0612030029,,,
20.2343750000,2,2.0381469727,,,
20.2500000000,2,1.7683260441,,,
20.2656250000,2,1.2849119902,,,
20.2812500000,2,0.6454467773,,,
20.2968750000,2,-0.0367584191,,,
20.3125000000,2,-0.6111145020,,,
20.3281250000,2,-0.9281920791,,,
20.3437500000,2,-0.8986968994,,,
20.3593750000,2,-0.5650023818,,,
20.3750000000,2,-0.0856628418,,,
20.3906250000,2,0.3120574951,,,
20.4062500000,2,0.4295502007,,,
20.4218750000,2,0.2062377930,,,
20.4375000000,2,-0.2536773980,,,
20.4531250000,2,-0.7391815186,,,
20.4687500000,2,-1.0521850586,,,
20.4843750000,2,-1.1006319523,,,
20.5000000000,2,-0.9508057237,,,
20.5156250000,2,-0.7774047852,,,
20.5312500000,2,-0.7548980713,,,
20.5468750000,2,-0.9668579102,,,
20.5625000000,2,-1.3773499727,,,
20.5781250000,2,-1.8392180204,,,
20.5937500000,2,-2.1639559269,,,
20.6093750000,2,-2.2147219181,,,
20.6250000000,2,-1.9309389591,,,
20.6406250000,2,-1.3987580538,,,
20.6562500000,2,-0.7910460830,,,
20.6718750000,2,-0.3133544922,,,
20.6875000000,2,-0.1264647990,,,
20.7031250000,2,-0.2500610054,,,
20.7187500000,2,-0.5601654053,,,
20.7343750000,2,-0.8360443115,,,
20.7500000000,2,-0.8742980957,,,
20.7656250000,2,-0.5803679824,,,
20.7812500000,2,-0.0216217004,,,
20.7968750000,2,0.6222534180,,,
20.8125000000,2,1.1674799919,,,
20.8281250000,2,1.4747769833,,,
20.8437500000,2,1.5289920568,,,
20.8593750000,2,1.3778690100,,,
20.8750000000,2,1.1212010384,,,
20.8906250000,2,0.8431243896,,,
20.9062500000,2,0.6117553711,,,
20.9218750000,2,0.4605408013,,,
20.9375000000,2,0.3812713921,,,
20.9531250000,2,0.3457947075,,,
20.9687500000,2,0.3105315864,,,
20.9843750000,2,0.2583465874,,,
21.0000000000,2,0.1938323975,,,
21.0156250000,2,0.1570435017,,,
21.0312500000,2,0.1632079929,,,
21.0468750000,2,0.1962433010,,,
21.0625000000,2,0.1903076023,,,
21.0781250000,2,0.0684814528,,,
21.0937500000,2,-0.2031555027,,,
21.1093750000,2,-0.5746002197,,,
21.1250000000,2,-0.9123839736,,,
21.1406250000,2,-1.0700529814,,,
21.1562500000,2,-0.9419097900,,,
21.1718750000,2,-0.5303955078,,,
21.1875000000,2,0.0528869592,,,
21.2031250000,2,0.6478577256,,,
21.2187500000,2,1.0856020451,,,
21.2343750000,2,1.2511899471,,,
21.2500000000,2,1.1242220402,,,
21.2656250000,2,0.7652739882,,,
21.2812500000,2,0.3020629883,,,
21.2968750000,2,-0.1185759977,,,
21.3125000000,2,-0.3530121148,,,
21.3281250000,2,-0.3276978135,,,
21.3437500000,2,-0.0233459491,,,
21.3593750000,2,0.4988707900,,,
21.3750000000,2,1.1318509579,,,
21.3906250000,2,1.7056119442,,,
21.4062500000,2,2.0484158993,,,
21.4218750000,2,2.0267488956,,,
21.4375000000,2,1.5877380371,,,
21.4531250000,2,0.8105316162,,,
21.4687500000,2,-0.1148070991,,,
21.4843750000,2,-0.9380645752,,,
21.5000000000,2,-1.4690090418,,,
21.5156250000,2,-1.6481020451,,,
21.5312500000,2,-1.5639339685,,,
21.5468750000,2,-1.3808590174,,,
21.5625000000,2,-1.2253270149,,,
21.5781250000,2,-1.1032259464,,,
21.5937500000,2,-0.9015045166,,,
21.6093750000,2,-0.4939270020,,,
21.6250000000,2,0.1559600979,,,
21.6406250000,2,0.9375609756,,,
21.6562500000,2,1.6349790096,,,
21.6718750000,2,2.0675959587,,,
21.6875000000,2,2.1740109921,,,
21.7031250000,2,2.0708620548,,,
21.7187500000,2,1.9526209831,,,
21.7343750000,2,1.9798890352,,,
21.7500000000,2,2.1773068905,,,
21.7656250000,2,2.4304049015,,,
21.7812500000,2,2.5763850212,,,
21.7968750000,2,2.4918980598,,,
21.8125000000,2,2.1835629940,,,
21.8281250000,2,1.7614899874,,,
21.8437500000,2,1.3775789738,,,
21.8593750000,2,1.1320500374,,,
21.8750000000,2,1.0434110165,,,
21.8906250000,2,1.0531619787,,,
21.9062500000,2,1.0727540255,,,
21.9218750000,2,1.0458979607,,,
21.9375000000,2,0.9755402207,,,
21.9531250000,2,0.9211121202,,,
21.9687500000,2,0.9559937119,,,
21.9843750000,2,1.1207580566,,,
22.0000000000,2,1.3944400549,,,
22.0156250000,2,1.6940310001,,,
22.0312500000,2,1.9152530432,,,
22.0468750000,2,1.9641879797,,,
22.0625000000,2,1.8021240234,,,
22.0781250000,2,1.4427340031,,,
22.0937500000,2,0.9631195068,,,
22.1093750000,2,0.4495544136,,,
22.1250000000,2,-0.0078582764,,,
22.1406250000,2,-0.3349151909,,,
22.1562500000,2,-0.5180969238,,,
22.1718750000,2,-0.5707244873,,,
22.1875000000,2,-0.5661010742,,,
22.2031250000,2,-0.5637207031,,,
22.2187500000,2,-0.5967255235,,,
22.2343750000,2,-0.6276245117,,,
22.2500000000,2,-0.5981749892,,,
22.2656250000,2,-0.4601440132,,,
22.2812500000,2,-0.2233733982,,,
22.2968750000,2,0.0226592999,,,
22.3125000000,2,0.1610413045,,,
22.3281250000,2,0.1171111986,,,
22.3437500000,2,-0.0998687670,,,
22.3593750000,2,-0.4129180908,,,
22.3750000000,2,-0.7328339219,,,
22.3906250000,2,-1.0180050135,,,
22.4062500000,2,-1.3157650232,,,
22.4218750000,2,-1.7091059685,,,
22.4375000000,2,-2.2449340820,,,
22.4531250000,2,-2.8670499325,,,
22.4687500000,2,-3.4336850643,,,
22.4843750000,2,-3.7870640755,,,
22.5000000000,2,-3.8380889893,,,
22.5156250000,2,-3.6190800667,,,
22.5312500000,2,-3.2453770638,,,
22.5468750000,2,-2.8504180908,,,
22.5625000000,2,-2.5077819824,,,
22.5781250000,2,-2.2347409725,,,
22.5937500000,2,-1.9952390194,,,
22.6093750000,2,-1.7714229822,,,
22.6250000000,2,-1.5669709444,,,
22.6406250000,2,-1.3925479650,,,
22.6562500000,2,-1.2601929903,,,
22.6718750000,2,-1.1185760498,,,
22.6875000000,2,-0.8949127197,,,
22.7031250000,2,-0.5052642822,,,
22.7187500000,2,0.0844726637,,,
22.7343750000,2,0.8341063857,,,
22.7500000000,2,1.6304630041,,,
22.7656250000,2,2.3385930061,,,
22.7812500000,2,2.8452301025,,,
22.7968750000,2,3.1155240536,,,
22.8125000000,2,3.1967320442,,,
22.8281250000,2,3.2178959846,,,
22.8437500000,2,3.3061370850,,,
22.8593750000,2,3.5225980282,,,
22.8750000000,2,3.8069310188,,,
22.8906250000,2,4.0294947624,,,
22.9062500000,2,4.0335998535,,,
22.9218750000,2,3.7459559441,,,
22.9375000000,2,3.1992189884,,,
22.9531250000,2,2.5105900764,,,
22.9687500000,2,1.8294370174,,,
22.9843750000,2,1.2698520422,,,
23.0000000000,2,0.8791809082,,,
23.0156250000,2,0.6558228135,,,
23.0312500000,2,0.5615692139,,,
23.0468750000,2,0.5449066162,,,
23.0625000000,2,0.5529326797,,,
23.0781250000,2,0.5243988037,,,
23.0937500000,2,0.4050598145,,,
23.1093750000,2,0.1451873928,,,
23.1250000000,2,-0.2570038140,,,
23.1406250000,2,-0.7810822129,,,
23.1562500000,2,-1.3811650276,,,
23.1718750000,2,-2.0019838810,,,
23.1875000000,2,-2.6075899601,,,
23.2031250000,2,-3.1833949089,,,
23.2187500000,2,-3.7021028996,,,
23.2343750000,2,-4.1554718018,,,
23.2500000000,2,-4.5348820686,,,
23.2656250000,2,-4.8328251839,,,
23.2812500000,2,-5.0509948730,,,
23.2968750000,2,-5.1806030273,,,
23.3125000000,2,-5.2172851563,,,
23.3281250000,2,-5.1547241211,,,
23.3437500000,2,-5.0101170540,,,
23.3593750000,2,-4.7835540771,,,
23.3750000000,2,-4.4793238640,,,
23.3906250000,2,-4.0777587891,,,
23.4062500000,2,-3.5691831112,,,
23.4218750000,2,-2.9728090763,,,
23.4375000000,2,-2.3609919548,,,
23.4531250000,2,-1.8373570442,,,
23.4687500000,2,-1.4907989502,,,
23.4843750000,2,-1.3177640438,,,
23.5000000000,2,-1.2254329920,,,
23.5156250000,2,-1.0795140266,,,
23.5312500000,2,-0.7855988145,,,
23.5468750000,2,-0.3378905952,,,
23.5625000000,2,0.1654967964,,,
23.5781250000,2,0.5796204209,,,
23.5937500000,2,0.7947083116,,,
23.6093750000,2,0.7802886963,,,
23.6250000000,2,0.6026458740,,,
23.6406250000,2,0.3653563857,,,
23.6562500000,2,0.1587982029,,,
23.6718750000,2,0.0193786602,,,
23.6875000000,2,-0.0581970215,,,
23.7031250000,2,-0.1179656982,,,
23.7187500000,2,-0.1899261028,,,
23.7343750000,2,-0.2747192085,,,
23.7500000000,2,-0.3478393853,,,
23.7656250000,2,-0.3775481880,,,
23.7812500000,2,-0.3282622993,,,
23.7968750000,2,-0.1675720066,,,
23.8125000000,2,0.1148528978,,,
23.8281250000,2,0.5047760010,,,
23.8437500000,2,0.9468842149,,,
23.8593750000,2,1.3474880457,,,
23.8750000000,2,1.6073299646,,,
23.8906250000,2,1.6604160070,,,
23.9062500000,2,1.4965209961,,,
23.9218750000,2,1.1914060116,,,
23.9375000000,2,0.8623046875,,,
23.9531250000,2,0.6286469102,,,
23.9687500000,2,0.5408325195,,,
23.9843750000,2,0.5512542725,,,
24.0000000000,3,0.5664368272,,,
24.0156250000,3,0.4911040962,,,
24.0312500000,3,0.3125000000,,,
24.0468750000,3,0.0930633470,,,
24.0625000000,3,-0.0436859094,,,
24.0781250000,3,-0.0028076170,,,
24.0937500000,3,0.2195587009,,,
24.1093750000,3,0.5598906875,,,
24.1250000000,3,0.9164124131,,,
24.1406250000,3,1.2035059929,,,
24.1562500000,3,1.3746949434,,,
24.1718750000,3,1.4059749842,,,
24.1875000000,3,1.2960820198,,,
24.2031250000,3,1.0619510412,,,
24.2187500000,3,0.7379456162,,,
24.2343750000,3,0.3854827881,,,
24.2500000000,3,0.0782165527,,,
24.2656250000,3,-0.1367339939,,,
24.2812500000,3,-0.2638854980,,,
24.2968750000,3,-0.3437347114,,,
24.3125000000,3,-0.4266357124,,,
24.3281250000,3,-0.5346527100,,,
24.3437500000,3,-0.6243286133,,,
24.3593750000,3,-0.6236572266,,,
24.3750000000,3,-0.4839324951,,,
24.3906250000,3,-0.2212371975,,,
24.4062500000,3,0.0814514235,,,
24.4218750000,3,0.3166351020,,,
24.4375000000,3,0.4221648872,,,
24.4531250000,3,0.4163055122,,,
24.4687500000,3,0.3910216987,,,
24.4843750000,3,0.4358977973,,,
24.5000000000,3,0.6069794297,,,
24.5156250000,3,0.8677062988,,,
24.5312500000,3,1.1446230412,,,
24.5468750000,3,1.3407900333,,,
24.5625000000,3,1.3917540312,,,
24.5781250000,3,1.2954560518,,,
24.5937500000,3,1.0886540413,,,
24.6093750000,3,0.8336182237,,,
24.6250000000,3,0.5984343886,,,
24.6406250000,3,0.4231261909,,,
24.6562500000,3,0.3543395996,,,
24.6718750000,3,0.4097900093,,,
24.6875000000,3,0.5838165283,,,
24.7031250000,3,0.8432769775,,,
24.7187500000,3,1.1176609993,,,
24.7343750000,3,1.3053280115,,,
24.7500000000,3,1.3223110437,,,
24.7656250000,3,1.1368410587,,,
24.7812500000,3,0.7817534804,,,
24.7968750000,3,0.3483428955,,,
24.8125000000,3,-0.0446472205,,,
24.8281250000,3,-0.3020172119,,,
24.8437500000,3,-0.3966675103,,,
24.8593750000,3,-0.3757477105,,,
24.8750000000,3,-0.3376770020,,,
24.8906250000,3,-0.3785552979,,,
24.9062500000,3,-0.5084686279,,,
24.9218750000,3,-0.6543732285,,,
24.9375000000,3,-0.7144318223,,,
24.9531250000,3,-0.6121520996,,,
24.9687500000,3,-0.3739165962,,,
24.9843750000,3,-0.1005401984,,,
25.0000000000,3,0.1067046970,,,
25.0156250000,3,0.1827239990,,,
25.0312500000,3,0.1655120999,,,
25.0468750000,3,0.1285552979,,,
25.0625000000,3,0.1409606934,,,
25.0781250000,3,0.2113036960,,,
25.0937500000,3,0.2912597954,,,
25.1093750000,3,0.3188476861,,,
25.1250000000,3,0.2749786079,,,
25.1406250000,3,0.1954346001,,,
25.1562500000,3,0.1530762017,,,
25.1718750000,3,0.2108916938,,,
25.1875000000,3,0.3764342964,,,
25.2031250000,3,0.6113892198,,,
25.2187500000,3,0.8677825928,,,
25.2343750000,3,1.1072390079,,,
25.2500000000,3,1.3265529871,,,
25.2656250000,3,1.5294649601,,,
25.2812500000,3,1.7222900391,,,
25.2968750000,3,1.8933869600,,,
25.3125000000,3,2.0294039249,,,
25.3281250000,3,2.1095890999,,,
25.3437500000,3,2.1067349911,,,
25.3593750000,3,1.9935150146,,,
25.3750000000,3,1.7485500574,,,
25.3906250000,3,1.3517459631,,,
25.4062500000,3,0.8033599854,,,
25.4218750000,3,0.1306914985,,,
25.4375000000,3,-0.6198120117,,,
25.4531250000,3,-1.3644870520,,,
25.4687500000,3,-2.0101170540,,,
25.4843750000,3,-2.4755249023,,,
25.5000000000,3,-2.7086179256,,,
25.5156250000,3,-2.7203979492,,,
25.5312500000,3,-2.5856928825,,,
25.5468750000,3,-2.4243159294,,,
25.5625000000,3,-2.3326261044,,,
25.5781250000,3,-2.3416900635,,,
25.5937500000,3,-2.4049530029,,,
25.6093750000,3,-2.4176940918,,,
25.6250000000,3,-2.2706449032,,,
25.6406250000,3,-1.9179229736,,,
25.6562500000,3,-1.3967130184,,,
25.6718750000,3,-0.8267211914,,,
25.6875000000,3,-0.3395080864,,,
25.7031250000,3,-0.0265045203,,,
25.7187500000,3,0.0889129564,,,
25.7343750000,3,0.0544738807,,,
25.7500000000,3,-0.0355834998,,,
25.7656250000,3,-0.1018828973,,,
25.7812500000,3,-0.1052704006,,,
25.7968750000,3,-0.0662536621,,,
25.8125000000,3,-0.0366668701,,,
25.8281250000,3,-0.0629730225,,,
25.8437500000,3,-0.1537476033,,,
25.8593750000,3,-0.2660675049,,,
25.8750000000,3,-0.3429718018,,,
25.8906250000,3,-0.3359070122,,,
25.9062500000,3,-0.2496185005,,,
25.9218750000,3,-0.1172180027,,,
25.9375000000,3,0.0377197303,,,
25.9531250000,3,0.2113952935,,,
25.9687500000,3,0.4528045952,,,
25.9843750000,3,0.8055725098,,,
26.0000000000,3,1.2606660128,,,
26.0156250000,3,1.7357029915,,,
26.0312500000,3,2.1001739502,,,
26.0468750000,3,2.2308349609,,,
26.0625000000,3,2.0657958984,,,
26.0781250000,3,1.6681369543,,,
26.0937500000,3,1.1501009464,,,
26.1093750000,3,0.6501770020,,,
26.1250000000,3,0.2784576118,,,
26.1406250000,3,0.0563049316,,,
26.1562500000,3,-0.0563964806,,,
26.1718750000,3,-0.1386260986,,,
26.1875000000,3,-0.2512511909,,,
26.2031250000,3,-0.4170379937,,,
26.2187500000,3,-0.6157836914,,,
26.2343750000,3,-0.8136901855,,,
26.2500000000,3,-0.9809569716,,,
26.2656250000,3,-1.1253509521,,,
26.2812500000,3,-1.2475279570,,,
26.2968750000,3,-1.3338320255,,,
26.3125000000,3,-1.3153079748,,,
26.3281250000,3,-1.1139069796,,,
26.3437500000,3,-0.6958312988,,,
26.3593750000,3,-0.1033478007,,,
26.3750000000,3,0.5109863281,,,
26.3906250000,3,0.9535980225,,,
26.4062500000,3,1.0776369572,,,
26.4218750000,3,0.8502808213,,,
26.4375000000,3,0.3862000108,,,
26.4531250000,3,-0.1253356934,,,
26.4687500000,3,-0.5093079209,,,
26.4843750000,3,-0.6983032227,,,
26.5000000000,3,-0.7436981201,,,
26.5156250000,3,-0.7485352159,,,
26.5312500000,3,-0.7808837891,,,
26.5468750000,3,-0.8102570176,,,
26.5625000000,3,-0.7496032715,,,
26.5781250000,3,-0.4937592149,,,
26.5937500000,3,-0.0300293006,,,
26.6093750000,3,0.5520629883,,,
26.6250000000,3,1.0999909639,,,
26.6406250000,3,1.4644169807,,,
26.6562500000,3,1.5795899630,,,
26.6718750000,3,1.4761660099,,,
26.6875000000,3,1.2651519775,,,
26.7031250000,3,1.0745699406,,,
26.7187500000,3,0.9746704102,,,
26.7343750000,3,0.9674835205,,,
26.7500000000,3,0.9908751845,,,
26.7656250000,3,0.9668427110,,,
26.7812500000,3,0.8491973877,,,
26.7968750000,3,0.6384124756,,,
26.8125000000,3,0.3745880127,,,
26.8281250000,3,0.1076965034,,,
26.8437500000,3,-0.1386414021,,,
26.8593750000,3,-0.3857727051,,,
26.8750000000,3,-0.6744689941,,,
26.8906250000,3,-1.0330350399,,,
26.9062500000,3,-1.4120030403,,,
26.9218750000,3,-1.6838380098,,,
26.9375000000,3,-1.6984250546,,,
26.9531250000,3,-1.3750150204,,,
26.9687500000,3,-0.7672882080,,,
26.9843750000,3,-0.0572357215,,,
27.0000000000,3,0.5013427734,,,
27.0156250000,3,0.7395172119,,,
27.0312500000,3,0.6362457275,,,
27.0468750000,3,0.3134917915,,,
27.0625000000,3,-0.0447998010,,,
27.0781250000,3,-0.3239746094,,,
27.0937500000,3,-0.5305175781,,,
27.1093750000,3,-0.7517089844,,,
27.1250000000,3,-1.0525670052,,,
27.1406250000,3,-1.4014890194,,,
27.1562500000,3,-1.6461939812,,,
27.1718750000,3,-1.6171879768,,,
27.1875000000,3,-1.2454680204,,,
27.2031250000,3,-0.6013793945,,,
27.2187500000,3,0.1161499023,,,
27.2343750000,3,0.7218933105,,,
27.2500000000,3,1.1349489689,,,
27.2656250000,3,1.4122309685,,,
27.2812500000,3,1.6782840490,,,
27.2968750000,3,2.0494079590,,,
27.3125000000,3,2.4945371151,,,
27.3281250000,3,2.8795471191,,,
27.3437500000,3,3.0204010010,,,
27.3593750000,3,2.8088839054,,,
27.3750000000,3,2.2933349609,,,
27.3906250000,3,1.6539609432,,,
27.4062500000,3,1.1227569580,,,
27.4218750000,3,0.8554993272,,,
27.4375000000,3,0.8717346191,,,
27.4531250000,3,1.0456850529,,,
27.4687500000,3,1.1946719885,,,
27.4843750000,3,1.2078249454,,,
27.5000000000,3,1.0761409998,,,
27.5156250000,3,0.9011383057,,,
27.5312500000,3,0.8106079102,,,
27.5468750000,3,0.8479614258,,,
27.5625000000,3,0.9468842149,,,
27.5781250000,3,0.9604340196,,,
27.5937500000,3,0.7629547119,,,
27.6093750000,3,0.3414000869,,,
27.6250000000,3,-0.1941528022,,,
27.6406250000,3,-0.6948853135,,,
27.6562500000,3,-1.0482480526,,,
27.6718750000,3,-1.2601929903,,,
27.6875000000,3,-1.4176030159,,,
27.7031250000,3,-1.6258699894,,,
27.7187500000,3,-1.9063719511,,,
27.7343750000,3,-2.1866149902,,,
27.7500000000,3,-2.3274230957,,,
27.7656250000,3,-2.2197420597,,,
27.7812500000,3,-1.8748019934,,,
27.7968750000,3,-1.3953399658,,,
27.8125000000,3,-0.9385985732,,,
27.8281250000,3,-0.5888062119,,,
27.8437500000,3,-0.3427276909,,,
27.8593750000,3,-0.1219177023,,,
27.8750000000,3,0.1532745063,,,
27.8906250000,3,0.4755096138,,,
27.9062500000,3,0.7682647705,,,
27.9218750000,3,0.9257506728,,,
27.9375000000,3,0.9054871202,,,
27.9531250000,3,0.7694396973,,,
27.9687500000,3,0.6299437881,,,
27.9843750000,3,0.5955200195,,,
28.0000000000,3,0.6965485215,,,
28.0156250000,3,0.8729094863,,,
28.0312500000,3,1.0091710091,,,
28.0468750000,3,1.0373380184,,,
28.0625000000,3,0.9609680176,,,
28.0781250000,3,0.8458709717,,,
28.0937500000,3,0.7735291123,,,
28.1093750000,3,0.7802581787,,,
28.1250000000,3,0.8569489121,,,
28.1406250000,3,0.9650878906,,,
28.1562500000,3,1.0641020536,,,
28.1718750000,3,1.1105959415,,,
28.1875000000,3,1.0735319853,,,
28.2031250000,3,0.9125977159,,,
28.2187500000,3,0.5978698730,,,
28.2343750000,3,0.1392821968,,,
28.2500000000,3,-0.4125823975,,,
28.2656250000,3,-0.9891204834,,,
28.2812500000,3,-1.5191500187,,,
28.2968750000,3,-1.9572600126,,,
28.3125000000,3,-2.2733149529,,,
28.3281250000,3,-2.4439389706,,,
28.3437500000,3,-2.4797520638,,,
28.3593750000,3,-2.4253849983,,,
28.3750000000,3,-2.3495941162,,,
28.3906250000,3,-2.3186650276,,,
28.4062500000,3,-2.3267669678,,,
28.4218750000,3,-2.2729640007,,,
28.4375000000,3,-2.0291440487,,,
28.4531250000,3,-1.5135350227,,,
28.4687500000,3,-0.7870026231,,,
28.4843750000,3,-0.0428924598,,,
28.5000000000,3,0.4785003960,,,
28.5156250000,3,0.6596221924,,,
28.5312500000,3,0.5442199707,,,
28.5468750000,3,0.3199768066,,,
28.5625000000,3,0.1939391941,,,
28.5781250000,3,0.2571259141,,,
28.5937500000,3,0.4467467964,,,
28.6093750000,3,0.6001586914,,,
28.6250000000,3,0.5724182129,,,
28.6406250000,3,0.3277587891,,,
28.6562500000,3,-0.0459594689,,,
28.6718750000,3,-0.3960418999,,,
28.6875000000,3,-0.5837097168,,,
28.7031250000,3,-0.5302429199,,,
28.7187500000,3,-0.2773132026,,,
28.7343750000,3,0.0635223389,,,
28.7500000000,3,0.3331908882,,,
28.7656250000,3,0.3920288086,,,
28.7812500000,3,0.1895904988,,,
28.7968750000,3,-0.2175292969,,,
28.8125000000,3,-0.6628571153,,,
28.8281250000,3,-0.9704132080,,,
28.8437500000,3,-1.0426789522,,,
28.8593750000,3,-0.9141998291,,,
28.8750000000,3,-0.7185211182,,,
28.8906250000,3,-0.6216431260,,,
28.9062500000,3,-0.7138671875,,,
28.9218750000,3,-0.9614716172,,,
28.9375000000,3,-1.2174069881,,,
28.9531250000,3,-1.3076319695,,,
28.9687500000,3,-1.1307369471,,,
28.9843750000,3,-0.6983032227,,,
29.0000000000,3,-0.1500092000,,,
29.0156250000,3,0.3244628906,,,
29.0312500000,3,0.5693054199,,,
29.0468750000,3,0.5216674805,,,
29.0625000000,3,0.2372283936,,,
29.0781250000,3,-0.1381835938,,,
29.0937500000,3,-0.4460144043,,,
29.1093750000,3,-0.5787200928,,,
29.1250000000,3,-0.5010375977,,,
29.1406250000,3,-0.2576752007,,,
29.1562500000,3,0.0590057410,,,
29.1718750000,3,0.3542785943,,,
29.1875000000,3,0.5471343994,,,
29.2031250000,3,0.6050568223,,,
29.2187500000,3,0.5129547119,,,
29.2343750000,3,0.2684631050,,,
29.2500000000,3,-0.1231231987,,,
29.2656250000,3,-0.6205596924,,,
29.2812500000,3,-1.1362760067,,,
29.2968750000,3,-1.5408170223,,,
29.3125000000,3,-1.6752779484,,,
29.3281250000,3,-1.4380040169,,,
29.3437500000,3,-0.8309326172,,,
29.3593750000,3,0.0116272001,,,
29.3750000000,3,0.8639984131,,,
29.3906250000,3,1.5035710335,,,
29.4062500000,3,1.7998809814,,,
29.4218750000,3,1.7509000301,,,
29.4375000000,3,1.4777369499,,,
29.4531250000,3,1.1645050049,,,
29.4687500000,3,0.9474945068,,,
29.4843750000,3,0.8660125732,,,
29.5000000000,3,0.8690186143,,,
29.5156250000,3,0.8735198975,,,
29.5312500000,3,0.8255919814,,,
29.5468750000,3,0.7340393066,,,
29.5625000000,3,0.6512755752,,,
29.5781250000,3,0.6209105849,,,
29.5937500000,3,0.6479492188,,,
29.6093750000,3,0.6684265137,,,
29.6250000000,3,0.5973052979,,,
29.6406250000,3,0.3810577095,,,
29.6562500000,3,0.0260314904,,,
29.6718750000,3,-0.3731383979,,,
29.6875000000,3,-0.6903228760,,,
29.7031250000,3,-0.8319396973,,,
29.7187500000,3,-0.7756348252,,,
29.7343750000,3,-0.5734406114,,,
29.7500000000,3,-0.3112945855,,,
29.7656250000,3,-0.0553436317,,,
29.7812500000,3,0.1790466011,,,
29.7968750000,3,0.4149932861,,,
29.8125000000,3,0.6687316895,,,
29.8281250000,3,0.9084166884,,,
29.8437500000,3,1.0254360437,,,
29.8593750000,3,0.8930969238,,,
29.8750000000,3,0.4246216118,,,
29.8906250000,3,-0.3398894966,,,
29.9062500000,3,-1.2270050049,,,
29.9218750000,3,-1.9843289852,,,
29.9375000000,3,-2.3921051025,,,
29.9531250000,3,-2.3604578972,,,
29.9687500000,3,-1.9539339542,,,
29.9843750000,3,-1.3456729650,,,
30.0000000000,3,-0.7328339219,,,
30.0156250000,3,-0.2601929009,,,
30.0312500000,3,0.0015411380,,,
30.0468750000,3,0.0440521203,,,
30.0625000000,3,-0.1101837009,,,
30.0781250000,3,-0.4169006050,,,
30.0937500000,3,-0.7803496718,,,
30.1093750000,3,-1.0738220215,,,
30.1250000000,3,-1.1289370060,,,
30.1406250000,3,-0.7962340713,,,
30.1562500000,3,-0.0329284705,,,
30.1718750000,3,1.0473330021,,,
30.1875000000,3,2.1813659668,,,
30.2031250000,3,3.0183260441,,,
30.2187500000,3,3.2492830753,,,
30.2343750000,3,2.7359468937,,,
30.2500000000,3,1.5815279484,,,
30.2656250000,3,0.1233673021,,,
30.2812500000,3,-1.1976319551,,,
30.2968750000,3,-1.9825589657,,,
30.3125000000,3,-2.0342559814,,,
30.3281250000,3,-1.4090420008,,,
30.3437500000,3,-0.3753510118,,,
30.3593750000,3,0.7280579209,,,
30.3750000000,3,1.6196589470,,,
30.3906250000,3,2.1396479607,,,
30.4062500000,3,2.2411189079,,,
30.4218750000,3,1.9376529455,,,
30.4375000000,3,1.2659300566,,,
30.4531250000,3,0.2975921929,,,
30.4687500000,3,-0.8142852783,,,
30.4843750000,3,-1.8179630041,,,
30.5000000000,3,-2.4132690430,,,
30.5156250000,3,-2.3623659611,,,
30.5312500000,3,-1.6262359619,,,
30.5468750000,3,-0.3832396865,,,
30.5625000000,3,0.9721984863,,,
30.5781250000,3,2.0054929256,,,
30.5937500000,3,2.4108729362,,,
30.6093750000,3,2.1238400936,,,
30.6250000000,3,1.3357700109,,,
30.6406250000,3,0.4047698975,,,
30.6562500000,3,-0.3289794922,,,
30.6718750000,3,-0.6822205186,,,
30.6875000000,3,-0.6428833008,,,
30.7031250000,3,-0.3603821099,,,
30.7187500000,3,-0.0231628399,,,
30.7343750000,3,0.2147980034,,,
30.7500000000,3,0.2638702095,,,
30.7656250000,3,0.0991668701,,,
30.7812500000,3,-0.2474822998,,,
30.7968750000,3,-0.6833801270,,,
30.8125000000,3,-1.0657500029,,,
30.8281250000,3,-1.2301640511,,,
30.8437500000,3,-1.0571589470,,,
30.8593750000,3,-0.5560759902,,,
30.8750000000,3,0.1429595947,,,
30.8906250000,3,0.8266906738,,,
30.9062500000,3,1.2901760340,,,
30.9218750000,3,1.4207919836,,,
30.9375000000,3,1.2283940315,,,
30.9531250000,3,0.7708740234,,,
30.9687500000,3,0.1201018989,,,
30.9843750000,3,-0.6568756104,,,
31.0000000000,3,-1.4744570255,,,
31.0156250000,3,-2.1828000546,,,
31.0312500000,3,-2.5959010124,,,
31.0468750000,3,-2.5455470085,,,
31.0625000000,3,-2.0057220459,,,
31.0781250000,3,-1.1040649414,,,
31.0937500000,3,-0.1036681980,,,
31.1093750000,3,0.7259520888,,,
31.1250000000,3,1.1755069494,,,
31.1406250000,3,1.1794890165,,,
31.1562500000,3,0.7844086289,,,
31.1718750000,3,0.0860595703,,,
31.1875000000,3,-0.7594910264,,,
31.2031250000,3,-1.5801999569,,,
31.2187500000,3,-2.1634519100,,,
31.2343750000,3,-2.3235170841,,,
31.2500000000,3,-1.9358979464,,,
31.2656250000,3,-1.0187679529,,,
31.2812500000,3,0.2517699897,,,
31.2968750000,3,1.5808720589,,,
31.3125000000,3,2.6725769043,,,
31.3281250000,3,3.3180079460,,,
31.3437500000,3,3.4735720158,,,
31.3593750000,3,3.2248380184,,,
31.3750000000,3,2.7469179630,,,
31.3906250000,3,2.2294769287,,,
31.4062500000,3,1.8244930506,,,
31.4218750000,3,1.6121369600,,,
31.4375000000,3,1.5942380428,,,
31.4531250000,3,1.6681669950,,,
31.4687500000,3,1.6557619572,,,
31.4843750000,3,1.3404079676,,,
31.5000000000,3,0.5811461806,,,
31.5156250000,3,-0.6156311035,,,
31.5312500000,3,-2.0390629768,,,
31.5468750000,3,-3.3062438965,,,
31.5625000000,3,-4.0126190186,,,
31.5781250000,3,-3.9002380371,,,
31.5937500000,3,-2.9746088982,,,
31.6093750000,3,-1.4993289709,,,
31.6250000000,3,0.0816192627,,,
31.6406250000,3,1.3444060087,,,
31.6562500000,3,2.0217900276,,,
31.6718750000,3,2.0621800423,,,
31.6875000000,3,1.5905760527,,,
31.7031250000,3,0.8079987168,,,
31.7187500000,3,-0.0627593994,,,
31.7343750000,3,-0.8452606201,,,
31.7500000000,3,-1.3906400204,,,
31.7656250000,3,-1.5869139433,,,
31.7812500000,3,-1.3807220459,,,
31.7968750000,3,-0.8239899278,,,
31.8125000000,3,-0.0813751221,,,
31.8281250000,3,0.6174468994,,,
31.8437500000,3,1.0670620203,,,
31.8593750000,3,1.1685789824,,,
31.8750000000,3,0.9637755752,,,
31.8906250000,3,0.6071929932,,,
31.9062500000,3,0.2700805962,,,
31.9218750000,3,0.0761108398,,,
31.9375000000,3,0.0579986610,,,
31.9531250000,3,0.1681060940,,,
31.9687500000,3,0.3578644097,,,
31.9843750000,3,0.5786895752,,,
32.0000000000,4,0.8241729736,,,
32.0156250000,4,1.0753480196,,,
32.0312500000,4,1.2998659611,,,
32.0468750000,4,1.4245300293,,,
32.0625000000,4,1.3796080351,,,
32.0781250000,4,1.1218719482,,,
32.0937500000,4,0.6640471816,,,
32.1093750000,4,0.0823822021,,,
32.1250000000,4,-0.5019989014,,,
32.1406250000,4,-0.9566802979,,,
32.1562500000,4,-1.1921689510,,,
32.1718750000,4,-1.1885219812,,,
32.1875000000,4,-0.9842833877,,,
32.2031250000,4,-0.6817473769,,,
32.2187500000,4,-0.3935546875,,,
32.2343750000,4,-0.2100066990,,,
32.2500000000,4,-0.1674956977,,,
32.2656250000,4,-0.2247619927,,,
32.2812500000,4,-0.2965087891,,,
32.2968750000,4,-0.2901000977,,,
32.3125000000,4,-0.1781158000,,,
32.3281250000,4,0.0092926025,,,
32.3437500000,4,0.1671448052,,,
32.3593750000,4,0.2015991062,,,
32.3750000000,4,0.0700073168,,,
32.3906250000,4,-0.1850433052,,,
32.4062500000,4,-0.4552307129,,,
32.4218750000,4,-0.6108856201,,,
32.4375000000,4,-0.5761566162,,,
32.4531250000,4,-0.3826447129,,,
32.4687500000,4,-0.1427306980,,,
32.4843750000,4,-0.0140838604,,,
32.5000000000,4,-0.1095122993,,,
32.5156250000,4,-0.4451903999,,,
32.5312500000,4,-0.9282073975,,,
32.5468750000,4,-1.3870699406,,,
32.5625000000,4,-1.6484379768,,,
32.5781250000,4,-1.6095730066,,,
32.5937500000,4,-1.2738039494,,,
32.6093750000,4,-0.7673950195,,,
32.6250000000,4,-0.2580718994,,,
32.6406250000,4,0.0961456299,,,
32.6562500000,4,0.2276611030,,,
32.6718750000,4,0.1465606987,,,
32.6875000000,4,-0.0437927209,,,
32.7031250000,4,-0.2164001018,,,
32.7187500000,4,-0.2503966987,,,
32.7343750000,4,-0.0777587891,,,
32.7500000000,4,0.2838439941,,,
32.7656250000,4,0.7503662109,,,
32.7812500000,4,1.1853179932,,,
32.7968750000,4,1.4783630371,,,
32.8125000000,4,1.5468750000,,,
32.8281250000,4,1.4036710262,,,
32.8437500000,4,1.1176609993,,,
32.8593750000,4,0.7861632705,,,
32.8750000000,4,0.4974364936,,,
32.8906250000,4,0.3168793023,,,
32.9062500000,4,0.2713775933,,,
32.9218750000,4,0.3594971001,,,
32.9375000000,4,0.5549163818,,,
32.9531250000,4,0.7829741836,,,
32.9687500000,4,0.9526978135,,,
32.9843750000,4,0.9581757188,,,
33.0000000000,4,0.7391356826,,,
33.0156250000,4,0.3298797905,,,
33.0312500000,4,-0.1695404053,,,
33.0468750000,4,-0.6240233779,,,
33.0625000000,4,-0.9517365098,,,
33.0781250000,4,-1.1351619959,,,
33.0937500000,4,-1.2151490450,,,
33.1093750000,4,-1.2425539494,,,
33.1250000000,4,-1.2252199650,,,
33.1406250000,4,-1.1350100040,,,
33.1562500000,4,-0.9494323730,,,
33.1718750000,4,-0.6984711289,,,
33.1875000000,4,-0.4598846138,,,
33.2031250000,4,-0.3322905898,,,
33.2187500000,4,-0.3596954048,,,
33.2343750000,4,-0.5017089844,,,
33.2500000000,4,-0.6549376845,,,
33.2656250000,4,-0.7102202773,,,
33.2812500000,4,-0.6372833252,,,
33.2968750000,4,-0.4664916992,,,
33.3125000000,4,-0.2969208062,,,
33.3281250000,4,-0.2084656060,,,
33.3437500000,4,-0.2330169976,,,
33.3593750000,4,-0.3312683105,,,
33.3750000000,4,-0.4184113145,,,
33.3906250000,4,-0.4185791016,,,
33.4062500000,4,-0.2931213081,,,
33.4218750000,4,-0.0755920410,,,
33.4375000000,4,0.1541900933,,,
33.4531250000,4,0.3036194146,,,
33.4687500000,4,0.3354187012,,,
33.4843750000,4,0.2863922119,,,
33.5000000000,4,0.2514648139,,,
33.5156250000,4,0.3315886855,,,
33.5312500000,4,0.5662689209,,,
33.5468750000,4,0.9242858887,,,
33.5625000000,4,1.2878719568,,,
33.5781250000,4,1.5495760441,,,
33.5937500000,4,1.6357879639,,,
33.6093750000,4,1.5304260254,,,
33.6250000000,4,1.2483520508,,,
33.6406250000,4,0.8113707900,,,
33.6562500000,4,0.2430420071,,,
33.6718750000,4,-0.3977203071,,,
33.6875000000,4,-1.0020450354,,,
33.7031250000,4,-1.4190369844,,,
33.7187500000,4,-1.5253449678,,,
33.7343750000,4,-1.2825319767,,,
33.7500000000,4,-0.7710419297,,,
33.7656250000,4,-0.1478119045,,,
33.7812500000,4,0.4224396050,,,
33.7968750000,4,0.8518065810,,,
33.8125000000,4,1.1303859949,,,
33.8281250000,4,1.2865300179,,,
33.8437500000,4,1.3211359978,,,
33.8593750000,4,1.2055209875,,,
33.8750000000,4,0.9195557237,,,
33.8906250000,4,0.4901581109,,,
33.9062500000,4,0.0318145789,,,
33.9218750000,4,-0.3121489882,,,
33.9375000000,4,-0.4395599067,,,
33.9531250000,4,-0.3483428955,,,
33.9687500000,4,-0.1579284966,,,
33.9843750000,4,-0.0211639404,,,
34.0000000000,4,-0.0472412109,,,
34.0156250000,4,-0.2557677925,,,
34.0312500000,4,-0.5669097900,,,
34.0468750000,4,-0.8497313857,,,
34.0625000000,4,-1.0075069666,,,
34.0781250000,4,-1.0018160343,,,
34.0937500000,4,-0.8602294922,,,
34.1093750000,4,-0.6540833116,,,
34.1250000000,4,-0.4340668023,,,
34.1406250000,4,-0.2247924954,,,
34.1562500000,4,-0.0372314490,,,
34.1718750000,4,0.1384429932,,,
34.1875000000,4,0.2821654975,,,
34.2031250000,4,0.3568725884,,,
34.2187500000,4,0.3175049126,,,
34.2343750000,4,0.1703948975,,,
34.2500000000,4,-0.0415649414,,,
34.2656250000,4,-0.2126311958,,,
34.2812500000,4,-0.2382355034,,,
34.2968750000,4,-0.0899658203,,,
34.3125000000,4,0.1912993938,,,
34.3281250000,4,0.4879302979,,,
34.3437500000,4,0.6658020020,,,
34.3593750000,4,0.6453400254,,,
34.3750000000,4,0.4409636855,,,
34.3906250000,4,0.1411132962,,,
34.4062500000,4,-0.1211242974,,,
34.4218750000,4,-0.2500458062,,,
34.4375000000,4,-0.2071533054,,,
34.4531250000,4,-0.0207366906,,,
34.4687500000,4,0.2426147014,,,
34.4843750000,4,0.5027924180,,,
34.5000000000,4,0.7033997178,,,
34.5156250000,4,0.8057556152,,,
34.5312500000,4,0.7868804932,,,
34.5468750000,4,0.6519774795,,,
34.5625000000,4,0.4212799072,,,
34.5781250000,4,0.1274109036,,,
34.5937500000,4,-0.1742859036,,,
34.6093750000,4,-0.4411011040,,,
34.6250000000,4,-0.6300659180,,,
34.6406250000,4,-0.7410582900,,,
34.6562500000,4,-0.8120421767,,,
34.6718750000,4,-0.9026030898,,,
34.6875000000,4,-1.0645450354,,,
34.7031250000,4,-1.3066099882,,,
34.7187500000,4,-1.5899660587,,,
34.7343750000,4,-1.8116300106,,,
34.7500000000,4,-1.8603819609,,,
34.7656250000,4,-1.6490329504,,,
34.7812500000,4,-1.1499789953,,,
34.7968750000,4,-0.4131317139,,,
34.8125000000,4,0.4580383003,,,
34.8281250000,4,1.3184200525,,,
34.8437500000,4,2.0059359074,,,
34.8593750000,4,2.3835909367,,,
34.8750000000,4,2.3861689568,,,
34.8906250000,4,2.0313260555,,,
34.9062500000,4,1.4349520206,,,
34.9218750000,4,0.7771912217,,,
34.9375000000,4,0.2338408977,,,
34.9531250000,4,-0.0736541674,,,
34.9687500000,4,-0.1016540974,,,
34.9843750000,4,0.0929260328,,,
35.0000000000,4,0.4222564995,,,
35.0156250000,4,0.7878112793,,,
35.0312500000,4,1.0855100155,,,
35.0468750000,4,1.2224119902,,,
35.0625000000,4,1.1203160286,,,
35.0781250000,4,0.7351074219,,,
35.0937500000,4,0.1131438985,,,
35.1093750000,4,-0.6006926894,,,
35.1250000000,4,-1.1950680017,,,
35.1406250000,4,-1.4670560360,,,
35.1562500000,4,-1.3273010254,,,
35.1718750000,4,-0.8584136963,,,
35.1875000000,4,-0.2794952095,,,
35.2031250000,4,0.1551513970,,,
35.2187500000,4,0.2572478950,,,
35.2343750000,4,-0.0108184796,,,
35.2500000000,4,-0.5261992812,,,
35.2656250000,4,-1.0567170382,,,
35.2812500000,4,-1.3789520264,,,
35.2968750000,4,-1.3632810116,,,
35.3125000000,4,-1.0179749727,,,
35.3281250000,4,-0.4822692871,,,
35.3437500000,4,0.0606231689,,,
35.3593750000,4,0.4373168945,,,
35.3750000000,4,0.5759735107,,,
35.3906250000,4,0.4869843125,,,
35.4062500000,4,0.2794952095,,,
35.4218750000,4,0.0852050781,,,
35.4375000000,4,-0.0015411380,,,
35.4531250000,4,0.0578613319,,,
35.4687500000,4,0.2218170017,,,
35.4843750000,4,0.4070281982,,,
35.5000000000,4,0.5449523926,,,
35.5156250000,4,0.6025238037,,,
35.5312500000,4,0.5818480849,,,
35.5468750000,4,0.5081024170,,,
35.5625000000,4,0.3723754883,,,
35.5781250000,4,0.1527709961,,,
35.5937500000,4,-0.1871490031,,,
35.6093750000,4,-0.6320037842,,,
35.6250000000,4,-1.0969539881,,,
35.6406250000,4,-1.4317170382,,,
35.6562500000,4,-1.4885560274,,,
35.6718750000,4,-1.2133029699,,,
35.6875000000,4,-0.6927642822,,,
35.7031250000,4,-0.1164856032,,,
35.7187500000,4,0.3161011040,,,
35.7343750000,4,0.4954986870,,,
35.7500000000,4,0.4443207085,,,
35.7656250000,4,0.2845763862,,,
35.7812500000,4,0.1454010010,,,
35.7968750000,4,0.1043549031,,,
35.8125000000,4,0.1680908054,,,
35.8281250000,4,0.2771148980,,,
35.8437500000,4,0.3801270127,,,
35.8593750000,4,0.4349822998,,,
35.8750000000,4,0.4270781875,,,
35.8906250000,4,0.3562164009,,,
35.9062500000,4,0.2476501018,,,
35.9218750000,4,0.1403502971,,,
35.9375000000,4,0.0869750977,,,
35.9531250000,4,0.1202393025,,,
35.9687500000,4,0.2411652058,,,
35.9843750000,4,0.4141387939,,,
36.0000000000,4,0.5957642198,,,
36.0156250000,4,0.7571411133,,,
36.0312500000,4,0.9037628174,,,
36.0468750000,4,1.0539089441,,,
36.0625000000,4,1.1866760254,,,
36.0781250000,4,1.2639770508,,,
36.0937500000,4,1.2202149630,,,
36.1093750000,4,1.0214689970,,,
36.1250000000,4,0.7032166123,,,
36.1406250000,4,0.3625792861,,,
36.1562500000,4,0.0980987474,,,
36.1718750000,4,-0.0408019982,,,
36.1875000000,4,-0.0988616869,,,
36.2031250000,4,-0.1649017036,,,
36.2187500000,4,-0.3157806098,,,
36.2343750000,4,-0.5552672744,,,
36.2500000000,4,-0.8130341172,,,
36.2656250000,4,-0.9912415147,,,
36.2812500000,4,-1.0345460176,,,
36.2968750000,4,-0.9639739990,,,
36.3125000000,4,-0.8564910889,,,
36.3281250000,4,-0.7907562256,,,
36.3437500000,4,-0.7834166884,,,
36.3593750000,4,-0.7681121826,,,
36.3750000000,4,-0.6577147841,,,
36.3906250000,4,-0.4159393013,,,
36.4062500000,4,-0.1036987007,,,
36.4218750000,4,0.1512756050,,,
36.4375000000,4,0.2343903035,,,
36.4531250000,4,0.1095276028,,,
36.4687500000,4,-0.1293487996,,,
36.4843750000,4,-0.3371429145,,,
36.5000000000,4,-0.3726654053,,,
36.5156250000,4,-0.1850281060,,,
36.5312500000,4,0.1670074016,,,
36.5468750000,4,0.5763549805,,,
36.5625000000,4,0.9172974229,,,
36.5781250000,4,1.1416020393,,,
36.5937500000,4,1.2497709990,,,
36.6093750000,4,1.2635799646,,,
36.6250000000,4,1.1998599768,,,
36.6406250000,4,1.0417020321,,,
36.6562500000,4,0.7638245225,,,
36.6718750000,4,0.3779448867,,,
36.6875000000,4,-0.0640563965,,,
36.7031250000,4,-0.4857788086,,,
36.7187500000,4,-0.8166655898,,,
36.7343750000,4,-1.0267939568,,,
36.7500000000,4,-1.1338649988,,,
36.7656250000,4,-1.1735229492,,,
36.7812500000,4,-1.1732790470,,,
36.7968750000,4,-1.1230770350,,,
36.8125000000,4,-0.9940186143,,,
36.8281250000,4,-0.7615814209,,,
36.8437500000,4,-0.4515227973,,,
36.8593750000,4,-0.1258392036,,,
36.8750000000,4,0.1281737983,,,
36.8906250000,4,0.2706145942,,,
36.9062500000,4,0.2943420112,,,
36.9218750000,4,0.2302855998,,,
36.9375000000,4,0.1197052002,,,
36.9531250000,4,-0.0094299316,,,
36.9687500000,4,-0.1237640008,,,
36.9843750000,4,-0.1968383938,,,
37.0000000000,4,-0.1945189983,,,
37.0156250000,4,-0.1006622016,,,
37.0312500000,4,0.0769348070,,,
37.0468750000,4,0.3057403862,,,
37.0625000000,4,0.5358582139,,,
37.0781250000,4,0.7294769287,,,
37.0937500000,4,0.8592833877,,,
37.1093750000,4,0.8899230957,,,
37.1250000000,4,0.7990723252,,,
37.1406250000,4,0.5771790147,,,
37.1562500000,4,0.2663573921,,,
37.1718750000,4,-0.0271911602,,,
37.1875000000,4,-0.1867828071,,,
37.2031250000,4,-0.1463012993,,,
37.2187500000,4,0.0363311805,,,
37.2343750000,4,0.1950531006,,,
37.2500000000,4,0.1437377930,,,
37.2656250000,4,-0.1828918010,,,
37.2812500000,4,-0.6807404160,,,
37.2968750000,4,-1.1138459444,,,
37.3125000000,4,-1.2652280331,,,
37.3281250000,4,-1.0570069551,,,
37.3437500000,4,-0.5829467773,,,
37.3593750000,4,-0.0376892090,,,
37.3750000000,4,0.3836823106,,,
37.3906250000,4,0.5864716172,,,
37.4062500000,4,0.5895996094,,,
37.4218750000,4,0.4405212104,,,
37.4375000000,4,0.2051544040,,,
37.4531250000,4,-0.0655059814,,,
37.4687500000,4,-0.3281554878,,,
37.4843750000,4,-0.5189208984,,,
37.5000000000,4,-0.5716704726,,,
37.5156250000,4,-0.4717712104,,,
37.5312500000,4,-0.2814025879,,,
37.5468750000,4,-0.1012115031,,,
37.5625000000,4,-0.0206756592,,,
37.5781250000,4,-0.0518951416,,,
37.5937500000,4,-0.1239470989,,,
37.6093750000,4,-0.1350861043,,,
37.6250000000,4,-0.0205383301,,,
37.6406250000,4,0.2021027058,,,
37.6562500000,4,0.4485015869,,,
37.6718750000,4,0.6210175157,,,
37.6875000000,4,0.6399993896,,,
37.7031250000,4,0.4779357910,,,
37.7187500000,4,0.1731110066,,,
37.7343750000,4,-0.1976775974,,,
37.7500000000,4,-0.5326232910,,,
37.7656250000,4,-0.7317810059,,,
37.7812500000,4,-0.7344970703,,,
37.7968750000,4,-0.5400084853,,,
37.8125000000,4,-0.2187958062,,,
37.8281250000,4,0.1142883003,,,
37.8437500000,4,0.3427276909,,,
37.8593750000,4,0.4058989882,,,
37.8750000000,4,0.3036194146,,,
37.8906250000,4,0.0976715088,,,
37.9062500000,4,-0.1231537014,,,
37.9218750000,4,-0.3164367974,,,
37.9375000000,4,-0.4802246094,,,
37.9531250000,4,-0.6316680908,,,
37.9687500000,4,-0.7635803223,,,
37.9843750000,4,-0.8535767198,,,
38.0000000000,4,-0.8505249023,,,
38.0156250000,4,-0.7215576172,,,
38.0312500000,4,-0.4925841987,,,
38.0468750000,4,-0.2207946926,,,
38.0625000000,4,-0.0012207030,,,
38.0781250000,4,0.1058197021,,,
38.0937500000,4,0.0893554688,,,
38.1093750000,4,0.0078887939,,,
38.1250000000,4,-0.0406036414,,,
38.1406250000,4,0.0426178016,,,
38.1562500000,4,0.2917479873,,,
38.1718750000,4,0.6602478027,,,
38.1875000000,4,1.0359339714,,,
38.2031250000,4,1.2755279541,,,
38.2187500000,4,1.2954560518,,,
38.2343750000,4,1.1207890511,,,
38.2500000000,4,0.8657990098,,,
38.2656250000,4,0.6573944092,,,
38.2812500000,4,0.5792999268,,,
38.2968750000,4,0.6078948975,,,
38.3125000000,4,0.6516265869,,,
38.3281250000,4,0.6075592041,,,
38.3437500000,4,0.4404448867,,,
38.3593750000,4,0.1959533989,,,
38.3750000000,4,-0.0451812707,,,
38.3906250000,4,-0.2183227986,,,
38.4062500000,4,-0.2986297905,,,
38.4218750000,4,-0.2884216011,,,
38.4375000000,4,-0.2014770955,,,
38.4531250000,4,-0.0437622108,,,
38.4687500000,4,0.1746062934,,,
38.4843750000,4,0.4000092149,,,
38.5000000000,4,0.5439910889,,,
38.5156250000,4,0.5173035264,,,
38.5312500000,4,0.2785187066,,,
38.5468750000,4,-0.1101685017,,,
38.5625000000,4,-0.5091094971,,,
38.5781250000,4,-0.7552490234,,,
38.5937500000,4,-0.7320098877,,,
38.6093750000,4,-0.4196929932,,,
38.6250000000,4,0.0879211426,,,
38.6406250000,4,0.6369475722,,,
38.6562500000,4,1.0686340332,,,
38.6718750000,4,1.2623139620,,,
38.6875000000,4,1.1770319939,,,
38.7031250000,4,0.8670654297,,,
38.7187500000,4,0.4391632080,,,
38.7343750000,4,0.0304565392,,,
38.7500000000,4,-0.2441710979,,,
38.7656250000,4,-0.3422851861,,,
38.7812500000,4,-0.3058013916,,,
38.7968750000,4,-0.2436829060,,,
38.8125000000,4,-0.2574005127,,,
38.8281250000,4,-0.4107207954,,,
38.8437500000,4,-0.6811981201,,,
38.8593750000,4,-0.9804840088,,,
38.8750000000,4,-1.1967619658,,,
38.8906250000,4,-1.2717900276,,,
38.9062500000,4,-1.2133640051,,,
38.9218750000,4,-1.0880279541,,,
38.9375000000,4,-0.9782410264,,,
38.9531250000,4,-0.9102478027,,,
38.9687500000,4,-0.8394318223,,,
38.9843750000,4,-0.6779174805,,,
39.0000000000,4,-0.3602142036,,,
39.0156250000,4,0.0789184570,,,
39.0312500000,4,0.5143889785,,,
39.0468750000,4,0.7770844102,,,
39.0625000000,4,0.7690582275,,,
39.0781250000,4,0.5185546875,,,
39.0937500000,4,0.1926421970,,,
39.1093750000,4,0.0040283198,,,
39.1250000000,4,0.0681762695,,,
39.1406250000,4,0.3503723145,,,
39.1562500000,4,0.6772919297,,,
39.1718750000,4,0.8287200928,,,
39.1875000000,4,0.6797484756,,,
39.2031250000,4,0.2688292861,,,
39.2187500000,4,-0.2507171929,,,
39.2343750000,4,-0.6984252930,,,
39.2500000000,4,-0.9717711806,,,
39.2656250000,4,-1.0777889490,,,
39.2812500000,4,-1.0721130371,,,
39.2968750000,4,-1.0102390051,,,
39.3125000000,4,-0.9070739746,,,
39.3281250000,4,-0.7717437744,,,
39.3437500000,4,-0.6356201172,,,
39.3593750000,4,-0.5598906875,,,
39.3750000000,4,-0.5792388916,,,
39.3906250000,4,-0.6545562744,,,
39.4062500000,4,-0.6702423096,,,
39.4218750000,4,-0.4929198921,,,
39.4375000000,4,-0.0910644531,,,
39.4531250000,4,0.4354858100,,,
39.4687500000,4,0.8938751221,,,
39.4843750000,4,1.0956120491,,,
39.5000000000,4,0.9795532227,,,
39.5156250000,4,0.6223449707,,,
39.5312500000,4,0.2106475979,,,
39.5468750000,4,-0.0774993896,,,
39.5625000000,4,-0.1451110989,,,
39.5781250000,4,-0.0054168701,,,
39.5937500000,4,0.2661896050,,,
39.6093750000,4,0.5873413086,,,
39.6250000000,4,0.9079895020,,,
39.6406250000,4,1.2083890438,,,
39.6562500000,4,1.4853060246,,,
39.6718750000,4,1.6922609806,,,
39.6875000000,4,1.7713780403,,,
39.7031250000,4,1.6655429602,,,
39.7187500000,4,1.3533329964,,,
39.7343750000,4,0.8862609863,,,
39.7500000000,4,0.3746795952,,,
39.7656250000,4,-0.0602569617,,,
39.7812500000,4,-0.3296813965,,,
39.7968750000,4,-0.4107361138,,,
39.8125000000,4,-0.3703917861,,,
39.8281250000,4,-0.3142242134,,,
39.8437500000,4,-0.3372803032,,,
39.8593750000,4,-0.4698944092,,,
39.8750000000,4,-0.6805419922,,,
39.8906250000,4,-0.9031677246,,,
39.9062500000,4,-1.0742340088,,,
39.9218750000,4,-1.1644899845,,,
39.9375000000,4,-1.1691279411,,,
39.9531250000,4,-1.0915989876,,,
39.9687500000,4,-0.9193419814,,,
39.9843750000,4,-0.6261292100,,,
40.0000000000,5,-0.2052001953,,,
40.0156250000,5,0.2939301133,,,
40.0312500000,5,0.7682495117,,,
40.0468750000,5,1.0935360193,,,
40.0625000000,5,1.1639100313,,,
40.0781250000,5,0.9686279297,,,
40.0937500000,5,0.5793457031,,,
40.1093750000,5,0.1304779053,,,
40.1250000000,5,-0.2393645942,,,
40.1406250000,5,-0.4429016113,,,
40.1562500000,5,-0.4502868950,,,
40.1718750000,5,-0.3189849854,,,
40.1875000000,5,-0.1500702053,,,
40.2031250000,5,-0.0560607910,,,
40.2187500000,5,-0.1217193976,,,
40.2343750000,5,-0.3710784912,,,
40.2500000000,5,-0.7406464219,,,
40.2656250000,5,-1.0873409510,,,
40.2812500000,5,-1.2449649572,,,
40.2968750000,5,-1.1005860567,,,
40.3125000000,5,-0.6592407227,,,
40.3281250000,5,-0.0797729492,,,
40.3437500000,5,0.4218291938,,,
40.3593750000,5,0.6743773818,,,
40.3750000000,5,0.6447296143,,,
40.3906250000,5,0.4379577935,,,
40.4062500000,5,0.2382201999,,,
40.4218750000,5,0.1750182956,,,
40.4375000000,5,0.2684173882,,,
40.4531250000,5,0.4366301894,,,
40.4687500000,5,0.5513916016,,,
40.4843750000,5,0.5452880859,,,
40.5000000000,5,0.4350281060,,,
40.5156250000,5,0.2890014946,,,
40.5312500000,5,0.1822510064,,,
40.5468750000,5,0.1490021050,,,
40.5625000000,5,0.1454315037,,,
40.5781250000,5,0.1199645996,,,
40.5937500000,5,0.0378723107,,,
40.6093750000,5,-0.0775909424,,,
40.6250000000,5,-0.1732024997,,,
40.6406250000,5,-0.1956786960,,,
40.6562500000,5,-0.1226349026,,,
40.6718750000,5,0.0190429706,,,
40.6875000000,5,0.1842346042,,,
40.7031250000,5,0.3357697129,,,
40.7187500000,5,0.4665375054,,,
40.7343750000,5,0.6027222276,,,
40.7500000000,5,0.7601165771,,,
40.7656250000,5,0.9113616943,,,
40.7812500000,5,0.9880219102,,,
40.7968750000,5,0.9085692763,,,
40.8125000000,5,0.6378784180,,,
40.8281250000,5,0.2277832031,,,
40.8437500000,5,-0.2074737996,,,
40.8593750000,5,-0.5273284912,,,
40.8750000000,5,-0.6633148193,,,
40.8906250000,5,-0.6418610215,,,
40.9062500000,5,-0.5428925157,,,
40.9218750000,5,-0.4400635064,,,
40.9375000000,5,-0.3449248970,,,
40.9531250000,5,-0.2176513970,,,
40.9687500000,5,-0.0196075402,,,
40.9843750000,5,0.2220612019,,,
41.0000000000,5,0.4276427925,,,
41.0156250000,5,0.5130310059,,,
41.0312500000,5,0.4627838135,,,
41.0468750000,5,0.3543243110,,,
41.0625000000,5,0.2920837104,,,
41.0781250000,5,0.3570556939,,,
41.0937500000,5,0.5388793945,,,
41.1093750000,5,0.7441406250,,,
41.1250000000,5,0.8514708877,,,
41.1406250000,5,0.7806090713,,,
41.1562500000,5,0.5155640244,,,
41.1718750000,5,0.0999755934,,,
41.1875000000,5,-0.3975830078,,,
41.2031250000,5,-0.8990936279,,,
41.2187500000,5,-1.3174589872,,,
41.2343750000,5,-1.5428160429,,,
41.2500000000,5,-1.4863430262,,,
41.2656250000,5,-1.1216579676,,,
41.2812500000,5,-0.5378264785,,,
41.2968750000,5,0.0811920166,,,
41.3125000000,5,0.5137177110,,,
41.3281250000,5,0.6374663711,,,
41.3437500000,5,0.4592896104,,,
41.3593750000,5,0.1186980978,,,
41.3750000000,5,-0.1920319051,,,
41.3906250000,5,-0.3328857124,,,
41.4062500000,5,-0.2570801079,,,
41.4218750000,5,-0.0120697003,,,
41.4375000000,5,0.3036651909,,,
41.4531250000,5,0.5664978027,,,
41.4687500000,5,0.6995087266,,,
41.4843750000,5,0.6451873779,,,
41.5000000000,5,0.3798676133,,,
41.5156250000,5,-0.0870361328,,,
41.5312500000,5,-0.6796721816,,,
41.5468750000,5,-1.2757259607,,,
41.5625000000,5,-1.7446750402,,,
41.5781250000,5,-1.9901429415,,,
41.5937500000,5,-1.9940639734,,,
41.6093750000,5,-1.8193659782,,,
41.6250000000,5,-1.5702509880,,,
41.6406250000,5,-1.3229680061,,,
41.6562500000,5,-1.1084140539,,,
41.6718750000,5,-0.8951110840,,,
41.6875000000,5,-0.6281738281,,,
41.7031250000,5,-0.2696990967,,,
41.7187500000,5,0.1719512939,,,
41.7343750000,5,0.6553344727,,,
41.7500000000,5,1.1014100313,,,
41.7656250000,5,1.4244689941,,,
41.7812500000,5,1.5540310144,,,
41.7968750000,5,1.4581760168,,,
41.8125000000,5,1.1511080265,,,
41.8281250000,5,0.7126464844,,,
41.8437500000,5,0.2675170898,,,
41.8593750000,5,-0.0629882813,,,
41.8750000000,5,-0.1903381050,,,
41.8906250000,5,-0.1193085015,,,
41.9062500000,5,0.0722656325,,,
41.9218750000,5,0.2900084853,,,
41.9375000000,5,0.4653930962,,,
41.9531250000,5,0.5798035264,,,
41.9687500000,5,0.6523743272,,,
41.9843750000,5,0.7201995850,,,
42.0000000000,5,0.8007506728,,,
42.0156250000,5,0.8770446777,,,
42.0312500000,5,0.9331055284,,,
42.0468750000,5,0.9564362168,,,
42.0625000000,5,0.9607390761,,,
42.0781250000,5,0.9797515869,,,
42.0937500000,5,1.0452879667,,,
42.1093750000,5,1.1650389433,,,
42.1250000000,5,1.2946469784,,,
42.1406250000,5,1.3417819738,,,
42.1562500000,5,1.2045140266,,,
42.1718750000,5,0.8063048720,,,
42.1875000000,5,0.1681060940,,,
42.2031250000,5,-0.5659790039,,,
42.2187500000,5,-1.1856080294,,,
42.2343750000,5,-1.5004119873,,,
42.2500000000,5,-1.4314730167,,,
42.2656250000,5,-1.0680999756,,,
42.2812500000,5,-0.6143035889,,,
42.2968750000,5,-0.2781676948,,,
42.3125000000,5,-0.1818542033,,,
42.3281250000,5,-0.3003081977,,,
42.3437500000,5,-0.5032349229,,,
42.3593750000,5,-0.6573029160,,,
42.3750000000,5,-0.7063446045,,,
42.3906250000,5,-0.7039794922,,,
42.4062500000,5,-0.7454680800,,,
42.4218750000,5,-0.8881682754,,,
42.4375000000,5,-1.0847020149,,,
42.4531250000,5,-1.2132869959,,,
42.4687500000,5,-1.1614379883,,,
42.4843750000,5,-0.8985595703,,,
42.5000000000,5,-0.5074309707,,,
42.5156250000,5,-0.1361083984,,,
42.5312500000,5,0.0949707031,,,
42.5468750000,5,0.1561584026,,,
42.5625000000,5,0.1233521029,,,
42.5781250000,5,0.1066436991,,,
42.5937500000,5,0.1843567044,,,
42.6093750000,5,0.3539733887,,,
42.6250000000,5,0.5373383164,,,
42.6406250000,5,0.6496582031,,,
42.6562500000,5,0.6617584229,,,
42.6718750000,5,0.6163787842,,,
42.6875000000,5,0.5934600830,,,
42.7031250000,5,0.6512908936,,,
42.7187500000,5,0.7820281982,,,
42.7343750000,5,0.9271851182,,,
42.7500000000,5,1.0149689913,,,
42.7656250000,5,0.9934691787,,,
42.7812500000,5,0.8609771729,,,
42.7968750000,5,0.6532744765,,,
42.8125000000,5,0.4243164063,,,
42.8281250000,5,0.2218932956,,,
42.8437500000,5,0.0851745605,,,
42.8593750000,5,0.0231323205,,,
42.8750000000,5,0.0372009315,,,
42.8906250000,5,0.1138153002,,,
42.9062500000,5,0.2456054986,,,
42.9218750000,5,0.4146729112,,,
42.9375000000,5,0.5899047852,,,
42.9531250000,5,0.7147675157,,,
42.9687500000,5,0.7310485840,,,
42.9843750000,5,0.5860900879,,,
43.0000000000,5,0.2788695991,,,
43.0156250000,5,-0.1237792969,,,
43.0312500000,5,-0.5029296875,,,
43.0468750000,5,-0.7257689834,,,
43.0625000000,5,-0.6987152100,,,
43.0781250000,5,-0.4326935112,,,
43.0937500000,5,-0.0253906306,,,
43.1093750000,5,0.3782196045,,,
43.1250000000,5,0.6504210830,,,
43.1406250000,5,0.7317047119,,,
43.1562500000,5,0.6302642822,,,
43.1718750000,5,0.3906554878,,,
43.1875000000,5,0.0607452393,,,
43.2031250000,5,-0.2892150879,,,
43.2187500000,5,-0.5875701904,,,
43.2343750000,5,-0.7311553955,,,
43.2500000000,5,-0.6558989882,,,
43.2656250000,5,-0.3535614014,,,
43.2812500000,5,0.0894470215,,,
43.2968750000,5,0.5270385742,,,
43.3125000000,5,0.8172150254,,,
43.3281250000,5,0.8776702881,,,
43.3437500000,5,0.7142639160,,,
43.3593750000,5,0.3988800049,,,
43.3750000000,5,0.0355682410,,,
43.3906250000,5,-0.2897033989,,,
43.4062500000,5,-0.5135955811,,,
43.4218750000,5,-0.6143646240,,,
43.4375000000,5,-0.6023406982,,,
43.4531250000,5,-0.5165863037,,,
43.4687500000,5,-0.4274291992,,,
43.4843750000,5,-0.4026030898,,,
43.5000000000,5,-0.4796142876,,,
43.5156250000,5,-0.6296082139,,,
43.5312500000,5,-0.8015747070,,,
43.5468750000,5,-0.9471740723,,,
43.5625000000,5,-1.0481719971,,,
43.5781250000,5,-1.1242369413,,,
43.5937500000,5,-1.1861269474,,,
43.6093750000,5,-1.2169489861,,,
43.6250000000,5,-1.1615450382,,,
43.6406250000,5,-0.9946898818,,,
43.6562500000,5,-0.7321624756,,,
43.6718750000,5,-0.4700165093,,,
43.6875000000,5,-0.3412781060,,,
43.7031250000,5,-0.4297027886,,,
43.7187500000,5,-0.7515563965,,,
43.7343750000,5,-1.2171479464,,,
43.7500000000,5,-1.6788179874,,,
43.7656250000,5,-1.9782259464,,,
43.7812500000,5,-2.0160059929,,,
43.7968750000,5,-1.7761989832,,,
43.8125000000,5,-1.3324129581,,,
43.8281250000,5,-0.8028411865,,,
43.8437500000,5,-0.3114624023,,,
43.8593750000,5,0.0585022010,,,
43.8750000000,5,0.2844390869,,,
43.8906250000,5,0.4022521973,,,
43.9062500000,5,0.4748077095,,,
43.9218750000,5,0.5484008789,,,
43.9375000000,5,0.6456450820,,,
43.9531250000,5,0.7635651231,,,
43.9687500000,5,0.8936309814,,,
43.9843750000,5,1.0363160372,,,
44.0000000000,5,1.1914980412,,,
44.0156250000,5,1.3447109461,,,
44.0312500000,5,1.4408260584,,,
44.0468750000,5,1.4229739904,,,
44.0625000000,5,1.2429499626,,,
44.0781250000,5,0.9132233262,,,
44.0937500000,5,0.5003815293,,,
44.1093750000,5,0.1105346978,,,
44.1250000000,5,-0.1758269966,,,
44.1406250000,5,-0.3443146050,,,
44.1562500000,5,-0.4308471978,,,
44.1718750000,5,-0.4923552871,,,
44.1875000000,5,-0.5481414795,,,
44.2031250000,5,-0.5408629775,,,
44.2187500000,5,-0.3678894043,,,
44.2343750000,5,0.0448913611,,,
44.2500000000,5,0.6830291748,,,
44.2656250000,5,1.3805849552,,,
44.2812500000,5,1.9067540169,,,
44.2968750000,5,2.0529789925,,,
44.3125000000,5,1.7539219856,,,
44.3281250000,5,1.1338959932,,,
44.3437500000,5,0.4441680908,,,
44.3593750000,5,-0.0734710693,,,
44.3750000000,5,-0.2937622070,,,
44.3906250000,5,-0.2464447021,,,
44.4062500000,5,-0.0867004395,,,
44.4218750000,5,0.0062561040,,,
44.4375000000,5,-0.0752258301,,,
44.4531250000,5,-0.3547515869,,,
44.4687500000,5,-0.7740325928,,,
44.4843750000,5,-1.2351529598,,,
44.5000000000,5,-1.6304320097,,,
44.5156250000,5,-1.8547819853,,,
44.5312500000,5,-1.8383480310,,,
44.5468750000,5,-1.5642700195,,,
44.5625000000,5,-1.1050109863,,,
44.5781250000,5,-0.6038817763,,,
44.5937500000,5,-0.2282409966,,,
44.6093750000,5,-0.0889587402,,,
44.6250000000,5,-0.1945953071,,,
44.6406250000,5,-0.4544982910,,,
44.6562500000,5,-0.7310944200,,,
44.6718750000,5,-0.9072570801,,,
44.6875000000,5,-0.9258728027,,,
44.7031250000,5,-0.8066406250,,,
44.7187500000,5,-0.6153107285,,,
44.7343750000,5,-0.4481658936,,,
44.7500000000,5,-0.4172515869,,,
44.7656250000,5,-0.6293640137,,,
44.7812500000,5,-1.1359100342,,,
44.7968750000,5,-1.8869320154,,,
44.8125000000,5,-2.7392730713,,,
44.8281250000,5,-3.4668579102,,,
44.8437500000,5,-3.8281250000,,,
44.8593750000,5,-3.6708068848,,,
44.8750000000,5,-2.9604640007,,,
44.8906250000,5,-1.8240660429,,,
44.9062500000,5,-0.4972229004,,,
44.9218750000,5,0.7187194824,,,
44.9375000000,5,1.5500789881,,,
44.9531250000,5,1.8316800594,,,
44.9687500000,5,1.5860140324,,,
44.9843750000,5,1.0237120390,,,
45.0000000000,5,0.4652405083,,,
45.0156250000,5,0.2078094035,,,
45.0312500000,5,0.3705750108,,,
45.0468750000,5,0.8586121202,,,
45.0625000000,5,1.4421999454,,,
45.0781250000,5,1.9001009464,,,
45.0937500000,5,2.1650540829,,,
45.1093750000,5,2.3447880745,,,
45.1250000000,5,2.6130979061,,,
45.1406250000,5,3.0378270149,,,
45.1562500000,5,3.5048370361,,,
45.1718750000,5,3.7579650879,,,
45.1875000000,5,3.5750730038,,,
45.2031250000,5,2.9190979004,,,
45.2187500000,5,1.9768979549,,,
45.2343750000,5,1.0758509636,,,
45.2500000000,5,0.4908446968,,,
45.2656250000,5,0.3277893066,,,
45.2812500000,5,0.4806824028,,,
45.2968750000,5,0.7555999756,,,
45.3125000000,5,0.9882965088,,,
45.3281250000,5,1.1357120275,,,
45.3437500000,5,1.2563019991,,,
45.3593750000,5,1.3984830379,,,
45.3750000000,5,1.5396879911,,,
45.3906250000,5,1.5488890409,,,
45.4062500000,5,1.2749329805,,,
45.4218750000,5,0.6331328750,,,
45.4375000000,5,-0.3061523139,,,
45.4531250000,5,-1.3538060188,,,
45.4687500000,5,-2.2487950325,,,
45.4843750000,5,-2.7691500187,,,
45.5000000000,5,-2.8145139217,,,
45.5156250000,5,-2.4068300724,,,
45.5312500000,5,-1.6584320068,,,
45.5468750000,5,-0.7164459229,,,
45.5625000000,5,0.2848052979,,,
45.5781250000,5,1.2536469698,,,
45.5937500000,5,2.0932769775,,,
45.6093750000,5,2.6943509579,,,
45.6250000000,5,2.9210660458,,,
45.6406250000,5,2.6355440617,,,
45.6562500000,5,1.7791750431,,,
45.6718750000,5,0.4406585991,,,
45.6875000000,5,-1.1098940372,,,
45.7031250000,5,-2.4832758904,,,
45.7187500000,5,-3.3223569393,,,
45.7343750000,5,-3.4468688965,,,
45.7500000000,5,-2.9313960075,,,
45.7656250000,5,-2.0394740105,,,
45.7812500000,5,-1.0823359489,,,
45.7968750000,5,-0.2574768066,,,
45.8125000000,5,0.4007720947,,,
45.8281250000,5,0.9633942246,,,
45.8437500000,5,1.4816889763,,,
45.8593750000,5,1.9018249512,,,
45.8750000000,5,2.0894470215,,,
45.8906250000,5,1.9210050106,,,
45.9062500000,5,1.4169620275,,,
45.9218750000,5,0.7350006104,,,
45.9375000000,5,0.1020203009,,,
45.9531250000,5,-0.3225860894,,,
45.9687500000,5,-0.5198516846,,,
45.9843750000,5,-0.5721740723,,,
46.0000000000,5,-0.5723419189,,,
46.0156250000,5,-0.5255889893,,,
46.0312500000,5,-0.3257141113,,,
46.0468750000,5,0.1693878025,,,
46.0625000000,5,1.0252530575,,,
46.0781250000,5,2.1551060677,,,
46.0937500000,5,3.3150939941,,,
46.1093750000,5,4.1878509521,,,
46.1250000000,5,4.5224299431,,,
46.1406250000,5,4.2403721809,,,
46.1562500000,5,3.4629518986,,,
46.1718750000,5,2.4524691105,,,
46.1875000000,5,1.5033110380,,,
46.2031250000,5,0.8262786865,,,
46.2187500000,5,0.4783324897,,,
46.2343750000,5,0.3641814888,,,
46.2500000000,5,0.3240509033,,,
46.2656250000,5,0.2123108059,,,
46.2812500000,5,-0.0097351074,,,
46.2968750000,5,-0.2803497016,,,
46.3125000000,5,-0.5045471191,,,
46.3281250000,5,-0.6400908828,,,
46.3437500000,5,-0.7739105225,,,
46.3593750000,5,-1.0884250402,,,
46.3750000000,5,-1.7613070011,,,
46.3906250000,5,-2.8223419189,,,
46.4062500000,5,-4.0577998161,,,
46.4218750000,5,-5.0855407715,,,
46.4375000000,5,-5.5058898926,,,
46.4531250000,5,-5.1061711311,,,
46.4687500000,5,-3.9920349121,,,
46.4843750000,5,-2.5275270939,,,
46.5000000000,5,-1.1578979492,,,
46.5156250000,5,-0.1978302002,,,
46.5312500000,5,0.2799377143,,,
46.5468750000,5,0.3840179145,,,
46.5625000000,5,0.2692565918,,,
46.5781250000,5,0.0224914607,,,
46.5937500000,5,-0.3489989936,,,
46.6093750000,5,-0.8371887207,,,
46.6250000000,5,-1.3494260311,,,
46.6406250000,5,-1.7022550106,,,
46.6562500000,5,-1.7211610079,,,
46.6718750000,5,-1.3551479578,,,
46.6875000000,5,-0.7310791016,,,
46.7031250000,5,-0.0792083666,,,
46.7187500000,5,0.3966675103,,,
46.7343750000,5,0.6029052734,,,
46.7500000000,5,0.5798950195,,,
46.7656250000,5,0.4222564995,,,
46.7812500000,5,0.2264098972,,,
46.7968750000,5,0.0386657715,,,
46.8125000000,5,-0.1282043010,,,
46.8281250000,5,-0.2680510879,,,
46.8437500000,5,-0.3861236870,,,
46.8593750000,5,-0.4881744087,,,
46.8750000000,5,-0.6268004775,,,
46.8906250000,5,-0.8478546143,,,
46.9062500000,5,-1.1517180204,,,
46.9218750000,5,-1.4851839542,,,
46.9375000000,5,-1.7666319609,,,
46.9531250000,5,-1.9391629696,,,
46.9687500000,5,-1.9975739717,,,
46.9843750000,5,-1.9988100529,,,
47.0000000000,5,-1.9876710176,,,
47.0156250000,5,-1.9653780460,,,
47.0312500000,5,-1.8836979866,,,
47.0468750000,5,-1.6746519804,,,
47.0625000000,5,-1.3233950138,,,
47.0781250000,5,-0.8425598145,,,
47.0937500000,5,-0.2987976074,,,
47.1093750000,5,0.2147826999,,,
47.1250000000,5,0.5696105957,,,
47.1406250000,5,0.6017302871,,,
47.1562500000,5,0.1659393013,,,
47.1718750000,5,-0.7645568848,,,
47.1875000000,5,-2.0357820988,,,
47.2031250000,5,-3.3106689453,,,
47.2187500000,5,-4.1746220589,,,
47.2343750000,5,-4.3398590088,,,
47.2500000000,5,-3.7870941162,,,
47.2656250000,5,-2.8036959171,,,
47.2812500000,5,-1.8111720085,,,
47.2968750000,5,-1.1582789421,,,
47.3125000000,5,-0.9291533828,,,
47.3281250000,5,-0.9402770996,,,
47.3437500000,5,-0.8917694092,,,
47.3593750000,5,-0.5407562256,,,
47.3750000000,5,0.1500092000,,,
47.3906250000,5,1.0345610380,,,
47.4062500000,5,1.8888239861,,,
47.4218750000,5,2.5373990536,,,
47.4375000000,5,2.9290010929,,,
47.4531250000,5,3.1042330265,,,
47.4687500000,5,3.1416630745,,,
47.4843750000,5,3.0879819393,,,
47.5000000000,5,2.9450991154,,,
47.5156250000,5,2.6930849552,,,
47.5312500000,5,2.3315579891,,,
47.5468750000,5,1.9393620491,,,
47.5625000000,5,1.6603389978,,,
47.5781250000,5,1.6555019617,,,
47.5937500000,5,2.0141301155,,,
47.6093750000,5,2.6999208927,,,
47.6250000000,5,3.5494079590,,,
47.6406250000,5,4.3336791992,,,
47.6562500000,5,4.8310699463,,,
47.6718750000,5,4.9314880371,,,
47.6875000000,5,4.6557011604,,,
47.7031250000,5,4.1349182129,,,
47.7187500000,5,3.5308690071,,,
47.7343750000,5,2.9809880257,,,
47.7500000000,5,2.5580599308,,,
47.7656250000,5,2.2668459415,,,
47.7812500000,5,2.0896759033,,,
47.7968750000,5,2.0010991096,,,
47.8125000000,5,1.9989930391,,,
47.8281250000,5,2.0833129883,,,
47.8437500000,5,2.2378230095,,,
47.8593750000,5,2.4423220158,,,
47.8750000000,5,2.6627199650,,,
47.8906250000,5,2.8352200985,,,
47.9062500000,5,2.8927149773,,,
47.9218750000,5,2.7572329044,,,
47.9375000000,5,2.4067690372,,,
47.9531250000,5,1.9258270264,,,
47.9687500000,5,1.4786679745,,,
47.9843750000,5,1.2668609619,,,
48.0000000000,6,1.4224400520,,,
48.0156250000,6,1.9406889677,,,
48.0312500000,6,2.6471560001,,,
48.0468750000,6,3.2768859863,,,
48.0625000000,6,3.5966799259,,,
48.0781250000,6,3.4898989201,,,
48.0937500000,6,2.9717409611,,,
48.1093750000,6,2.1285710335,,,
48.1250000000,6,1.0588990450,,,
48.1406250000,6,-0.1569976956,,,
48.1562500000,6,-1.4390410185,,,
48.1718750000,6,-2.6574099064,,,
48.1875000000,6,-3.6473240852,,,
48.2031250000,6,-4.2404332161,,,
48.2187500000,6,-4.3846278191,,,
48.2343750000,6,-4.1562500000,,,
48.2500000000,6,-3.7572479248,,,
48.2656250000,6,-3.4043879509,,,
48.2812500000,6,-3.2321779728,,,
48.2968750000,6,-3.2366330624,,,
48.3125000000,6,-3.2842099667,,,
48.3281250000,6,-3.2046198845,,,
48.3437500000,6,-2.9050290585,,,
48.3593750000,6,-2.4282069206,,,
48.3750000000,6,-1.9280699492,,,
48.3906250000,6,-1.5955810547,,,
48.4062500000,6,-1.5511169434,,,
48.4218750000,6,-1.7826999426,,,
48.4375000000,6,-2.1360929012,,,
48.4531250000,6,-2.4047389030,,,
48.4687500000,6,-2.4256439209,,,
48.4843750000,6,-2.1791379452,,,
48.5000000000,6,-1.7940369844,,,
48.5156250000,6,-1.4544830322,,,
48.5312500000,6,-1.3082120419,,,
48.5468750000,6,-1.3657230139,,,
48.5625000000,6,-1.5233000517,,,
48.5781250000,6,-1.6070560217,,,
48.5937500000,6,-1.4808349609,,,
48.6093750000,6,-1.1090849638,,,
48.6250000000,6,-0.5490264893,,,
48.6406250000,6,0.0754547119,,,
48.6562500000,6,0.6485137939,,,
48.6718750000,6,1.1048129797,,,
48.6875000000,6,1.4361720085,,,
48.7031250000,6,1.6640779972,,,
48.7187500000,6,1.7932280302,,,
48.7343750000,6,1.7955019474,,,
48.7500000000,6,1.6246639490,,,
48.7656250000,6,1.2760620117,,,
48.7812500000,6,0.8148192763,,,
48.7968750000,6,0.3818359077,,,
48.8125000000,6,0.1245269999,,,
48.8281250000,6,0.1264954060,,,
48.8437500000,6,0.3521729112,,,
48.8593750000,6,0.6312714219,,,
48.8750000000,6,0.7563170791,,,
48.8906250000,6,0.5839539170,,,
48.9062500000,6,0.1263733059,,,
48.9218750000,6,-0.4379271865,,,
48.9375000000,6,-0.8538361192,,,
48.9531250000,6,-0.9348754883,,,
48.9687500000,6,-0.6763916016,,,
48.9843750000,6,-0.2411499023,,,
49.0000000000,6,0.1213684008,,,
49.0156250000,6,0.2296448052,,,
49.0312500000,6,0.0525360107,,,
49.0468750000,6,-0.2980804145,,,
49.0625000000,6,-0.6595916748,,,
49.0781250000,6,-0.9223328233,,,
49.0937500000,6,-1.0836490393,,,
49.1093750000,6,-1.2109830379,,,
49.1250000000,6,-1.3488310575,,,
49.1406250000,6,-1.4737089872,,,
49.1562500000,6,-1.5095670223,,,
49.1718750000,6,-1.3801879883,,,
49.1875000000,6,-1.0868229866,,,
49.2031250000,6,-0.7077788711,,,
49.2187500000,6,-0.3459624946,,,
49.2343750000,6,-0.0580749512,,,
49.2500000000,6,0.1703491062,,,
49.2656250000,6,0.3984070122,,,
49.2812500000,6,0.6484528184,,,
49.2968750000,6,0.8929595947,,,
49.3125000000,6,1.0567020178,,,
49.3281250000,6,1.0619959831,,,
49.3437500000,6,0.8820952773,,,
49.3593750000,6,0.5312042236,,,
49.3750000000,6,0.0614623986,,,
49.3906250000,6,-0.4510192871,,,
49.4062500000,6,-0.9409180284,,,
49.4218750000,6,-1.3286900520,,,
49.4375000000,6,-1.5397640467,,,
49.4531250000,6,-1.5119019747,,,
49.4687500000,6,-1.2384190559,,,
49.4843750000,6,-0.7747039795,,,
49.5000000000,6,-0.2428130955,,,
49.5156250000,6,0.1920471042,,,
49.5312500000,6,0.3904266059,,,
49.5468750000,6,0.2764739990,,,
49.5625000000,6,-0.0953826904,,,
49.5781250000,6,-0.5768280029,,,
49.5937500000,6,-0.9583435059,,,
49.6093750000,6,-1.0714110136,,,
49.6250000000,6,-0.8509979248,,,
49.6406250000,6,-0.3614501953,,,
49.6562500000,6,0.2215881050,,,
49.6718750000,6,0.7117003798,,,
49.6875000000,6,0.9776306152,,,
49.7031250000,6,0.9840546250,,,
49.7187500000,6,0.7822113037,,,
49.7343750000,6,0.4550476074,,,
49.7500000000,6,0.0762329102,,,
49.7656250000,6,-0.2847900093,,,
49.7812500000,6,-0.5863800049,,,
49.7968750000,6,-0.7920684814,,,
49.8125000000,6,-0.8812561035,,,
49.8281250000,6,-0.8590393066,,,
49.8437500000,6,-0.7596129775,,,
49.8593750000,6,-0.6396636963,,,
49.8750000000,6,-0.5451201797,,,
49.8906250000,6,-0.4825592041,,,
49.9062500000,6,-0.4235076904,,,
49.9218750000,6,-0.3196411133,,,
49.9375000000,6,-0.1301116943,,,
49.9531250000,6,0.1645202935,,,
49.9687500000,6,0.5577545166,,,
49.9843750000,6,1.0070500374,,,
50.0000000000,6,1.4491269588,,,
50.0156250000,6,1.7947239876,,,
50.0312500000,6,1.9644470215,,,
50.0468750000,6,1.9062039852,,,
50.0625000000,6,1.6466369629,,,
50.0781250000,6,1.2732540369,,,
50.0937500000,6,0.9044951797,,,
50.1093750000,6,0.6397246718,,,
50.1250000000,6,0.5028533936,,,
50.1406250000,6,0.4603882134,,,
50.1562500000,6,0.4330292046,,,
50.1718750000,6,0.3579559028,,,
50.1875000000,6,0.2170104980,,,
50.2031250000,6,0.0409088098,,,
50.2187500000,6,-0.1023102030,,,
50.2343750000,6,-0.1704712063,,,
50.2500000000,6,-0.1515655965,,,
50.2656250000,6,-0.0683593825,,,
50.2812500000,6,0.0341339111,,,
50.2968750000,6,0.0973358229,,,
50.3125000000,6,0.0732269287,,,
50.3281250000,6,-0.0515747108,,,
50.3437500000,6,-0.2371674031,,,
50.3593750000,6,-0.4124450982,,,
50.3750000000,6,-0.4979400933,,,
50.3906250000,6,-0.4615631104,,,
50.4062500000,6,-0.3294067085,,,
50.4218750000,6,-0.1727142036,,,
50.4375000000,6,-0.0704803467,,,
50.4531250000,6,-0.0719299316,,,
50.4687500000,6,-0.1786040962,,,
50.4843750000,6,-0.3664551079,,,
50.5000000000,6,-0.6067504883,,,
50.5156250000,6,-0.8684844971,,,
50.5312500000,6,-1.1179499626,,,
50.5468750000,6,-1.3093260527,,,
50.5625000000,6,-1.3733370304,,,
50.5781250000,6,-1.2470550537,,,
50.5937500000,6,-0.9220275879,,,
50.6093750000,6,-0.4486236870,,,
50.6250000000,6,0.0570526086,,,
50.6406250000,6,0.4561614990,,,
50.6562500000,6,0.6648101807,,,
50.6718750000,6,0.6671447754,,,
50.6875000000,6,0.5314331055,,,
50.7031250000,6,0.3614501953,,,
50.7187500000,6,0.2622832954,,,
50.7343750000,6,0.2597503960,,,
50.7500000000,6,0.3146210015,,,
50.7656250000,6,0.3479155898,,,
50.7812500000,6,0.2987976074,,,
50.7968750000,6,0.1789093018,,,
50.8125000000,6,0.0481262207,,,
50.8281250000,6,-0.0064239502,,,
50.8437500000,6,0.0730438232,,,
50.8593750000,6,0.2875976861,,,
50.8750000000,6,0.5747374892,,,
50.8906250000,6,0.8584290147,,,
50.9062500000,6,1.0749210119,,,
50.9218750000,6,1.1763310432,,,
50.9375000000,6,1.1471099854,,,
50.9531250000,6,0.9738463759,,,
50.9687500000,6,0.6755524278,,,
50.9843750000,6,0.3058929145,,,
51.0000000000,6,-0.0470733605,,,
51.0156250000,6,-0.2916718125,,,
51.0312500000,6,-0.3744049072,,,
51.0468750000,6,-0.3171082139,,,
51.0625000000,6,-0.1853789985,,,
51.0781250000,6,-0.0381927490,,,
51.0937500000,6,0.0863799974,,,
51.1093750000,6,0.1955718994,,,
51.1250000000,6,0.2958526909,,,
51.1406250000,6,0.3484801948,,,
51.1562500000,6,0.2907561958,,,
51.1718750000,6,0.0559539795,,,
51.1875000000,6,-0.3542937934,,,
51.2031250000,6,-0.8560485840,,,
51.2187500000,6,-1.3107450008,,,
51.2343750000,6,-1.5901789665,,,
51.2500000000,6,-1.6400150061,,,
51.2656250000,6,-1.4900209904,,,
51.2812500000,6,-1.2203669548,,,
51.2968750000,6,-0.9107360840,,,
51.3125000000,6,-0.5892180800,,,
51.3281250000,6,-0.2574005127,,,
51.3437500000,6,0.0736846924,,,
51.3593750000,6,0.3861846924,,,
51.3750000000,6,0.6539611816,,,
51.3906250000,6,0.8340454102,,,
51.4062500000,6,0.9006804824,,,
51.4218750000,6,0.8222656250,,,
51.4375000000,6,0.5761718750,,,
51.4531250000,6,0.1635895073,,,
51.4687500000,6,-0.3630065918,,,
51.4843750000,6,-0.8842468262,,,
51.5000000000,6,-1.2447199821,,,
51.5156250000,6,-1.3219449520,,,
51.5312500000,6,-1.1084439754,,,
51.5468750000,6,-0.7142333984,,,
51.5625000000,6,-0.3237609863,,,
51.5781250000,6,-0.0733947828,,,
51.5937500000,6,0.0076904302,,,
51.6093750000,6,0.0194244403,,,
51.6250000000,6,0.0708007813,,,
51.6406250000,6,0.2079468071,,,
51.6562500000,6,0.3859710991,,,
51.6718750000,6,0.5000000000,,,
51.6875000000,6,0.4955138862,,,
51.7031250000,6,0.4327544868,,,
51.7187500000,6,0.4371337891,,,
51.7343750000,6,0.6005095840,,,
51.7500000000,6,0.9110413194,,,
51.7656250000,6,1.2229919434,,,
51.7812500000,6,1.3671419621,,,
51.7968750000,6,1.2375489473,,,
51.8125000000,6,0.8590087891,,,
51.8281250000,6,0.3676452935,,,
51.8437500000,6,-0.0744934082,,,
51.8593750000,6,-0.3504638970,,,
51.8750000000,6,-0.4274902046,,,
51.8906250000,6,-0.3363646865,,,
51.9062500000,6,-0.1345061958,,,
51.9218750000,6,0.1196288988,,,
51.9375000000,6,0.3695983887,,,
51.9531250000,6,0.5370026231,,,
51.9687500000,6,0.5517426133,,,
51.9843750000,6,0.3828887939,,,
52.0000000000,6,0.0537567101,,,
52.0156250000,6,-0.3368529975,,,
52.0312500000,6,-0.6697083116,,,
52.0468750000,6,-0.8547974229,,,
52.0625000000,6,-0.8695983887,,,
52.0781250000,6,-0.7613983154,,,
52.0937500000,6,-0.6106566787,,,
52.1093750000,6,-0.4799346924,,,
52.1250000000,6,-0.3995513916,,,
52.1406250000,6,-0.3662567139,,,
52.1562500000,6,-0.3550415039,,,
52.1718750000,6,-0.3474273980,,,
52.1875000000,6,-0.3531494141,,,
52.2031250000,6,-0.3917694092,,,
52.2187500000,6,-0.4641265869,,,
52.2343750000,6,-0.5330811143,,,
52.2500000000,6,-0.5406342149,,,
52.2656250000,6,-0.4251098931,,,
52.2812500000,6,-0.1881103963,,,
52.2968750000,6,0.1196442023,,,
52.3125000000,6,0.4040069878,,,
52.3281250000,6,0.5698394775,,,
52.3437500000,6,0.5793151855,,,
52.3593750000,6,0.4740447998,,,
52.3750000000,6,0.3535918891,,,
52.3906250000,6,0.3289336860,,,
52.4062500000,6,0.4486694038,,,
52.4218750000,6,0.6519011855,,,
52.4375000000,6,0.8130950928,,,
52.4531250000,6,0.7648621202,,,
52.4687500000,6,0.4120940864,,,
52.4843750000,6,-0.2152862996,,,
52.5000000000,6,-0.9728394151,,,
52.5156250000,6,-1.6453399658,,,
52.5312500000,6,-2.0477290154,,,
52.5468750000,6,-2.0830540657,,,
52.5625000000,6,-1.7754969597,,,
52.5781250000,6,-1.2314759493,,,
52.5937500000,6,-0.5930023193,,,
52.6093750000,6,0.0205535907,,,
52.6250000000,6,0.5129852295,,,
52.6406250000,6,0.8285369873,,,
52.6562500000,6,0.9457092285,,,
52.6718750000,6,0.8914641738,,,
52.6875000000,6,0.7528380752,,,
52.7031250000,6,0.6545867920,,,
52.7187500000,6,0.7067108154,,,
52.7343750000,6,0.9600983262,,,
52.7500000000,6,1.3473969698,,,
52.7656250000,6,1.7325899601,,,
52.7812500000,6,1.9456330538,,,
52.7968750000,6,1.8723139763,,,
52.8125000000,6,1.4978489876,,,
52.8281250000,6,0.9128417969,,,
52.8437500000,6,0.2667694092,,,
52.8593750000,6,-0.2791442871,,,
52.8750000000,6,-0.6002197266,,,
52.8906250000,6,-0.6445313096,,,
52.9062500000,6,-0.4453583062,,,
52.9218750000,6,-0.1001129001,,,
52.9375000000,6,0.2851257026,,,
52.9531250000,6,0.6136627197,,,
52.9687500000,6,0.8426970840,,,
52.9843750000,6,0.9737244248,,,
53.0000000000,6,1.0216670036,,,
53.0156250000,6,1.0160219669,,,
53.0312500000,6,0.9436798096,,,
53.0468750000,6,0.7979888916,,,
53.0625000000,6,0.5963897705,,,
53.0781250000,6,0.3717803955,,,
53.0937500000,6,0.1638946980,,,
53.1093750000,6,-0.0103759803,,,
53.1250000000,6,-0.1917877048,,,
53.1406250000,6,-0.4505920112,,,
53.1562500000,6,-0.8124083877,,,
53.1718750000,6,-1.2239530087,,,
53.1875000000,6,-1.5432430506,,,
53.2031250000,6,-1.6221469641,,,
53.2187500000,6,-1.3920589685,,,
53.2343750000,6,-0.9257050157,,,
53.2500000000,6,-0.4331665039,,,
53.2656250000,6,-0.1524962932,,,
53.2812500000,6,-0.2404326946,,,
53.2968750000,6,-0.6592711806,,,
53.3125000000,6,-1.2260440588,,,
53.3281250000,6,-1.6750489473,,,
53.3437500000,6,-1.8136899471,,,
53.3593750000,6,-1.5937349796,,,
53.3750000000,6,-1.1390379667,,,
53.3906250000,6,-0.6515197754,,,
53.4062500000,6,-0.3267821968,,,
53.4218750000,6,-0.2830199897,,,
53.4375000000,6,-0.5043334961,,,
53.4531250000,6,-0.8712769151,,,
53.4687500000,6,-1.2194520235,,,
53.4843750000,6,-1.3973850012,,,
53.5000000000,6,-1.3280489445,,,
53.5156250000,6,-1.0089110136,,,
53.5312500000,6,-0.5133209229,,,
53.5468750000,6,0.0415344201,,,
53.5625000000,6,0.5529785156,,,
53.5781250000,6,0.9548645020,,,
53.5937500000,6,1.2185209990,,,
53.6093750000,6,1.3400119543,,,
53.6250000000,6,1.3211059570,,,
53.6406250000,6,1.1536870003,,,
53.6562500000,6,0.8437957764,,,
53.6718750000,6,0.4330902100,,,
53.6875000000,6,0.0313568115,,,
53.7031250000,6,-0.2227324992,,,
53.7187500000,6,-0.1949920952,,,
53.7343750000,6,0.1697082967,,,
53.7500000000,6,0.7900084853,,,
53.7656250000,6,1.4587550163,,,
53.7812500000,6,1.9135279655,,,
53.7968750000,6,1.9639589787,,,
53.8125000000,6,1.5796049833,,,
53.8281250000,6,0.9176635742,,,
53.8437500000,6,0.2408141941,,,
53.8593750000,6,-0.1981201023,,,
53.8750000000,6,-0.2769775093,,,
53.8906250000,6,-0.0409240685,,,
53.9062500000,6,0.3632813096,,,
53.9218750000,6,0.7709655762,,,
53.9375000000,6,1.0728000402,,,
53.9531250000,6,1.2364200354,,,
53.9687500000,6,1.2728420496,,,
53.9843750000,6,1.1999050379,,,
54.0000000000,6,1.0057679415,,,
54.0156250000,6,0.6699523926,,,
54.0312500000,6,0.2014160007,,,
54.0468750000,6,-0.3313750923,,,
54.0625000000,6,-0.8245087266,,,
54.0781250000,6,-1.1566770077,,,
54.0937500000,6,-1.2463840246,,,
54.1093750000,6,-1.0977779627,,,
54.1250000000,6,-0.7828673720,,,
54.1406250000,6,-0.4218291938,,,
54.1562500000,6,-0.1503753960,,,
54.1718750000,6,-0.0578765906,,,
54.1875000000,6,-0.1557617038,,,
54.2031250000,6,-0.3757629097,,,
54.2187500000,6,-0.6189727783,,,
54.2343750000,6,-0.7823333740,,,
54.2500000000,6,-0.8163604736,,,
54.2656250000,6,-0.7349854112,,,
54.2812500000,6,-0.5608673096,,,
54.2968750000,6,-0.3128356934,,,
54.3125000000,6,-0.0020599370,,,
54.3281250000,6,0.3449554145,,,
54.3437500000,6,0.6567230225,,,
54.3593750000,6,0.8271483779,,,
54.3750000000,6,0.7834625244,,,
54.3906250000,6,0.5244750977,,,
54.4062500000,6,0.1210480034,,,
54.4218750000,6,-0.3110198975,,,
54.4375000000,6,-0.6698914170,,,
54.4531250000,6,-0.9192199707,,,
54.4687500000,6,-1.0538179874,,,
54.4843750000,6,-1.0814510584,,,
54.5000000000,6,-0.9879608154,,,
54.5156250000,6,-0.7621306777,,,
54.5312500000,6,-0.4252167046,,,
54.5468750000,6,-0.0718994066,,,
54.5625000000,6,0.1694793999,,,
54.5781250000,6,0.1816864014,,,
54.5937500000,6,-0.0558624305,,,
54.6093750000,6,-0.4462738037,,,
54.6250000000,6,-0.8136597276,,,
54.6406250000,6,-0.9791564941,,,
54.6562500000,6,-0.8321990967,,,
54.6718750000,6,-0.3794403076,,,
54.6875000000,6,0.2480316013,,,
54.7031250000,6,0.8578339219,,,
54.7187500000,6,1.2559360266,,,
54.7343750000,6,1.3237459660,,,
54.7500000000,6,1.0722659826,,,
54.7656250000,6,0.6376647949,,,
54.7812500000,6,0.2393798977,,,
54.7968750000,6,0.0483093299,,,
54.8125000000,6,0.1310576946,,,
54.8281250000,6,0.3998107910,,,
54.8437500000,6,0.6976317763,,,
54.8593750000,6,0.8672943115,,,
54.8750000000,6,0.8496398926,,,
54.8906250000,6,0.7090454102,,,
54.9062500000,6,0.5631713867,,,
54.9218750000,6,0.5139771104,,,
54.9375000000,6,0.5858612061,,,
54.9531250000,6,0.7166901231,,,
54.9687500000,6,0.8037415147,,,
54.9843750000,6,0.7668914795,,,
55.0000000000,6,0.3276366889,,,
55.0156250000,6,0.0383148193,,,
55.0312500000,6,-0.2259674072,,,
55.0468750000,6,-0.4590758979,,,
55.0625000000,6,-0.6862946153,,,
55.0781250000,6,-0.9284362793,,,
55.0937500000,6,-1.1637729406,,,
55.1093750000,6,-1.3150019646,,,
55.1250000000,6,-1.3010250330,,,
55.1406250000,6,-1.0885469913,,,
55.1562500000,6,-0.7201691270,,,
55.1718750000,6,-0.3171997070,,,
55.1875000000,6,0.0116729699,,,
55.2031250000,6,0.2214203030,,,
55.2187500000,6,0.3531342149,,,
55.2343750000,6,0.4799804986,,,
55.2500000000,6,0.6291046143,,,
55.2656250000,6,0.7592620850,,,
55.2812500000,6,0.7755126953,,,
55.2968750000,6,0.6107177734,,,
55.3125000000,6,0.2577666938,,,
55.3281250000,6,-0.2065276951,,,
55.3437500000,6,-0.6898040771,,,
55.3593750000,6,-1.1180729866,,,
55.3750000000,6,-1.4484250546,,,
55.3906250000,6,-1.6762850285,,,
55.4062500000,6,-1.8088680506,,,
55.4218750000,6,-1.8441619873,,,
55.4375000000,6,-1.7675629854,,,
55.4531250000,6,-1.5704649687,,,
55.4687500000,6,-1.2318120003,,,
55.4843750000,6,-0.7253571153,,,
55.5000000000,6,-0.0445404090,,,
55.5156250000,6,0.7616881728,,,
55.5312500000,6,1.5551910400,,,
55.5468750000,6,2.1469419003,,,
55.5625000000,6,2.3642270565,,,
55.5781250000,6,2.1715850830,,,
55.5937500000,6,1.6801149845,,,
55.6093750000,6,1.1217349768,,,
55.6250000000,6,0.6972960830,,,
55.6406250000,6,0.5023955703,,,
55.6562500000,6,0.5131378174,,,
55.6718750000,6,0.6181030273,,,
55.6875000000,6,0.7265319824,,,
55.7031250000,6,0.7876281738,,,
55.7187500000,6,0.7755280137,,,
55.7343750000,6,0.6630858779,,,
55.7500000000,6,0.4174194038,,,
55.7656250000,6,0.0243835393,,,
55.7812500000,6,-0.4687195122,,,
55.7968750000,6,-0.9543151855,,,
55.8125000000,6,-1.2897030115,,,
55.8281250000,6,-1.3707120419,,,
55.8437500000,6,-1.1911929846,,,
55.8593750000,6,-0.8328247070,,,
55.8750000000,6,-0.4111785889,,,
55.8906250000,6,-0.0293426495,,,
55.9062500000,6,0.2587279975,,,
55.9218750000,6,0.4170685112,,,
55.9375000000,6,0.4310607910,,,
55.9531250000,6,0.2802582085,,,
55.9687500000,6,-0.0232391395,,,
55.9843750000,6,-0.3936004937,,,
56.0000000000,7,-0.6867064834,,,
56.0156250000,7,-0.7718201280,,,
56.0312500000,7,-0.5997313857,,,
56.0468750000,7,-0.2629241943,,,
56.0625000000,7,0.0376892090,,,
56.0781250000,7,0.0872955322,,,
56.0937500000,7,-0.2056885064,,,
56.1093750000,7,-0.7488861084,,,
56.1250000000,7,-1.3134160042,,,
56.1406250000,7,-1.6212309599,,,
56.1562500000,7,-1.5060119629,,,
56.1718750000,7,-0.9895477295,,,
56.1875000000,7,-0.2589263916,,,
