Time:64Hz,Epoch,Channel 1,Event Id,Event Date,Event Duration
0.0000000000,0,-0.5331115723,,,
0.0156250000,0,-0.7013245225,,,
0.0312500000,0,-0.7002562881,,,
0.0468750000,0,-0.5923156738,,,
0.0625000000,0,-0.4628295898,,,
0.0781250000,0,-0.3814392090,,,
0.0937500000,0,-0.3731079102,,,
0.1093750000,0,-0.4007568061,,,
0.1250000000,0,-0.4129944146,,,
0.1406250000,0,-0.3602294922,,,
0.1562500000,0,-0.2396851033,,,
0.1718750000,0,-0.0748901367,,,
0.1875000000,0,0.0845947266,,,
0.2031250000,0,0.1977234036,,,
0.2187500000,0,0.2462462932,,,
0.2343750000,0,0.2506408989,,,
0.2500000000,0,0.2675780952,,,
0.2656250000,0,0.3585815132,,,
0.2812500000,0,0.5561522841,,,
0.2968750000,0,0.8423767090,,,
0.3125000000,0,1.1369019747,,,
0.3281250000,0,1.3421020508,,,
0.3437500000,0,1.3995059729,,,
0.3593750000,0,1.3103029728,,,
0.3750000000,0,1.1492609978,,,
0.3906250000,0,1.0001529455,,,
0.4062500000,0,0.9036560059,,,
0.4218750000,0,0.8410338759,,,
0.4375000000,0,0.7516785264,,,
0.4531250000,0,0.6014099121,,,
0.4687500000,0,0.4237976074,,,
0.4843750000,0,0.3076171875,,,
0.5000000000,0,0.3457030952,,,
0.5156250000,0,0.5722045898,,,
0.5312500000,0,0.9190369248,,,
0.5468750000,0,1.2335510254,,,
0.5625000000,0,1.3720400333,,,
0.5781250000,0,1.2540889978,,,
0.5937500000,0,0.9070435166,,,
0.6093750000,0,0.4417724907,,,
0.6250000000,0,-0.0159912091,,,
0.6406250000,0,-0.3743591011,,,
0.6562500000,0,-0.6086121202,,,
0.6718750000,0,-0.7478942871,,,
0.6875000000,0,-0.8327636719,,,
0.7031250000,0,-0.8976746202,,,
0.7187500000,0,-0.9545593262,,,
0.7343750000,0,-1.0007319450,,,
0.7500000000,0,-1.0253599882,,,
0.7656250000,0,-1.0205990076,,,
0.7812500000,0,-0.9813538194,,,
0.7968750000,0,-0.8945922852,,,
0.8125000000,0,-0.7590026855,,,
0.8281250000,0,-0.5885009766,,,
0.8437500000,0,-0.3981322944,,,
0.8593750000,0,-0.2258300930,,,
0.8750000000,0,-0.1119384989,,,
0.8906250000,0,-0.0775756836,,,
0.9062500000,0,-0.1180725023,,,
0.9218750000,0,-0.1887816936,,,
0.9375000000,0,-0.2264098972,,,
0.9531250000,0,-0.1584167033,,,
0.9687500000,0,0.0688171387,,,
0.9843750000,0,0.4648742974,,,
1.0000000000,0,0.9717711806,,,
1.0156250000,0,1.4981689453,,,
1.0312500000,0,1.9263310432,,,
1.0468750000,0,2.1675109863,,,
1.0625000000,0,2.1748049259,,,
1.0781250000,0,1.9562989473,,,
1.0937500000,0,1.5596009493,,,
1.1093750000,0,1.0400999784,,,
1.1250000000,0,0.4456177056,,,
1.1406250000,0,-0.1711730957,,,
1.1562500000,0,-0.7492675781,,,
1.1718750000,0,-1.1986390352,,,
1.1875000000,0,-1.4407349825,,,
1.2031250000,0,-1.4267879725,,,
1.2187500000,0,-1.1745300293,,,
1.2343750000,0,-0.7677001953,,,
1.2500000000,0,-0.2960205078,,,
1.2656250000,0,0.1547241062,,,
1.2812500000,0,0.5349121094,,,
1.2968750000,0,0.7953491211,,,
1.3125000000,0,0.8858032227,,,
1.3281250000,0,0.7407531738,,,
1.3437500000,0,0.3439635932,,,
1.3593750000,0,-0.2473144978,,,
1.3750000000,0,-0.9023743272,,,
1.3906250000,0,-1.4538880587,,,
1.4062500000,0,-1.7823790312,,,
1.4218750000,0,-1.8703919649,,,
1.4375000000,0,-1.7796939611,,,
1.4531250000,0,-1.5994570255,,,
1.4687500000,0,-1.3767399788,,,
1.4843750000,0,-1.0802919865,,,
1.5000000000,0,-0.6684874892,,,
1.5156250000,0,-0.1396789998,,,
1.5312500000,0,0.4262390137,,,
1.5468750000,0,0.8941649795,,,
1.5625000000,0,1.1527400017,,,
1.5781250000,0,1.1682740450,,,
1.5937500000,0,1.0109560490,,,
1.6093750000,0,0.7921143174,,,
1.6250000000,0,0.6006774902,,,
1.6406250000,0,0.4716187119,,,
1.6562500000,0,0.3796691895,,,
1.6718750000,0,0.2953796089,,,
1.6875000000,0,0.2204589993,,,
1.7031250000,0,0.1754149944,,,
1.7187500000,0,0.1759337932,,,
1.7343750000,0,0.2042236030,,,
1.7500000000,0,0.1980590969,,,
1.7656250000,0,0.0823669434,,,
1.7812500000,0,-0.1821898967,,,
1.7968750000,0,-0.5751647949,,,
1.8125000000,0,-1.0013430119,,,
1.8281250000,0,-1.3260190487,,,
1.8437500000,0,-1.4286500216,,,
1.8593750000,0,-1.2498780489,,,
1.8750000000,0,-0.8273010254,,,
1.8906250000,0,-0.2726134956,,,
1.9062500000,0,0.2586365044,,,
1.9218750000,0,0.6312866211,,,
1.9375000000,0,-0.9786376953,,,
1.9531250000,0,-0.8389893174,,,
1.9687500000,0,-0.6667479873,,,
1.9843750000,0,-0.4304809868,,,
2.0000000000,0,-0.1089477986,,,
2.0156250000,0,0.2797240913,,,
2.0312500000,0,0.6440125108,,,
2.0468750000,0,0.8849791884,,,
2.0625000000,0,0.9375305176,,,
2.0781250000,0,0.8024901748,,,
2.0937500000,0,0.5682373047,,,
2.1093750000,0,0.3469848931,,,
2.1250000000,0,0.2270507962,,,
2.1406250000,0,0.2032471001,,,
2.1562500000,0,0.1984252930,,,
2.1718750000,0,0.1116333008,,,
2.1875000000,0,-0.1039734036,,,
2.2031250000,0,-0.3948363960,,,
2.2187500000,0,-0.6262816787,,,
2.2343750000,0,-0.6487426758,,,
2.2500000000,0,-0.3912963867,,,
2.2656250000,0,0.0979919434,,,
2.2812500000,0,0.6612854004,,,
2.2968750000,0,1.1241760254,,,
2.3125000000,0,1.3378909826,,,
2.3281250000,0,1.2672419548,,,
2.3437500000,0,0.9821776748,,,
2.3593750000,0,0.6177979112,,,
2.3750000000,0,0.3065491021,,,
2.3906250000,0,0.1269226074,,,
2.4062500000,0,0.0651855469,,,
2.4218750000,0,0.0437622108,,,
2.4375000000,0,-0.0328674316,,,
2.4531250000,0,-0.2307433933,,,
2.4687500000,0,-0.5507506728,,,
2.4843750000,0,-0.9401550293,,,
2.5000000000,0,-1.3234859705,,,
2.5156250000,0,-1.6224670410,,,
2.5312500000,0,-1.7825319767,,,
2.5468750000,0,-1.7637629509,,,
2.5625000000,0,-1.5414429903,,,
2.5781250000,0,-1.1082149744,,,
2.5937500000,0,-0.5180969238,,,
2.6093750000,0,0.1189270020,,,
2.6250000000,0,0.6526184082,,,
2.6406250000,0,0.9577332139,,,
2.6562500000,0,0.9805603027,,,
2.6718750000,0,0.7776793838,,,
2.6875000000,0,0.4614258111,,,
2.7031250000,0,0.1419983059,,,
2.7187500000,0,-0.1217041016,,,
2.7343750000,0,-0.3171387017,,,
2.7500000000,0,-0.4277038872,,,
2.7656250000,0,-0.4012145996,,,
2.7812500000,0,-0.1780700982,,,
2.7968750000,0,0.2783508003,,,
2.8125000000,0,0.9005736709,,,
2.8281250000,0,1.5278929472,,,
2.8437500000,0,1.9630130529,,,
2.8593750000,0,2.0654599667,,,
2.8750000000,0,1.8107600212,,,
2.8906250000,0,1.3151249886,,,
2.9062500000,0,0.7463073730,,,
2.9218750000,0,0.2596436143,,,
2.9375000000,0,-0.0617675819,,,
2.9531250000,0,-0.2019958049,,,
2.9687500000,0,-0.1770630032,,,
2.9843750000,0,-0.0093078613,,,
3.0000000000,0,0.2876282036,,,
3.0156250000,0,0.6769409180,,,
3.0312500000,0,1.0805050135,,,
3.0468750000,0,1.3877259493,,,
3.0625000000,0,1.4957280159,,,
3.0781250000,0,1.3571469784,,,
3.0937500000,0,0.9885253906,,,
3.1093750000,0,0.4744567871,,,
3.1250000000,0,-0.0831604004,,,
3.1406250000,0,-0.5830687881,,,
3.1562500000,0,-0.9482727051,,,
3.1718750000,0,-1.1068420410,,,
3.1875000000,0,-0.9953917861,,,
3.2031250000,0,-0.5848389268,,,
3.2187500000,0,0.0793151930,,,
3.2343750000,0,0.8457946777,,,
3.2500000000,0,1.4865419865,,,
3.2656250000,0,1.8014830351,,,
3.2812500000,0,1.6822509766,,,
3.2968750000,0,1.1883239746,,,
3.3125000000,0,0.4779663086,,,
3.3281250000,0,-0.2492371053,,,
3.3437500000,0,-0.8540039063,,,
3.3593750000,0,-1.2752380371,,,
3.3750000000,0,-1.5019840002,,,
3.3906250000,0,-1.5396729708,,,
3.4062500000,0,-1.3880310059,,,
3.4218750000,0,-1.0752869844,,,
3.4375000000,0,-0.6932067871,,,
3.4531250000,0,-0.3910521865,,,
3.4687500000,0,-0.3141478896,,,
3.4843750000,0,-0.5343933105,,,
3.5000000000,0,-0.9854431152,,,
3.5156250000,0,-1.5036929846,,,
3.5312500000,0,-1.8758540154,,,
3.5468750000,0,-1.9619749784,,,
3.5625000000,0,-1.7214360237,,,
3.5781250000,0,-1.2150570154,,,
3.5937500000,0,-0.5639647841,,,
3.6093750000,0,0.0905151367,,,
3.6250000000,0,0.6139832139,,,
3.6406250000,0,0.8970031738,,,
3.6562500000,0,0.8870239258,,,
3.6718750000,0,0.6080626845,,,
3.6875000000,0,0.1719360054,,,
3.7031250000,0,-0.2577514946,,,
3.7187500000,0,-0.5205382705,,,
3.7343750000,0,-0.5304564834,,,
3.7500000000,0,-0.3022766113,,,
3.7656250000,0,0.0754089430,,,
3.7812500000,0,0.4813843071,,,
3.7968750000,0,0.8159484863,,,
3.8125000000,0,1.0241700411,,,
3.8281250000,0,1.0802309513,,,
3.8437500000,0,0.9891663194,,,
3.8593750000,0,0.7797852159,,,
3.8750000000,0,0.5226746202,,,
3.8906250000,0,0.3056334853,,,
3.9062500000,0,0.2174683064,,,
3.9218750000,0,0.3053894043,,,
3.9375000000,0,0.5418090820,,,
3.9531250000,0,0.8311157227,,,
3.9687500000,0,1.0338439941,,,
3.9843750000,0,1.0476679802,,,
4.0000000000,0,0.8526610732,,,
4.0156250000,0,0.5060729980,,,
4.0312500000,0,0.1234740987,,,
4.0468750000,0,-0.1831054986,,,
4.0625000000,0,-0.3632813096,,,
4.0781250000,0,-0.4239807129,,,
4.0937500000,0,-0.4063721001,,,
4.1093750000,0,-0.3685913086,,,
4.1250000000,0,-0.3279724121,,,
4.1406250000,0,-0.2658385932,,,
4.1562500000,0,-0.1482848972,,,
4.1718750000,0,0.0280151404,,,
4.1875000000,0,0.2247008979,,,
4.2031250000,0,0.3577271104,,,
4.2187500000,0,0.3560486138,,,
4.2343750000,0,0.2016907036,,,
4.2500000000,0,-0.0449218787,,,
4.2656250000,0,-0.2784729004,,,
4.2812500000,0,-0.4034424126,,,
4.2968750000,0,-0.4131774902,,,
4.3125000000,0,-0.3663940132,,,
4.3281250000,0,-0.3519591987,,,
4.3437500000,0,-0.4101867974,,,
4.3593750000,0,-0.5123291016,,,
4.3750000000,0,-0.5741271973,,,
4.3906250000,0,-0.5334473252,,,
4.4062500000,0,-0.3789063096,,,
4.4218750000,0,-0.1794434041,,,
4.4375000000,0,-0.0197143592,,,
4.4531250000,0,0.0688476637,,,
4.4687500000,0,0.1159972996,,,
4.4843750000,0,0.1879882962,,,
4.5000000000,0,0.3366088867,,,
4.5156250000,0,0.5589600205,,,
4.5312500000,0,0.8010864258,,,
4.5468750000,0,0.9924315810,,,
4.5625000000,0,1.0801390409,,,
4.5781250000,0,1.0516970158,,,
4.5937500000,0,0.9377440810,,,
4.6093750000,0,0.7789307237,,,
4.6250000000,0,0.6246948242,,,
4.6406250000,0,0.5085449219,,,
4.6562500000,0,0.4483337104,,,
4.6718750000,0,0.4336242974,,,
4.6875000000,0,0.4331665039,,,
4.7031250000,0,0.4192504883,,,
4.7187500000,0,0.3742065132,,,
4.7343750000,0,0.3200683892,,,
4.7500000000,0,0.2996825874,,,
4.7656250000,0,0.3525696099,,,
4.7812500000,0,0.4729003906,,,
4.7968750000,0,0.5984191895,,,
4.8125000000,0,0.6194152832,,,
4.8281250000,0,0.4364928901,,,
4.8437500000,0,0.0014953610,,,
4.8593750000,0,-0.6477355957,,,
4.8750000000,0,-1.3881839514,,,
4.8906250000,0,-2.0540769100,,,
4.9062500000,0,-2.4769899845,,,
4.9218750000,0,-2.5506589413,,,
4.9375000000,0,-2.2614440918,,,
4.9531250000,0,-1.6986999512,,,
4.9687500000,0,-1.0337829590,,,
4.9843750000,0,-0.4701232910,,,
5.0000000000,0,-0.1528930962,,,
5.0156250000,0,-0.1372375041,,,
5.0312500000,0,-0.3434143066,,,
5.0468750000,0,-0.6164550781,,,
5.0625000000,0,-0.7799072266,,,
5.0781250000,0,-0.7155761719,,,
5.0937500000,0,-0.4046936035,,,
5.1093750000,0,0.0565490685,,,
5.1250000000,0,0.5133972168,,,
5.1406250000,0,0.8320313096,,,
5.1562500000,0,0.9295654297,,,
5.1718750000,0,0.8023071289,,,
5.1875000000,0,0.4922179878,,,
5.2031250000,0,0.0817565918,,,
5.2187500000,0,-0.3523865044,,,
5.2343750000,0,-0.7459412217,,,
5.2500000000,0,-1.0650019646,,,
5.2656250000,0,-1.2773129940,,,
5.2812500000,0,-1.3689880371,,,
5.2968750000,0,-1.3139339685,,,
5.3125000000,0,-1.1063539982,,,
5.3281250000,0,-0.7624207139,,,
5.3437500000,0,-0.3480224907,,,
5.3593750000,0,0.0307922401,,,
5.3750000000,0,0.2763977051,,,
5.3906250000,0,0.3564453125,,,
5.4062500000,0,0.3308716118,,,
5.4218750000,0,0.3323669136,,,
5.4375000000,0,0.4800415039,,,
5.4531250000,0,0.8044738770,,,
5.4687500000,0,1.2286070585,,,
5.4843750000,0,1.5917969942,,,
5.5000000000,0,1.7427669764,,,
5.5156250000,0,1.6200870275,,,
5.5312500000,0,1.2827450037,,,
5.5468750000,0,0.8795471191,,,
5.5625000000,0,0.5523682237,,,
5.5781250000,0,0.3673096001,,,
5.5937500000,0,0.3110351861,,,
5.6093750000,0,0.2900696099,,,
5.6250000000,0,0.2235718071,,,
5.6406250000,0,0.0816650391,,,
5.6562500000,0,-0.0993347168,,,
5.6718750000,0,-0.2440491021,,,
5.6875000000,0,-0.2941589057,,,
5.7031250000,0,-0.2518616021,,,
5.7187500000,0,-0.1542053074,,,
5.7343750000,0,-0.0515441895,,,
5.7500000000,0,0.0354003906,,,
5.7656250000,0,0.1240234002,,,
5.7812500000,0,0.2380675972,,,
5.7968750000,0,0.3726806939,,,
5.8125000000,0,0.4628601074,,,
5.8281250000,0,0.4112854004,,,
5.8437500000,0,0.1470032036,,,
5.8593750000,0,-0.3198241889,,,
5.8750000000,0,-0.8699036241,,,
5.8906250000,0,-1.3292850256,,,
5.9062500000,0,-1.5524289608,,,
5.9218750000,0,-1.4890439510,,,
5.9375000000,0,-1.1889040470,,,
5.9531250000,0,-0.7905579209,,,
5.9687500000,0,-0.4192810059,,,
5.9843750000,0,-0.1242370978,,,
6.0000000000,0,0.1145630032,,,
6.0156250000,0,0.3641968071,,,
6.0312500000,0,0.6537780762,,,
6.0468750000,0,0.9332885742,,,
6.0625000000,0,1.0806579590,,,
6.0781250000,0,0.9705200195,,,
6.0937500000,0,0.5759276748,,,
6.1093750000,0,-0.0150146503,,,
6.1250000000,0,-0.5991210938,,,
6.1406250000,0,-0.9741821289,,,
6.1562500000,0,-1.0400090218,,,
6.1718750000,0,-0.8421326280,,,
6.1875000000,0,-0.5324097276,,,
6.2031250000,0,-0.2778320014,,,
6.2187500000,0,-0.1640319973,,,
6.2343750000,0,-0.1775207967,,,
6.2500000000,0,-0.2191161960,,,
6.2656250000,0,-0.1904602051,,,
6.2812500000,0,-0.0559081994,,,
6.2968750000,0,0.1485290974,,,
6.3125000000,0,0.3613891900,,,
6.3281250000,0,0.5213013291,,,
6.3437500000,0,0.6140136719,,,
6.3593750000,0,0.6496887207,,,
6.3750000000,0,0.6474915147,,,
6.3906250000,0,0.6062927246,,,
6.4062500000,0,0.5188903809,,,
6.4218750000,0,0.3694458008,,,
6.4375000000,0,0.1605529934,,,
6.4531250000,0,-0.1019591987,,,
6.4687500000,0,-0.3972167969,,,
6.4843750000,0,-0.6946715713,,,
6.5000000000,0,-0.9439697266,,,
6.5156250000,0,-1.0928959846,,,
6.5312500000,0,-1.0943909883,,,
6.5468750000,0,-0.9389038086,,,
6.5625000000,0,-0.6598510742,,,
6.5781250000,0,-0.3169861138,,,
6.5937500000,0,0.0226135291,,,
6.6093750000,0,0.3209838867,,,
6.6250000000,0,0.5654907227,,,
6.6406250000,0,0.7719420791,,,
6.6562500000,0,0.9399108887,,,
6.6718750000,0,1.0628969669,,,
6.6875000000,0,1.1119379997,,,
6.7031250000,0,1.0920720100,,,
6.7187500000,0,1.0409549475,,,
6.7343750000,0,0.9960631728,,,
6.7500000000,0,0.9811400771,,,
6.7656250000,0,0.9616394043,,,
6.7812500000,0,0.8658142090,,,
6.7968750000,0,0.6280211806,,,
6.8125000000,0,0.2490539998,,,
6.8281250000,0,-0.2082519978,,,
6.8437500000,0,-0.6421204209,,,
6.8593750000,0,-0.9624022841,,,
6.8750000000,0,-1.1366579533,,,
6.8906250000,0,-1.1794430017,,,
6.9062500000,0,-1.1198120117,,,
6.9218750000,0,-0.9617614746,,,
6.9375000000,0,-0.7073059082,,,
6.9531250000,0,-0.3659057915,,,
6.9687500000,0,0.0162048303,,,
6.9843750000,0,0.3570862114,,,
7.0000000000,0,0.5722045898,,,
7.0156250000,0,0.6183472276,,,
7.0312500000,0,0.5251160264,,,
7.0468750000,0,0.3630065918,,,
7.0625000000,0,0.2240294963,,,
7.0781250000,0,0.1766356975,,,
7.0937500000,0,0.2402648926,,,
7.1093750000,0,0.3753356934,,,
7.1250000000,0,0.4967041016,,,
7.1406250000,0,0.5118103027,,,
7.1562500000,0,0.3526000977,,,
7.1718750000,0,0.0250244103,,,
7.1875000000,0,-0.3953247070,,,
7.2031250000,0,-0.7825012207,,,
7.2187500000,0,-1.0338439941,,,
7.2343750000,0,-1.1235350370,,,
7.2500000000,0,-1.1072690487,,,
7.2656250000,0,-1.0990300179,,,
7.2812500000,0,-1.1711119413,,,
7.2968750000,0,-1.3140870333,,,
7.3125000000,0,-1.4271850586,,,
7.3281250000,0,-1.3993840218,,,
7.3437500000,0,-1.1713869572,,,
7.3593750000,0,-0.7907103896,,,
7.3750000000,0,-0.3668212891,,,
7.3906250000,0,-0.0046997070,,,
7.4062500000,0,0.2498778999,,,
7.4218750000,0,0.4352112114,,,
7.4375000000,0,0.6073607802,,,
7.4531250000,0,0.8016663194,,,
7.4687500000,0,0.9932250977,,,
7.4843750000,0,1.1282960176,,,
7.5000000000,0,1.1464229822,,,
7.5156250000,0,1.0248409510,,,
7.5312500000,0,0.7926331162,,,
7.5468750000,0,0.5089722276,,,
7.5625000000,0,0.2411804050,,,
7.5781250000,0,0.0425720215,,,
7.5937500000,0,-0.0524291992,,,
7.6093750000,0,-0.0549926795,,,
7.6250000000,0,0.0102844201,,,
7.6406250000,0,0.0964050293,,,
7.6562500000,0,0.1868591011,,,
7.6718750000,0,0.2784118950,,,
7.6875000000,0,0.3841553032,,,
7.7031250000,0,0.5153809190,,,
7.7187500000,0,0.6507263184,,,
7.7343750000,0,0.7311400771,,,
7.7500000000,0,0.6927490234,,,
7.7656250000,0,0.5061035156,,,
7.7812500000,0,0.2203674018,,,
7.7968750000,0,-0.0591430701,,,
7.8125000000,0,-0.2161864936,,,
7.8281250000,0,-0.1828612983,,,
7.8437500000,0,0.0170593299,,,
7.8593750000,0,0.2975463867,,,
7.8750000000,0,0.5416870117,,,
7.8906250000,0,0.6748657227,,,
7.9062500000,0,0.6678771973,,,
7.9218750000,0,0.5363770127,,,
7.9375000000,0,0.3201293945,,,
7.9531250000,0,0.0651550293,,,
7.9687500000,0,-0.1783751994,,,
7.9843750000,0,-0.3578490913,,,
8.0000000000,1,-0.4181518853,,,
8.0156250000,1,-0.3471069038,,,
8.0312500000,1,-0.1951598972,,,
8.0468750000,1,-0.0519714393,,,
8.0625000000,1,-0.0121765099,,,
8.0781250000,1,-0.1033020020,,,
8.0937500000,1,-0.2777099907,,,
8.1093750000,1,-0.4417419136,,,
8.1250000000,1,-0.5200499892,,,
8.1406250000,1,-0.5073242188,,,
8.1562500000,1,-0.4577332139,,,
8.1718750000,1,-0.4392395020,,,
8.1875000000,1,-0.4915466011,,,
8.2031250000,1,-0.5979614258,,,
8.2187500000,1,-0.7161560059,,,
8.2343750000,1,-0.8130797744,,,
8.2500000000,1,-0.8788146973,,,
8.2656250000,1,-0.9022827148,,,
8.2812500000,1,-0.8492125869,,,
8.2968750000,1,-0.6579895020,,,
8.3125000000,1,-0.2915039063,,,
8.3281250000,1,0.2237854004,,,
8.3437500000,1,0.7548217773,,,
8.3593750000,1,1.1341249943,,,
8.3750000000,1,1.2272340059,,,
8.3906250000,1,1.0346070528,,,
8.4062500000,1,0.6928101182,,,
8.4218750000,1,0.3921203911,,,
8.4375000000,1,0.2702026069,,,
8.4531250000,1,0.3362731934,,,
8.4687500000,1,0.4751586914,,,
8.4843750000,1,0.5275573730,,,
8.5000000000,1,0.4091796875,,,
8.5156250000,1,0.1554871053,,,
8.5312500000,1,-0.1007385030,,,
8.5468750000,1,-0.2251587063,,,
8.5625000000,1,-0.1711121053,,,
8.5781250000,1,-0.0046081538,,,
8.5937500000,1,0.1399535984,,,
8.6093750000,1,0.1524353027,,,
8.6250000000,1,0.0151062002,,,
8.6406250000,1,-0.1967772990,,,
8.6562500000,1,-0.3780212104,,,
8.6718750000,1,-0.4627686143,,,
8.6875000000,1,-0.4794006050,,,
8.7031250000,1,-0.5052794814,,,
8.7187500000,1,-0.6183776855,,,
8.7343750000,1,-0.8111572266,,,
8.7500000000,1,-0.9849243164,,,
8.7656250000,1,-0.9837952256,,,
8.7812500000,1,-0.6900939941,,,
8.7968750000,1,-0.0964050293,,,
8.8125000000,1,0.6627501845,,,
8.8281250000,1,1.3669129610,,,
8.8437500000,1,1.7959899902,,,
8.8593750000,1,1.8320620060,,,
8.8750000000,1,1.5148930550,,,
8.8906250000,1,1.0004580021,,,
8.9062500000,1,0.4993591011,,,
8.9218750000,1,0.1589965969,,,
8.9375000000,1,0.0099487295,,,
8.9531250000,1,-0.0210571308,,,
8.9687500000,1,-0.0454711914,,,
8.9843750000,1,-0.1357727051,,,
9.0000000000,1,-0.2918700874,,,
9.0156250000,1,-0.4483337104,,,
9.0312500000,1,-0.5556334853,,,
9.0468750000,1,-0.6232910156,,,
9.0625000000,1,-0.7273864746,,,
9.0781250000,1,-0.9360352159,,,
9.0937500000,1,-1.2605589628,,,
9.1093750000,1,-1.6084899902,,,
9.1250000000,1,-1.8291629553,,,
9.1406250000,1,-1.7889399529,,,
9.1562500000,1,-1.4656980038,,,
9.1718750000,1,-0.9623413086,,,
9.1875000000,1,-0.4660339057,,,
9.2031250000,1,-0.1442870945,,,
9.2187500000,1,-0.0480651893,,,
9.2343750000,1,-0.1011352986,,,
9.2500000000,1,-0.8444824219,,,
9.2656250000,1,-0.4038695991,,,
9.2812500000,1,0.0653076172,,,
9.2968750000,1,0.4305725098,,,
9.3125000000,1,0.6066895127,,,
9.3281250000,1,0.5574645996,,,
9.3437500000,1,0.3124083877,,,
9.3593750000,1,-0.0498657189,,,
9.3750000000,1,-0.4090270996,,,
9.3906250000,1,-0.6277161241,,,
9.4062500000,1,-0.6107482910,,,
9.4218750000,1,-0.3470763862,,,
9.4375000000,1,0.0774231032,,,
9.4531250000,1,0.5122985840,,,
9.4687500000,1,0.8093872070,,,
9.4843750000,1,0.8876342773,,,
9.5000000000,1,0.7572631836,,,
9.5156250000,1,0.4854430854,,,
9.5312500000,1,0.1406250000,,,
9.5468750000,1,-0.2353516072,,,
9.5625000000,1,-0.6059874892,,,
9.5781250000,1,-0.9064636230,,,
9.5937500000,1,-1.0404969454,,,
9.6093750000,1,-0.9161682129,,,
9.6250000000,1,-0.5173339844,,,
9.6406250000,1,0.0528259315,,,
9.6562500000,1,0.6011962891,,,
9.6718750000,1,0.9309998155,,,
9.6875000000,1,0.9479064941,,,
9.7031250000,1,0.7065125108,,,
9.7187500000,1,0.3925476074,,,
9.7343750000,1,0.2036437988,,,
9.7500000000,1,0.2529296875,,,
9.7656250000,1,0.5187683105,,,
9.7812500000,1,0.8651428223,,,
9.7968750000,1,1.1410830021,,,
9.8125000000,1,1.2536619902,,,
9.8281250000,1,1.1947629452,,,
9.8437500000,1,1.0285029411,,,
9.8593750000,1,0.8312377930,,,
9.8750000000,1,0.6382141113,,,
9.8906250000,1,0.4514465034,,,
9.9062500000,1,0.2478027046,,,
9.9218750000,1,0.0240173303,,,
9.9375000000,1,-0.1989745945,,,
9.9531250000,1,-0.3901062012,,,
9.9687500000,1,-0.5395507813,,,
9.9843750000,1,-0.6736145020,,,
10.0000000000,1,-0.8305053711,,,
10.0156250000,1,-1.0078430176,,,
10.0312500000,1,-1.1481930017,,,
10.0468750000,1,-1.1544489861,,,
10.0625000000,1,-0.9405518174,,,
10.0781250000,1,-0.5030211806,,,
10.0937500000,1,0.0686035231,,,
10.1093750000,1,0.6131896973,,,
10.1250000000,1,0.9778137207,,,
10.1406250000,1,1.0775760412,,,
10.1562500000,1,0.9373474121,,,
10.1718750000,1,0.6662902832,,,
10.1875000000,1,0.3944092095,,,
10.2031250000,1,0.2175292969,,,
10.2187500000,1,0.1650391072,,,
10.2343750000,1,0.2144165039,,,
10.2500000000,1,0.3097533882,,,
10.2656250000,1,0.3953857124,,,
10.2812500000,1,0.4306946099,,,
10.2968750000,1,0.3990173042,,,
10.3125000000,1,0.3171997070,,,
10.3281250000,1,0.2342223972,,,
10.3437500000,1,0.2072754055,,,
10.3593750000,1,0.2817992866,,,
10.3750000000,1,0.4417724907,,,
10.3906250000,1,0.6167603135,,,
10.4062500000,1,0.7109680176,,,
10.4218750000,1,0.6611632705,,,
10.4375000000,1,0.4754028022,,,
10.4531250000,1,0.2262268066,,,
10.4687500000,1,0.0173645001,,,
10.4843750000,1,-0.0745849609,,,
10.5000000000,1,-0.0679626465,,,
10.5156250000,1,-0.0316467285,,,
10.5312500000,1,-0.0416870117,,,
10.5468750000,1,-0.1231079027,,,
10.5625000000,1,-0.2297973931,,,
10.5781250000,1,-0.2951659858,,,
10.5937500000,1,-0.2711487114,,,
10.6093750000,1,-0.2037048042,,,
10.6250000000,1,-0.1834105998,,,
10.6406250000,1,-0.2940979004,,,
10.6562500000,1,-0.5528870225,,,
10.6718750000,1,-0.8830261230,,,
10.6875000000,1,-1.1636049747,,,
10.7031250000,1,-1.2975159883,,,
10.7187500000,1,-1.2521359921,,,
10.7343750000,1,-1.0653380156,,,
10.7500000000,1,-0.8019104004,,,
10.7656250000,1,-0.5280150771,,,
10.7812500000,1,-0.2865295112,,,
10.7968750000,1,-0.1038513035,,,
10.8125000000,1,-0.0028991699,,,
10.8281250000,1,-0.0018310550,,,
10.8437500000,1,-0.0899353027,,,
10.8593750000,1,-0.2139893025,,,
10.8750000000,1,-0.2888793945,,,
10.8906250000,1,-0.2315063030,,,
10.9062500000,1,-0.0091552734,,,
10.9218750000,1,0.3397217095,,,
10.9375000000,1,0.7018126845,,,
10.9531250000,1,0.9499816895,,,
10.9687500000,1,1.0014649630,,,
10.9843750000,1,0.8607177734,,,
11.0000000000,1,0.6057128906,,,
11.0156250000,1,0.3554077148,,,
11.0312500000,1,0.1994324028,,,
11.0468750000,1,0.1609801948,,,
11.0625000000,1,0.1813354045,,,
11.0781250000,1,0.1664429009,,,
11.0937500000,1,0.0509948693,,,
11.1093750000,1,-0.1734618992,,,
11.1250000000,1,-0.4555054009,,,
11.1406250000,1,-0.7023314834,,,
11.1562500000,1,-0.8544005752,,,
11.1718750000,1,-0.9009094238,,,
11.1875000000,1,-0.8789368272,,,
11.2031250000,1,-0.8420410156,,,
11.2187500000,1,-0.8194885254,,,
11.2343750000,1,-0.8106079102,,,
11.2500000000,1,-0.7898560166,,,
11.2656250000,1,-0.7362061143,,,
11.2812500000,1,-0.6471558213,,,
11.2968750000,1,-0.5352783203,,,
11.3125000000,1,-0.4220885932,,,
11.3281250000,1,-0.3215332031,,,
11.3437500000,1,-0.2214660943,,,
11.3593750000,1,-0.1111449972,,,
11.3750000000,1,0.0138244601,,,
11.3906250000,1,0.1277160943,,,
11.4062500000,1,0.1812743992,,,
11.4218750000,1,0.1335449070,,,
11.4375000000,1,-0.0368347205,,,
11.4531250000,1,-0.2931824028,,,
11.4687500000,1,-0.5486754775,,,
11.4843750000,1,-0.7092285156,,,
11.5000000000,1,-0.7138977051,,,
11.5156250000,1,-0.5617675781,,,
11.5312500000,1,-0.3193665147,,,
11.5468750000,1,-0.0549316406,,,
11.5625000000,1,0.1684570014,,,
11.5781250000,1,0.3425598145,,,
11.5937500000,1,0.4866333008,,,
11.6093750000,1,0.6245728135,,,
11.6250000000,1,0.7429810166,,,
11.6406250000,1,0.8006896973,,,
11.6562500000,1,0.7541198730,,,
11.6718750000,1,0.5834960938,,,
11.6875000000,1,0.3168945014,,,
11.7031250000,1,0.0096740723,,,
11.7187500000,1,-0.2718811035,,,
11.7343750000,1,-0.4595032036,,,
11.7500000000,1,-0.5166016221,,,
11.7656250000,1,-0.4280396104,,,
11.7812500000,1,-0.2082825005,,,
11.7968750000,1,0.1026611030,,,
11.8125000000,1,0.4444884956,,,
11.8281250000,1,0.7478638291,,,
11.8437500000,1,0.9752501845,,,
11.8593750000,1,1.1059570313,,,
11.8750000000,1,1.1648859978,,,
11.8906250000,1,1.2018129826,,,
11.9062500000,1,1.2601619959,,,
11.9218750000,1,1.3551030159,,,
11.9375000000,1,1.4720460176,,,
11.9531250000,1,1.5721130371,,,
11.9687500000,1,1.6307979822,,,
11.9843750000,1,1.6307070255,,,
12.0000000000,1,1.5614620447,,,
12.0156250000,1,1.4048459530,,,
12.0312500000,1,1.1130069494,,,
12.0468750000,1,0.6523743272,,,
12.0625000000,1,0.0186462402,,,
12.0781250000,1,-0.7252197266,,,
12.0937500000,1,-1.4771120548,,,
12.1093750000,1,-2.1292109489,,,
12.1250000000,1,-2.6080319881,,,
12.1406250000,1,-2.8931879997,,,
12.1562500000,1,-2.9924929142,,,
12.1718750000,1,-2.9133610725,,,
12.1875000000,1,-2.6467590332,,,
12.2031250000,1,-2.1836240292,,,
12.2187500000,1,-1.5555109978,,,
12.2343750000,1,-0.8423767090,,,
12.2500000000,1,-0.1849976033,,,
12.2656250000,1,0.2937926948,,,
12.2812500000,1,0.5177307129,,,
12.2968750000,1,0.5156859756,,,
12.3125000000,1,0.3826903999,,,
12.3281250000,1,0.2261963040,,,
12.3437500000,1,0.1262512058,,,
12.3593750000,1,0.0930481032,,,
12.3750000000,1,0.0773925781,,,
12.3906250000,1,0.0194091797,,,
12.4062500000,1,-0.1112060994,,,
12.4218750000,1,-0.3004150093,,,
12.4375000000,1,-0.4822692871,,,
12.4531250000,1,-0.6029968262,,,
12.4687500000,1,-0.6162719727,,,
12.4843750000,1,-0.5248718262,,,
12.5000000000,1,-0.3651123047,,,
12.5156250000,1,-0.1707763970,,,
12.5312500000,1,0.0439453088,,,
12.5468750000,1,0.2746276855,,,
12.5625000000,1,0.5021666884,,,
12.5781250000,1,0.6586914063,,,
12.5937500000,1,0.6613463759,,,
12.6093750000,1,0.4560852051,,,
12.6250000000,1,0.0729064867,,,
12.6406250000,1,-0.3676758111,,,
12.6562500000,1,-0.7091674805,,,
12.6718750000,1,-0.8434143066,,,
12.6875000000,1,-0.7476807237,,,
12.7031250000,1,-0.4791564941,,,
12.7187500000,1,-0.1463012993,,,
12.7343750000,1,0.1628722996,,,
12.7500000000,1,0.3923034966,,,
12.7656250000,1,0.5221558213,,,
12.7812500000,1,0.5394896865,,,
12.7968750000,1,0.4197692871,,,
12.8125000000,1,0.1534118950,,,
12.8281250000,1,-0.2484436035,,,
12.8437500000,1,-0.7182921767,,,
12.8593750000,1,-1.1317440271,,,
12.8750000000,1,-1.3448489904,,,
12.8906250000,1,-1.2507319450,,,
12.9062500000,1,-0.8349304199,,,
12.9218750000,1,-0.2053833008,,,
12.9375000000,1,0.4463500977,,,
12.9531250000,1,0.9076843262,,,
12.9687500000,1,1.0293580294,,,
12.9843750000,1,0.8244019151,,,
13.0000000000,1,0.4418640137,,,
13.0156250000,1,0.1028748006,,,
13.0312500000,1,-0.0300293006,,,
13.0468750000,1,0.0648193434,,,
13.0625000000,1,0.2546691895,,,
13.0781250000,1,0.3664245903,,,
13.0937500000,1,0.2971496880,,,
13.1093750000,1,0.0870971680,,,
13.1250000000,1,-0.0989685133,,,
13.1406250000,1,-0.0981445313,,,
13.1562500000,1,0.1595764011,,,
13.1718750000,1,0.6040344238,,,
13.1875000000,1,1.0677800179,,,
13.2031250000,1,1.3872989416,,,
13.2187500000,1,1.4795529842,,,
13.2343750000,1,1.3835140467,,,
13.2500000000,1,1.2033690214,,,
13.2656250000,1,1.0230100155,,,
13.2812500000,1,0.8681641221,,,
13.2968750000,1,0.6902465820,,,
13.3125000000,1,0.4346312881,,,
13.3281250000,1,0.0954589769,,,
13.3437500000,1,-0.2520751953,,,
13.3593750000,1,-0.4893187881,,,
13.3750000000,1,-0.5072327256,,,
13.3906250000,1,-0.2818298042,,,
13.4062500000,1,0.1091919020,,,
13.4218750000,1,0.5079956055,,,
13.4375000000,1,0.7604979873,,,
13.4531250000,1,0.7854003906,,,
13.4687500000,1,0.5887451172,,,
13.4843750000,1,0.2607421875,,,
13.5000000000,1,-0.0993957520,,,
13.5156250000,1,-0.4152832031,,,
13.5312500000,1,-0.6658325195,,,
13.5468750000,1,-0.8280029297,,,
13.5625000000,1,-0.8732299805,,,
13.5781250000,1,-0.7668457031,,,
13.5937500000,1,-0.4981994927,,,
13.6093750000,1,-0.1122130975,,,
13.6250000000,1,0.2899169922,,,
13.6406250000,1,0.5843811035,,,
13.6562500000,1,0.6653748155,,,
13.6718750000,1,0.5037230849,,,
13.6875000000,1,0.1632079929,,,
13.7031250000,1,-0.2215270996,,,
13.7187500000,1,-0.5094298720,,,
13.7343750000,1,-0.5999146104,,,
13.7500000000,1,-0.4621886909,,,
13.7656250000,1,-0.1521605998,,,
13.7812500000,1,0.2133789063,,,
13.7968750000,1,0.5002747178,,,
13.8125000000,1,0.6017150879,,,
13.8281250000,1,0.4707336128,,,
13.8437500000,1,0.1505431980,,,
13.8593750000,1,-0.2587890923,,,
13.8750000000,1,-0.6309509277,,,
13.8906250000,1,-0.8650208116,,,
13.9062500000,1,-0.9238892198,,,
13.9218750000,1,-0.8316649795,,,
13.9375000000,1,-0.6448059082,,,
13.9531250000,1,-0.4254150093,,,
13.9687500000,1,-0.2178039998,,,
13.9843750000,1,-0.0409545898,,,
14.0000000000,1,0.1015625000,,,
14.0156250000,1,0.1983643025,,,
14.0312500000,1,0.2177733928,,,
14.0468750000,1,0.1105957031,,,
14.0625000000,1,-0.1559447944,,,
14.0781250000,1,-0.5960692763,,,
14.0937500000,1,-1.1599429846,,,
14.1093750000,1,-1.7473139763,,,
14.1250000000,1,-2.2325439453,,,
14.1406250000,1,-2.4833068848,,,
14.1562500000,1,-2.4245910645,,,
14.1718750000,1,-2.0395200253,,,
14.1875000000,1,-1.3925780058,,,
14.2031250000,1,-0.6056212783,,,
14.2187500000,1,0.1709289998,,,
14.2343750000,1,0.8016356826,,,
14.2500000000,1,1.1906739473,,,
14.2656250000,1,1.3235169649,,,
14.2812500000,1,1.2584840059,,,
14.2968750000,1,1.1037290096,,,
14.3125000000,1,0.9651793838,,,
14.3281250000,1,0.9132385254,,,
14.3437500000,1,0.9550781250,,,
14.3593750000,1,1.0525510311,,,
14.3750000000,1,1.1596070528,,,
14.3906250000,1,1.2258000374,,,
14.4062500000,1,1.2235410213,,,
14.4218750000,1,1.1290589571,,,
14.4375000000,1,0.9216918945,,,
14.4531250000,1,0.6052855849,,,
14.4687500000,1,0.2156067044,,,
14.4843750000,1,-0.1696472019,,,
14.5000000000,1,-0.4520263970,,,
14.5156250000,1,-0.5488585830,,,
14.5312500000,1,-0.4458008111,,,
14.5468750000,1,-0.2039185017,,,
14.5625000000,1,0.0808105469,,,
14.5781250000,1,0.2879638970,,,
14.5937500000,1,0.3523865044,,,
14.6093750000,1,0.2689208984,,,
14.6250000000,1,0.1096497029,,,
14.6406250000,1,-0.0228576697,,,
14.6562500000,1,-0.0281372108,,,
14.6718750000,1,0.1274414063,,,
14.6875000000,1,0.3908385932,,,
14.7031250000,1,0.6301574707,,,
14.7187500000,1,0.6967163086,,,
14.7343750000,1,0.5249633789,,,
14.7500000000,1,0.1553039998,,,
14.7656250000,1,-0.2770690918,,,
14.7812500000,1,-0.6199036241,,,
14.7968750000,1,-0.7898253798,,,
14.8125000000,1,-0.7777100205,,,
14.8281250000,1,-0.6345520020,,,
14.8437500000,1,-0.4049071968,,,
14.8593750000,1,-0.0980835035,,,
14.8750000000,1,0.2929992974,,,
14.8906250000,1,0.7304381728,,,
14.9062500000,1,1.1299740076,,,
14.9218750000,1,1.3845520020,,,
14.9375000000,1,1.4158020020,,,
14.9531250000,1,1.2472230196,,,
14.9687500000,1,1.0019840002,,,
14.9843750000,1,0.8394774795,,,
15.0000000000,1,0.8507385254,,,
15.0156250000,1,1.0313719511,,,
15.0312500000,1,1.2554630041,,,
15.0468750000,1,1.3821109533,,,
15.0625000000,1,1.3316040039,,,
15.0781250000,1,1.1269840002,,,
15.0937500000,1,0.8885498047,,,
15.1093750000,1,0.7628784180,,,
15.1250000000,1,0.8549805284,,,
15.1406250000,1,1.1495970488,,,
15.1562500000,1,1.5234680176,,,
15.1718750000,1,1.7928470373,,,
15.1875000000,1,1.7953799963,,,
15.2031250000,1,1.4599299431,,,
15.2187500000,1,0.8307189941,,,
15.2343750000,1,0.0715026930,,,
15.2500000000,1,-0.6170654297,,,
15.2656250000,1,-1.0477600098,,,
15.2812500000,1,-1.1219480038,,,
15.2968750000,1,-0.8610228896,,,
15.3125000000,1,-0.3964233100,,,
15.3281250000,1,0.0635681227,,,
15.3437500000,1,0.3424071968,,,
15.3593750000,1,0.3661499023,,,
15.3750000000,1,0.1953125000,,,
15.3906250000,1,-0.0303039607,,,
15.4062500000,1,-0.1861876994,,,
15.4218750000,1,-0.2569274902,,,
15.4375000000,1,-0.3238830864,,,
15.4531250000,1,-0.4901733100,,,
15.4687500000,1,-0.7624207139,,,
15.4843750000,1,-1.0119930506,,,
15.5000000000,1,-1.0312190056,,,
15.5156250000,1,-0.6774291992,,,
15.5312500000,1,-0.0015869139,,,
15.5468750000,1,0.7429503798,,,
15.5625000000,1,1.2299799919,,,
15.5781250000,1,1.2317199707,,,
15.5937500000,1,0.7507019043,,,
15.6093750000,1,0.0048828130,,,
15.6250000000,1,-0.6966248155,,,
15.6406250000,1,-1.1355899572,,,
15.6562500000,1,-1.2574770451,,,
15.6718750000,1,-1.1582640409,,,
15.6875000000,1,-0.9577025771,,,
15.7031250000,1,-0.7315979004,,,
15.7187500000,1,-0.4764099121,,,
15.7343750000,1,-0.1507568061,,,
15.7500000000,1,0.2353210002,,,
15.7656250000,1,0.6230164170,,,
15.7812500000,1,0.9021301270,,,
15.7968750000,1,0.9967346191,,,
15.8125000000,1,0.9050598145,,,
15.8281250000,1,0.6959838867,,,
15.8437500000,1,0.4770812988,,,
15.8593750000,1,0.3152466118,,,
15.8750000000,1,0.2229004055,,,
15.8906250000,1,0.1640625000,,,
15.9062500000,1,0.1077881008,,,
15.9218750000,1,0.0414428711,,,
15.9375000000,1,-0.0212097205,,,
15.9531250000,1,-0.0662536621,,,
15.9687500000,1,-0.0996398926,,,
15.9843750000,1,-0.1545104980,,,
16.0000000000,2,-0.2686767876,,,
16.0156250000,2,-0.4551086128,,,
16.0312500000,2,-0.6691284180,,,
16.0468750000,2,-0.8414611816,,,
16.0625000000,2,-0.8670043945,,,
16.0781250000,2,-0.6815795898,,,
16.0937500000,2,-0.2893677056,,,
16.1093750000,2,0.2259521037,,,
16.1250000000,2,0.7158812881,,,
16.1406250000,2,1.0201419592,,,
16.1562500000,2,1.0371090174,,,
16.1718750000,2,0.7857971191,,,
16.1875000000,2,0.4085387886,,,
16.2031250000,2,0.0964965820,,,
16.2187500000,2,0.0044555659,,,
16.2343750000,2,0.1486815959,,,
16.2500000000,2,0.4033812881,,,
16.2656250000,2,0.5878906250,,,
16.2812500000,2,0.5887145996,,,
16.2968750000,2,0.4377135932,,,
16.3125000000,2,0.2794494927,,,
16.3281250000,2,0.2594909966,,,
16.3437500000,2,0.4164733887,,,
16.3593750000,2,0.6344298720,,,
16.3750000000,2,0.7289124131,,,
16.3906250000,2,0.5810852051,,,
16.4062500000,2,0.2120971978,,,
16.4218750000,2,-0.2003784031,,,
16.4375000000,2,-0.4647521973,,,
16.4531250000,2,-0.4688110054,,,
16.4687500000,2,-0.2690734863,,,
16.4843750000,2,-0.0440368690,,,
16.5000000000,2,0.0151367197,,,
16.5156250000,2,-0.1803283989,,,
16.5312500000,2,-0.5686646104,,,
16.5468750000,2,-0.9942017198,,,
16.5625000000,2,-0.5511475205,,,
16.5781250000,2,-0.7105103135,,,
16.5937500000,2,-0.8005371094,,,
16.6093750000,2,-0.7792357802,,,
16.6250000000,2,-0.6797791123,,,
16.6406250000,2,-0.5821533203,,,
16.6562500000,2,-0.5420227051,,,
16.6718750000,2,-0.5382689834,,,
16.6875000000,2,-0.4734801948,,,
16.7031250000,2,-0.2648315132,,,
16.7187500000,2,0.1037292033,,,
16.7343750000,2,0.5440369248,,,
16.7500000000,2,0.9056090713,,,
16.7656250000,2,1.0511469841,,,
16.7812500000,2,0.9273682237,,,
16.7968750000,2,0.5716248155,,,
16.8125000000,2,0.1080932990,,,
16.8281250000,2,-0.3143311143,,,
16.8437500000,2,-0.5809937119,,,
16.8593750000,2,-0.6464232802,,,
16.8750000000,2,-0.5379943848,,,
16.8906250000,2,-0.3529053032,,,
16.9062500000,2,-0.1971435994,,,
16.9218750000,2,-0.1497803032,,,
16.9375000000,2,-0.2145386040,,,
16.9531250000,2,-0.3273315132,,,
16.9687500000,2,-0.3990783989,,,
16.9843750000,2,-0.3546142876,,,
17.0000000000,2,-0.1965332031,,,
17.0156250000,2,0.0153503399,,,
17.0312500000,2,0.1589355022,,,
17.0468750000,2,0.1371154934,,,
17.0625000000,2,-0.0780029297,,,
17.0781250000,2,-0.4276123047,,,
17.0937500000,2,-0.7811279297,,,
17.1093750000,2,-0.9992675781,,,
17.1250000000,2,-1.0009160042,,,
17.1406250000,2,-0.7967224121,,,
17.1562500000,2,-0.4895935059,,,
17.1718750000,2,-0.2171631008,,,
17.1875000000,2,-0.0743713379,,,
17.2031250000,2,-0.0733337402,,,
17.2187500000,2,-0.1298218071,,,
17.2343750000,2,-0.1440124959,,,
17.2500000000,2,-0.0552368201,,,
17.2656250000,2,0.0987854004,,,
17.2812500000,2,0.2382201999,,,
17.2968750000,2,0.2915649116,,,
17.3125000000,2,0.2362976074,,,
17.3281250000,2,0.1243895963,,,
17.3437500000,2,0.0178527795,,,
17.3593750000,2,-0.0385437012,,,
17.3750000000,2,-0.0324706994,,,
17.3906250000,2,0.0269165002,,,
17.4062500000,2,0.1475525051,,,
17.4218750000,2,0.3348082900,,,
17.4375000000,2,0.5945128798,,,
17.4531250000,2,0.8685913086,,,
17.4687500000,2,1.0677490234,,,
17.4843750000,2,1.1209110022,,,
17.5000000000,2,1.0262149572,,,
17.5156250000,2,0.8687438965,,,
17.5312500000,2,0.7679442763,,,
17.5468750000,2,0.7740784287,,,
17.5625000000,2,0.8277282715,,,
17.5781250000,2,0.7810974121,,,
17.5937500000,2,0.5001220703,,,
17.6093750000,2,-0.0229797401,,,
17.6250000000,2,-0.6467589736,,,
17.6406250000,2,-1.1457209587,,,
17.6562500000,2,-1.3495789766,,,
17.6718750000,2,-1.2244570255,,,
17.6875000000,2,-0.8873596191,,,
17.7031250000,2,-0.5158997178,,,
17.7187500000,2,-0.2486571968,,,
17.7343750000,2,-0.1220702976,,,
17.7500000000,2,-0.0787963867,,,
17.7656250000,2,-0.0487670898,,,
17.7812500000,2,-0.0140380897,,,
17.7968750000,2,0.0025634770,,,
17.8125000000,2,-0.0475158691,,,
17.8281250000,2,-0.1655579060,,,
17.8437500000,2,-0.2882690132,,,
17.8593750000,2,-0.3196716011,,,
17.8750000000,2,-0.1948852986,,,
17.8906250000,2,0.0733642578,,,
17.9062500000,2,0.3937987983,,,
17.9218750000,2,0.6236572266,,,
17.9375000000,2,0.6549683213,,,
17.9531250000,2,0.4381104112,,,
17.9687500000,2,0.0034790039,,,
17.9843750000,2,-0.5586243272,,,
18.0000000000,2,-1.1319270134,,,
18.0156250000,2,-1.6049189568,,,
18.0312500000,2,-1.8724370003,,,
18.0468750000,2,-1.8735350370,,,
18.0625000000,2,-1.5954589844,,,
18.0781250000,2,-1.0883179903,,,
18.0937500000,2,-0.4515075982,,,
18.1093750000,2,0.1900330037,,,
18.1250000000,2,0.7186279297,,,
18.1406250000,2,1.0706789494,,,
18.1562500000,2,1.2514950037,,,
18.1718750000,2,1.3371280432,,,
18.1875000000,2,1.3966979980,,,
18.2031250000,2,1.4688420296,,,
18.2187500000,2,1.5413509607,,,
18.2343750000,2,1.5566710234,,,
18.2500000000,2,1.4734499454,,,
18.2656250000,2,1.2960820198,,,
18.2812500000,2,1.0641779900,,,
18.2968750000,2,0.8523560166,,,
18.3125000000,2,0.7132874131,,,
18.3281250000,2,0.6608275771,,,
18.3437500000,2,0.6693726182,,,
18.3593750000,2,0.6994934082,,,
18.3750000000,2,0.7113646865,,,
18.3906250000,2,0.6792603135,,,
18.4062500000,2,0.6034240723,,,
18.4218750000,2,0.5025330186,,,
18.4375000000,2,0.4075928032,,,
18.4531250000,2,0.3405457139,,,
18.4687500000,2,0.3085327148,,,
18.4843750000,2,0.2897644043,,,
18.5000000000,2,0.2473144978,,,
18.5156250000,2,0.1276244968,,,
18.5312500000,2,-0.1054382026,,,
18.5468750000,2,-0.4335632026,,,
18.5625000000,2,-0.7908629775,,,
18.5781250000,2,-1.0755920410,,,
18.5937500000,2,-1.2064210176,,,
18.6093750000,2,-1.1365360022,,,
18.6250000000,2,-0.8977661133,,,
18.6406250000,2,-0.5763245225,,,
18.6562500000,2,-0.2991333008,,,
18.6718750000,2,-0.1729736030,,,
18.6875000000,2,-0.2388610989,,,
18.7031250000,2,-0.4633179009,,,
18.7187500000,2,-0.7212523818,,,
18.7343750000,2,-0.8862305284,,,
18.7500000000,2,-0.8598021865,,,
18.7656250000,2,-0.6400756836,,,
18.7812500000,2,-0.3356322944,,,
18.7968750000,2,-0.1170348972,,,
18.8125000000,2,-0.1289673001,,,
18.8281250000,2,-0.4194945991,,,
18.8437500000,2,-0.9018859863,,,
18.8593750000,2,-1.3926090002,,,
18.8750000000,2,-1.7152400017,,,
18.8906250000,2,-1.7652590275,,,
18.9062500000,2,-1.5813599825,,,
18.9218750000,2,-1.3013000488,,,
18.9375000000,2,-1.0770870447,,,
18.9531250000,2,-0.9768372178,,,
18.9687500000,2,-0.9526978135,,,
18.9843750000,2,-0.8781127930,,,
19.0000000000,2,-0.6224365234,,,
19.0156250000,2,-0.1565247029,,,
19.0312500000,2,0.4159241021,,,
19.0468750000,2,0.9188538194,,,
19.0625000000,2,1.1913150549,,,
19.0781250000,2,1.1781920195,,,
19.0937500000,2,0.9448853135,,,
19.1093750000,2,0.6414489746,,,
19.1250000000,2,0.4146423042,,,
19.1406250000,2,0.3545531929,,,
19.1562500000,2,0.4600220025,,,
19.1718750000,2,0.6643065810,,,
19.1875000000,2,0.8740233779,,,
19.2031250000,2,1.0110470057,,,
19.2187500000,2,1.0483700037,,,
19.2343750000,2,1.0042419434,,,
19.2500000000,2,0.9480895996,,,
19.2656250000,2,0.9619750977,,,
19.2812500000,2,1.1110839844,,,
19.2968750000,2,1.3810729980,,,
19.3125000000,2,1.6989439726,,,
19.3281250000,2,1.9400939941,,,
19.3437500000,2,2.0036931038,,,
19.3593750000,2,1.8811340332,,,
19.3750000000,2,1.6451719999,,,
19.3906250000,2,1.4201970100,,,
19.4062500000,2,1.2932740450,,,
19.4218750000,2,1.2610780001,,,
19.4375000000,2,1.2318730354,,,
19.4531250000,2,1.1035770178,,,
19.4687500000,2,0.8165894151,,,
19.4843750000,2,0.3818970025,,,
19.5000000000,2,-0.1169433966,,,
19.5156250000,2,-0.5977783203,,,
19.5312500000,2,-1.0125429630,,,
19.5468750000,2,-1.3679499626,,,
19.5625000000,2,-1.6756589413,,,
19.5781250000,2,-1.9475400448,,,
19.5937500000,2,-2.1720581055,,,
19.6093750000,2,-2.3143920898,,,
19.6250000000,2,-2.3406069279,,,
19.6406250000,2,-2.2269589901,,,
19.6562500000,2,-1.9762879610,,,
19.6718750000,2,-1.6027530432,,,
19.6875000000,2,-1.1543879509,,,
19.7031250000,2,-0.6889343262,,,
19.7187500000,2,-0.2654114068,,,
19.7343750000,2,0.0768127367,,,
19.7500000000,2,0.3344115913,,,
19.7656250000,2,0.5302733779,,,
19.7812500000,2,0.6974791884,,,
19.7968750000,2,0.8352355957,,,
19.8125000000,2,0.8924561143,,,
19.8281250000,2,0.8113707900,,,
19.8437500000,2,0.5426940918,,,
19.8593750000,2,0.1133728027,,,
19.8750000000,2,-0.3871765137,,,
19.8906250000,2,-0.8321837783,,,
19.9062500000,2,-1.1177059412,,,
19.9218750000,2,-1.2048649788,,,
19.9375000000,2,-1.1382139921,,,
19.9531250000,2,-1.0063480139,,,
19.9687500000,2,-0.9002990723,,,
19.9843750000,2,-0.8566284180,,,
20.0000000000,2,-0.8475341797,,,
20.0156250000,2,-0.8162230849,,,
20.0312500000,2,-0.7153319716,,,
20.0468750000,2,-0.5556030273,,,
20.0625000000,2,-0.3818665147,,,
20.0781250000,2,-0.2530212104,,,
20.0937500000,2,-0.1817321926,,,
20.1093750000,2,-0.1195984036,,,
20.1250000000,2,0.0084533691,,,
20.1406250000,2,0.2518920898,,,
20.1562500000,2,0.6007689834,,,
20.1718750000,2,0.9746093750,,,
20.1875000000,2,1.2747189999,,,
20.2031250000,2,1.4337769747,,,
20.2187500000,2,1.4472659826,,,
20.2343750000,2,1.3624269962,,,
20.2500000000,2,1.2326350212,,,
20.2656250000,2,1.0786130428,,,
20.2812500000,2,0.8959960938,,,
20.2968750000,2,0.6835938096,,,
20.3125000000,2,0.4717406929,,,
20.3281250000,2,0.3220520020,,,
20.3437500000,2,0.2840575874,,,
20.3593750000,2,0.3738403022,,,
20.3750000000,2,0.5458374023,,,
20.3906250000,2,0.7265930176,,,
20.4062500000,2,0.8403931260,,,
20.4218750000,2,0.8669127822,,,
20.4375000000,2,0.8240355849,,,
20.4531250000,2,0.7630919814,,,
20.4687500000,2,0.7184448242,,,
20.4843750000,2,0.7165833116,,,
20.5000000000,2,0.7406311035,,,
20.5156250000,2,0.7590026855,,,
20.5312500000,2,0.7189331055,,,
20.5468750000,2,0.5764464736,,,
20.5625000000,2,0.3116759956,,,
20.5781250000,2,-0.0553283691,,,
20.5937500000,2,-0.4522095025,,,
20.6093750000,2,-0.7826232910,,,
20.6250000000,2,-0.9700927734,,,
20.6406250000,2,-1.0046390295,,,
20.6562500000,2,-0.9215087891,,,
20.6718750000,2,-0.7860717773,,,
20.6875000000,2,-0.6513671875,,,
20.7031250000,2,-0.5416870117,,,
20.7187500000,2,-0.4660339057,,,
20.7343750000,2,-0.4327698052,,,
20.7500000000,2,-0.4649963081,,,
20.7656250000,2,-0.5423889160,,,
20.7812500000,2,-0.6127014160,,,
20.7968750000,2,-0.5872498155,,,
20.8125000000,2,-0.4017333984,,,
20.8281250000,2,-0.0775756836,,,
20.8437500000,2,0.2710875869,,,
20.8593750000,2,0.5035399795,,,
20.8750000000,2,0.5314636230,,,
20.8906250000,2,0.3924561143,,,
20.9062500000,2,0.2186584026,,,
20.9218750000,2,0.1612243950,,,
20.9375000000,2,0.2767944038,,,
20.9531250000,2,0.4813843071,,,
20.9687500000,2,0.5941771865,,,
20.9843750000,2,0.4605103135,,,
21.0000000000,2,0.0370178185,,,
21.0156250000,2,-0.5608826280,,,
21.0312500000,2,-1.1213380098,,,
21.0468750000,2,-1.4472659826,,,
21.0625000000,2,-1.4470520020,,,
21.0781250000,2,-1.1667480469,,,
21.0937500000,2,-0.7441710830,,,
21.1093750000,2,-0.3285827935,,,
21.1250000000,2,-0.0162353497,,,
21.1406250000,2,0.1761168987,,,
21.1562500000,2,0.2698059082,,,
21.1718750000,2,0.2998656929,,,
21.1875000000,2,0.2850342095,,,
21.2031250000,2,0.2281188965,,,
21.2187500000,2,0.1420287937,,,
21.2343750000,2,0.0554504395,,,
21.2500000000,2,-0.0075073242,,,
21.2656250000,2,-0.0169677697,,,
21.2812500000,2,0.0200500507,,,
21.2968750000,2,0.0683593825,,,
21.3125000000,2,0.0780029297,,,
21.3281250000,2,0.0158691406,,,
21.3437500000,2,-0.1308289021,,,
21.3593750000,2,-0.3231200874,,,
21.3750000000,2,-0.4997558892,,,
21.3906250000,2,-0.5925292969,,,
21.4062500000,2,-0.5530396104,,,
21.4218750000,2,-0.3811646104,,,
21.4375000000,2,-0.1384277046,,,
21.4531250000,2,0.0652160570,,,
21.4687500000,2,0.1145934984,,,
21.4843750000,2,-0.0466918908,,,
21.5000000000,2,-0.3805846870,,,
21.5156250000,2,-0.7666320801,,,
21.5312500000,2,-1.0544430017,,,
21.5468750000,2,-1.1622619629,,,
21.5625000000,2,-1.1072390079,,,
21.5781250000,2,-0.9797667861,,,
21.5937500000,2,-0.8780211806,,,
21.6093750000,2,-0.8294066787,,,
21.6250000000,2,-0.7844849229,,,
21.6406250000,2,-0.6383666992,,,
21.6562500000,2,-0.3303833008,,,
21.6718750000,2,0.1131592020,,,
21.6875000000,2,0.5873413086,,,
21.7031250000,2,0.9524840713,,,
21.7187500000,2,1.1257319450,,,
21.7343750000,2,1.1130369902,,,
21.7500000000,2,1.0175169706,,,
21.7656250000,2,0.9505310059,,,
21.7812500000,2,0.9843444824,,,
21.7968750000,2,1.1031190157,,,
21.8125000000,2,1.2092289925,,,
21.8281250000,2,1.1965329647,,,
21.8437500000,2,0.9923095703,,,
21.8593750000,2,0.6256104112,,,
21.8750000000,2,0.1914978027,,,
21.8906250000,2,-0.1652221978,,,
21.9062500000,2,-0.3576050103,,,
21.9218750000,2,-0.3775024116,,,
21.9375000000,2,-0.3116149902,,,
21.9531250000,2,-0.2823180854,,,
21.9687500000,2,-0.3677367866,,,
21.9843750000,2,-0.5584105849,,,
22.0000000000,2,-0.7568665147,,,
22.0156250000,2,-0.8502501845,,,
22.0312500000,2,-0.7672119141,,,
22.0468750000,2,-0.5283812881,,,
22.0625000000,2,-0.2123717964,,,
22.0781250000,2,0.1013488993,,,
22.0937500000,2,0.3584595025,,,
22.1093750000,2,0.5578613281,,,
22.1250000000,2,0.7292479873,,,
22.1406250000,2,0.8999022841,,,
22.1562500000,2,1.0750730038,,,
22.1718750000,2,1.2221070528,,,
22.1875000000,2,1.2839050293,,,
22.2031250000,2,1.1922609806,,,
22.2187500000,2,0.9184874892,,,
22.2343750000,2,0.4695740044,,,
22.2500000000,2,-0.0599670410,,,
22.2656250000,2,-0.5382689834,,,
22.2812500000,2,-0.8399353027,,,
22.2968750000,2,-0.9024962783,,,
22.3125000000,2,-0.7595214844,,,
22.3281250000,2,-0.5129395127,,,
22.3437500000,2,-0.2911072075,,,
22.3593750000,2,-0.1655579060,,,
22.3750000000,2,-0.1441345066,,,
22.3906250000,2,-0.1831360012,,,
22.4062500000,2,-0.2475585938,,,
22.4218750000,2,-0.3333435059,,,
22.4375000000,2,-0.4542236030,,,
22.4531250000,2,-0.5980225205,,,
22.4687500000,2,-0.6849060059,,,
22.4843750000,2,-0.5860291123,,,
22.5000000000,2,-0.1973267049,,,
22.5156250000,2,0.4890747070,,,
22.5312500000,2,1.3297120333,,,
22.5468750000,2,2.0652470589,,,
22.5625000000,2,2.4368290901,,,
22.5781250000,2,2.3120729923,,,
22.5937500000,2,1.7364809513,,,
22.6093750000,2,0.9197692871,,,
22.6250000000,2,0.1327514946,,,
22.6406250000,2,-0.4080199897,,,
22.6562500000,2,-0.6218566895,,,
22.6718750000,2,-0.5567321777,,,
22.6875000000,2,-0.3432312012,,,
22.7031250000,2,-0.1221923977,,,
22.7187500000,2,0.0213622991,,,
22.7343750000,2,0.0438842811,,,
22.7500000000,2,-0.0338745117,,,
22.7656250000,2,-0.1615601033,,,
22.7812500000,2,-0.2699890137,,,
22.7968750000,2,-0.2970581055,,,
22.8125000000,2,-0.2154541016,,,
22.8281250000,2,-0.0570373498,,,
22.8437500000,2,0.0975036621,,,
22.8593750000,2,0.1640625000,,,
22.8750000000,2,0.1001282036,,,
22.8906250000,2,-0.0583190918,,,
22.9062500000,2,-0.2187500000,,,
22.9218750000,2,-0.3137207031,,,
22.9375000000,2,-0.3380737007,,,
22.9531250000,2,-0.3502196968,,,
22.9687500000,2,-0.4134216011,,,
22.9843750000,2,-0.5390625000,,,
23.0000000000,2,-0.6845397949,,,
23.0156250000,2,-0.7789000869,,,
23.0312500000,2,-0.8117675781,,,
23.0468750000,2,-0.8482666016,,,
23.0625000000,2,-0.9892272949,,,
23.0781250000,2,-1.2600100040,,,
23.0937500000,2,-1.5522160530,,,
23.1093750000,2,-1.6689150333,,,
23.1250000000,2,-1.4271550179,,,
23.1406250000,2,-0.8074340820,,,
23.1562500000,2,-0.0040893550,,,
23.1718750000,2,0.6745604873,,,
23.1875000000,2,0.9768981934,,,
23.2031250000,2,0.8360291123,,,
23.2187500000,2,0.4242249131,,,
23.2343750000,2,0.0154113797,,,
23.2500000000,2,-0.1509705037,,,
23.2656250000,2,-0.0095520020,,,
23.2812500000,2,0.3276062012,,,
23.2968750000,2,0.6695557237,,,
23.3125000000,2,0.8498229980,,,
23.3281250000,2,0.8130493164,,,
23.3437500000,2,0.6089171767,,,
23.3593750000,2,0.3414612114,,,
23.3750000000,2,0.0740356371,,,
23.3906250000,2,-0.1628112942,,,
23.4062500000,2,-0.3668822944,,,
23.4218750000,2,-0.5417479873,,,
23.4375000000,2,-0.6684569716,,,
23.4531250000,2,-0.7324218750,,,
23.4687500000,2,-0.7319030762,,,
23.4843750000,2,-0.6964417100,,,
23.5000000000,2,-0.6452025771,,,
23.5156250000,2,-0.5764160156,,,
23.5312500000,2,-0.4437255859,,,
23.5468750000,2,-0.1836242974,,,
23.5625000000,2,0.2382812947,,,
23.5781250000,2,0.7722777724,,,
23.5937500000,2,1.2878719568,,,
23.6093750000,2,1.5974730253,,,
23.6250000000,2,1.5490720272,,,
23.6406250000,2,1.1192020178,,,
23.6562500000,2,0.4532318115,,,
23.6718750000,2,-0.1922606975,,,
23.6875000000,2,-0.5500792861,,,
23.7031250000,2,-0.4990845025,,,
23.7187500000,2,-0.1116638035,,,
23.7343750000,2,0.3678894043,,,
23.7500000000,2,0.6714782715,,,
23.7656250000,2,0.6467896104,,,
23.7812500000,2,0.3385468125,,,
23.7968750000,2,-0.0494079590,,,
23.8125000000,2,-0.2903594971,,,
23.8281250000,2,-0.2522887886,,,
23.8437500000,2,0.0380859412,,,
23.8593750000,2,0.4402466118,,,
23.8750000000,2,-0.3672791123,,,
23.8906250000,2,-0.1878966987,,,
23.9062500000,2,-0.0911865234,,,
23.9218750000,2,-0.1109009013,,,
23.9375000000,2,-0.2132568061,,,
23.9531250000,2,-0.3474273980,,,
23.9687500000,2,-0.5029448867,,,
23.9843750000,2,-0.6968231201,,,
24.0000000000,3,-0.9649506211,,,
24.0156250000,3,-1.2882080078,,,
24.0312500000,3,-1.5633239746,,,
24.0468750000,3,-1.6308439970,,,
24.0625000000,3,-1.3581700325,,,
24.0781250000,3,-0.7210083008,,,
24.0937500000,3,0.1729584038,,,
24.1093750000,3,1.0909270048,,,
24.1250000000,3,1.8005219698,,,
24.1406250000,3,2.1134800911,,,
24.1562500000,3,1.9854580164,,,
24.1718750000,3,1.4823909998,,,
24.1875000000,3,0.7673491836,,,
24.2031250000,3,0.0266418494,,,
24.2187500000,3,-0.5873566270,,,
24.2343750000,3,-0.9746552110,,,
24.2500000000,3,-1.1138149500,,,
24.2656250000,3,-1.0443420410,,,
24.2812500000,3,-0.8193817139,,,
24.2968750000,3,-0.4965363145,,,
24.3125000000,3,-0.1338959038,,,
24.3281250000,3,0.2138366997,,,
24.3437500000,3,0.4830627143,,,
24.3593750000,3,0.6143187881,,,
24.3750000000,3,0.5846405029,,,
24.3906250000,3,0.3993834853,,,
24.4062500000,3,0.1166229025,,,
24.4218750000,3,-0.2079468071,,,
24.4375000000,3,-0.5104370117,,,
24.4531250000,3,-0.7585601807,,,
24.4687500000,3,-0.9369049072,,,
24.4843750000,3,-1.0076899529,,,
24.5000000000,3,-0.9355010986,,,
24.5156250000,3,-0.7092285156,,,
24.5312500000,3,-0.3529663086,,,
24.5468750000,3,0.0638427734,,,
24.5625000000,3,0.4493255913,,,
24.5781250000,3,0.7491149902,,,
24.5937500000,3,0.9566345215,,,
24.6093750000,3,1.0790410042,,,
24.6250000000,3,1.1240689754,,,
24.6406250000,3,1.0611569881,,,
24.6562500000,3,0.8396149278,,,
24.6718750000,3,0.4496459961,,,
24.6875000000,3,-0.0367736816,,,
24.7031250000,3,-0.4789733887,,,
24.7187500000,3,-0.7535095215,,,
24.7343750000,3,-0.8294982910,,,
24.7500000000,3,-0.7876281738,,,
24.7656250000,3,-0.7686768174,,,
24.7812500000,3,-0.8479918838,,,
24.7968750000,3,-0.9924622178,,,
24.8125000000,3,-1.0678559542,,,
24.8281250000,3,-0.9234619141,,,
24.8437500000,3,-0.4995270073,,,
24.8593750000,3,0.1358948052,,,
24.8750000000,3,0.8261870742,,,
24.8906250000,3,1.4021450281,,,
24.9062500000,3,1.7520289421,,,
24.9218750000,3,1.8435970545,,,
24.9375000000,3,1.7115329504,,,
24.9531250000,3,1.4139399529,,,
24.9687500000,3,1.0264739990,,,
24.9843750000,3,0.6258698106,,,
25.0000000000,3,0.2834166884,,,
25.0156250000,3,0.0533294715,,,
25.0312500000,3,-0.0417175293,,,
25.0468750000,3,-0.0359344482,,,
25.0625000000,3,0.0075836182,,,
25.0781250000,3,0.0260925293,,,
25.0937500000,3,-0.0251617394,,,
25.1093750000,3,-0.1675415039,,,
25.1250000000,3,-0.4022674859,,,
25.1406250000,3,-0.7141724229,,,
25.1562500000,3,-1.0632319450,,,
25.1718750000,3,-1.3758540154,,,
25.1875000000,3,-1.5779570341,,,
25.2031250000,3,-1.6047060490,,,
25.2187500000,3,-1.4556119442,,,
25.2343750000,3,-1.2162170410,,,
25.2500000000,3,-1.0353089571,,,
25.2656250000,3,-1.0557099581,,,
25.2812500000,3,-1.3193659782,,,
25.2968750000,3,-1.7273859978,,,
25.3125000000,3,-2.0708310604,,,
25.3281250000,3,-2.1323850155,,,
25.3437500000,3,-1.8043210506,,,
25.3593750000,3,-1.1597440243,,,
25.3750000000,3,-0.4236449897,,,
25.3906250000,3,0.1616363972,,,
25.4062500000,3,0.4543761909,,,
25.4218750000,3,0.4985503852,,,
25.4375000000,3,0.4427795112,,,
25.4531250000,3,0.4347076118,,,
25.4687500000,3,0.5161437988,,,
25.4843750000,3,0.6110991836,,,
25.5000000000,3,0.5881652832,,,
25.5156250000,3,0.3862304986,,,
25.5312500000,3,0.0780639574,,,
25.5468750000,3,-0.1780852973,,,
25.5625000000,3,-0.2045440972,,,
25.5781250000,3,0.0884399414,,,
25.5937500000,3,0.6514739990,,,
25.6093750000,3,1.3347779512,,,
25.6250000000,3,1.9490660429,,,
25.6406250000,3,2.3370211124,,,
25.6562500000,3,2.4362339973,,,
25.6718750000,3,2.2611238956,,,
25.6875000000,3,1.8791960478,,,
25.7031250000,3,1.3635410070,,,
25.7187500000,3,0.7745360732,,,
25.7343750000,3,0.1704102010,,,
25.7500000000,3,-0.3824614882,,,
25.7656250000,3,-0.8033447266,,,
25.7812500000,3,-1.0068819523,,,
25.7968750000,3,-0.9484711289,,,
25.8125000000,3,-0.6704711914,,,
25.8281250000,3,-0.3083344102,,,
25.8437500000,3,-0.0255127009,,,
25.8593750000,3,0.0751190186,,,
25.8750000000,3,0.0050811772,,,
25.8906250000,3,-0.1071320027,,,
25.9062500000,3,-0.1121368036,,,
25.9218750000,3,0.0728912428,,,
25.9375000000,3,0.3851470947,,,
25.9531250000,3,0.6619110107,,,
25.9687500000,3,0.7332000732,,,
25.9843750000,3,0.5372009277,,,
26.0000000000,3,0.1487122029,,,
26.0156250000,3,-0.2657012939,,,
26.0312500000,3,-0.5368651748,,,
26.0468750000,3,-0.5900269151,,,
26.0625000000,3,-0.4632720947,,,
26.0781250000,3,-0.2473907024,,,
26.0937500000,3,-0.0540924110,,,
26.1093750000,3,0.0610046387,,,
26.1250000000,3,0.0879669189,,,
26.1406250000,3,0.0353393592,,,
26.1562500000,3,-0.0834960863,,,
26.1718750000,3,-0.2561950982,,,
26.1875000000,3,-0.4596252143,,,
26.2031250000,3,-0.6394196153,,,
26.2187500000,3,-0.7358245850,,,
26.2343750000,3,-0.6907653809,,,
26.2500000000,3,-0.5014038086,,,
26.2656250000,3,-0.2217254937,,,
26.2812500000,3,0.0653686523,,,
26.2968750000,3,0.2891693115,,,
26.3125000000,3,0.4291382134,,,
26.3281250000,3,0.4908142090,,,
26.3437500000,3,0.4939117134,,,
26.3593750000,3,0.4348601997,,,
26.3750000000,3,0.3023833930,,,
26.3906250000,3,0.1090087965,,,
26.4062500000,3,-0.1029967964,,,
26.4218750000,3,-0.2550201118,,,
26.4375000000,3,-0.2763062119,,,
26.4531250000,3,-0.1390839070,,,
26.4687500000,3,0.1139374003,,,
26.4843750000,3,0.3904724121,,,
26.5000000000,3,0.5975800157,,,
26.5156250000,3,0.6740264893,,,
26.5312500000,3,0.6205139160,,,
26.5468750000,3,0.4921875000,,,
26.5625000000,3,0.3474425972,,,
26.5781250000,3,0.2466125041,,,
26.5937500000,3,0.1970520020,,,
26.6093750000,3,0.1865691990,,,
26.6250000000,3,0.1841887981,,,
26.6406250000,3,0.1615294963,,,
26.6562500000,3,0.1049041972,,,
26.6718750000,3,0.0395202599,,,
26.6875000000,3,0.0061645508,,,
26.7031250000,3,0.0576324500,,,
26.7187500000,3,0.2041625977,,,
26.7343750000,3,0.3986510932,,,
26.7500000000,3,0.5292968750,,,
26.7656250000,3,0.4921112061,,,
26.7812500000,3,0.2211150974,,,
26.7968750000,3,-0.2738646865,,,
26.8125000000,3,-0.9059448242,,,
26.8281250000,3,-1.5606540442,,,
26.8437500000,3,-2.1233670712,,,
26.8593750000,3,-2.5073850155,,,
26.8750000000,3,-2.6596069336,,,
26.8906250000,3,-2.5628809929,,,
26.9062500000,3,-2.2396240234,,,
26.9218750000,3,-1.7475429773,,,
26.9375000000,3,-1.1577910185,,,
26.9531250000,3,-0.5338286757,,,
26.9687500000,3,0.0864257813,,,
26.9843750000,3,0.6702423096,,,
27.0000000000,3,1.1792299747,,,
27.0156250000,3,1.5449520350,,,
27.0312500000,3,1.6913449764,,,
27.0468750000,3,1.5797120333,,,
27.0625000000,3,1.2446440458,,,
27.0781250000,3,0.8042296767,,,
27.0937500000,3,0.4153747857,,,
27.1093750000,3,0.2258300930,,,
27.1250000000,3,0.2912903130,,,
27.1406250000,3,0.5877990723,,,
27.1562500000,3,1.0138089657,,,
27.1718750000,3,1.4474949837,,,
27.1875000000,3,1.7829279900,,,
27.2031250000,3,1.9568630457,,,
27.2187500000,3,1.9431459904,,,
27.2343750000,3,1.7593539953,,,
27.2500000000,3,1.4400939941,,,
27.2656250000,3,1.0482480526,,,
27.2812500000,3,0.6519622803,,,
27.2968750000,3,0.3082732856,,,
27.3125000000,3,0.0541381799,,,
27.3281250000,3,-0.0751342773,,,
27.3437500000,3,-0.0826568604,,,
27.3593750000,3,0.0119628897,,,
27.3750000000,3,0.1360016018,,,
27.3906250000,3,0.1908264011,,,
27.4062500000,3,0.0918426514,,,
27.4218750000,3,-0.1874389946,,,
27.4375000000,3,-0.5873259902,,,
27.4531250000,3,-0.9835968018,,,
27.4687500000,3,-1.2524260283,,,
27.4843750000,3,-1.3368990421,,,
27.5000000000,3,-1.2646030188,,,
27.5156250000,3,-1.1287380457,,,
27.5312500000,3,-1.0143890381,,,
27.5468750000,3,-0.9465332031,,,
27.5625000000,3,-0.8845825195,,,
27.5781250000,3,-0.7527924180,,,
27.5937500000,3,-0.5143889785,,,
27.6093750000,3,-0.1865997016,,,
27.6250000000,3,0.1621856987,,,
27.6406250000,3,0.4747619927,,,
27.6562500000,3,0.7127227783,,,
27.6718750000,3,0.8739166260,,,
27.6875000000,3,0.9493560791,,,
27.7031250000,3,0.9137877822,,,
27.7187500000,3,0.7173920274,,,
27.7343750000,3,0.3326111138,,,
27.7500000000,3,-0.2015227973,,,
27.7656250000,3,-0.7723693848,,,
27.7812500000,3,-1.2041020393,,,
27.7968750000,3,-1.3419950008,,,
27.8125000000,3,-1.1225889921,,,
27.8281250000,3,-0.5909575820,,,
27.8437500000,3,0.0847473070,,,
27.8593750000,3,0.7193909287,,,
27.8750000000,3,1.1482540369,,,
27.8906250000,3,1.3163599968,,,
27.9062500000,3,1.2573239803,,,
27.9218750000,3,1.0757449865,,,
27.9375000000,3,0.8633881211,,,
27.9531250000,3,0.6682434082,,,
27.9687500000,3,0.4795073867,,,
27.9843750000,3,0.2642669976,,,
28.0000000000,3,0.0135650598,,,
28.0156250000,3,-0.2392272949,,,
28.0312500000,3,-0.4266662896,,,
28.0468750000,3,-0.4801788032,,,
28.0625000000,3,-0.3879547119,,,
28.0781250000,3,-0.1862335056,,,
28.0937500000,3,0.0501556396,,,
28.1093750000,3,0.2347564995,,,
28.1250000000,3,0.2939758003,,,
28.1406250000,3,0.2057953030,,,
28.1562500000,3,-0.0125885000,,,
28.1718750000,3,-0.2863770127,,,
28.1875000000,3,-0.5298920274,,,
28.2031250000,3,-0.6667786241,,,
28.2187500000,3,-0.6530303955,,,
28.2343750000,3,-0.5091400146,,,
28.2500000000,3,-0.2861328125,,,
28.2656250000,3,-0.0676574707,,,
28.2812500000,3,0.0846405029,,,
28.2968750000,3,0.1443023980,,,
28.3125000000,3,0.1304779053,,,
28.3281250000,3,0.0905761719,,,
28.3437500000,3,0.0607147217,,,
28.3593750000,3,0.0725708008,,,
28.3750000000,3,0.1183319017,,,
28.3906250000,3,0.1703491062,,,
28.4062500000,3,0.1848450005,,,
28.4218750000,3,0.1368865967,,,
28.4375000000,3,0.0401916504,,,
28.4531250000,3,-0.0576171912,,,
28.4687500000,3,-0.0985260010,,,
28.4843750000,3,-0.0639953613,,,
28.5000000000,3,0.0125427200,,,
28.5156250000,3,0.0558471717,,,
28.5312500000,3,0.0171356201,,,
28.5468750000,3,-0.0722808763,,,
28.5625000000,3,-0.1248169020,,,
28.5781250000,3,-0.0417327918,,,
28.5937500000,3,0.1977234036,,,
28.6093750000,3,0.5323181152,,,
28.6250000000,3,0.8354340196,,,
28.6406250000,3,0.9886168838,,,
28.6562500000,3,0.9342346191,,,
28.6718750000,3,0.7210999131,,,
28.6875000000,3,0.4396666884,,,
28.7031250000,3,0.1628417969,,,
28.7187500000,3,-0.0788726807,,,
28.7343750000,3,-0.3017272949,,,
28.7500000000,3,-0.5197296143,,,
28.7656250000,3,-0.7114716172,,,
28.7812500000,3,-0.8227080703,,,
28.7968750000,3,-0.8136292100,,,
28.8125000000,3,-0.6743927002,,,
28.8281250000,3,-0.4458312988,,,
28.8437500000,3,-0.2070007026,,,
28.8593750000,3,-0.0376892090,,,
28.8750000000,3,0.0159912091,,,
28.8906250000,3,-0.0288391095,,,
28.9062500000,3,-0.0952606201,,,
28.9218750000,3,-0.0851135328,,,
28.9375000000,3,0.0634460375,,,
28.9531250000,3,0.3335723877,,,
28.9687500000,3,0.6287689209,,,
28.9843750000,3,0.8108521104,,,
29.0000000000,3,0.7841948867,,,
29.0156250000,3,0.5393524170,,,
29.0312500000,3,0.1688538045,,,
29.0468750000,3,-0.1843108982,,,
29.0625000000,3,-0.3942719102,,,
29.0781250000,3,-0.4137572944,,,
29.0937500000,3,-0.3135528862,,,
29.1093750000,3,-0.2084656060,,,
29.1250000000,3,-0.1937561035,,,
29.1406250000,3,-0.2662963867,,,
29.1562500000,3,-0.3515014946,,,
29.1718750000,3,-0.3368225098,,,
29.1875000000,3,-0.1803130955,,,
29.2031250000,3,0.0601501502,,,
29.2187500000,3,0.2283020020,,,
29.2343750000,3,0.1739349067,,,
29.2500000000,3,-0.1681824028,,,
29.2656250000,3,-0.6984863281,,,
29.2812500000,3,-1.2065730095,,,
29.2968750000,3,-1.4691009521,,,
29.3125000000,3,-1.3584749699,,,
29.3281250000,3,-0.9158173203,,,
29.3437500000,3,-0.3188019097,,,
29.3593750000,3,0.2127075046,,,
29.3750000000,3,0.5365601182,,,
29.3906250000,3,0.6492003798,,,
29.4062500000,3,0.6409912109,,,
29.4218750000,3,0.6358947754,,,
29.4375000000,3,0.6808624268,,,
29.4531250000,3,0.7356110215,,,
29.4687500000,3,0.7093048096,,,
29.4843750000,3,0.5455170274,,,
29.5000000000,3,0.2900390923,,,
29.5156250000,3,0.0664520264,,,
29.5312500000,3,0.0244140606,,,
29.5468750000,3,0.2244262993,,,
29.5625000000,3,0.6065062881,,,
29.5781250000,3,1.0007630587,,,
29.5937500000,3,1.2288509607,,,
29.6093750000,3,1.2064210176,,,
29.6250000000,3,0.9646149278,,,
29.6406250000,3,0.6388854980,,,
29.6562500000,3,0.3547210991,,,
29.6718750000,3,0.1778869927,,,
29.6875000000,3,0.0893402100,,,
29.7031250000,3,0.0564880408,,,
29.7187500000,3,0.0500488319,,,
29.7343750000,3,0.0806274414,,,
29.7500000000,3,0.1451873928,,,
29.7656250000,3,0.2152100056,,,
29.7812500000,3,0.2313995063,,,
29.7968750000,3,0.1481627971,,,
29.8125000000,3,-0.0173950195,,,
29.8281250000,3,-0.1810912937,,,
29.8437500000,3,-0.2362212986,,,
29.8593750000,3,-0.1438141018,,,
29.8750000000,3,0.0333251990,,,
29.8906250000,3,0.1495818943,,,
29.9062500000,3,0.0536651611,,,
29.9218750000,3,-0.2931976020,,,
29.9375000000,3,-0.8027954102,,,
29.9531250000,3,-1.2747800350,,,
29.9687500000,3,-1.5265350342,,,
29.9843750000,3,-1.4654849768,,,
30.0000000000,3,-1.1392519474,,,
30.0156250000,3,-0.6987152100,,,
30.0312500000,3,-0.3134002984,,,
30.0468750000,3,-0.0746154785,,,
30.0625000000,3,0.0073089600,,,
30.0781250000,3,-0.0110778799,,,
30.0937500000,3,-0.0603027306,,,
30.1093750000,3,-0.1049500033,,,
30.1250000000,3,-0.1575316936,,,
30.1406250000,3,-0.2082214057,,,
30.1562500000,3,-0.2355803996,,,
30.1718750000,3,-0.2063751072,,,
30.1875000000,3,-0.0964660570,,,
30.2031250000,3,0.0699157715,,,
30.2187500000,3,0.2316589057,,,
30.2343750000,3,0.3389587104,,,
30.2500000000,3,0.3838042915,,,
30.2656250000,3,0.4063110054,,,
30.2812500000,3,0.4769287109,,,
30.2968750000,3,0.6189879775,,,
30.3125000000,3,0.8104248047,,,
30.3281250000,3,0.9855499268,,,
30.3437500000,3,1.0954279900,,,
30.3593750000,3,1.1529079676,,,
30.3750000000,3,1.2064210176,,,
30.3906250000,3,1.2939449549,,,
30.4062500000,3,1.3870699406,,,
30.4218750000,3,1.3957979679,,,
30.4375000000,3,1.2066190243,,,
30.4531250000,3,0.7828978896,,,
30.4687500000,3,0.2036437988,,,
30.4843750000,3,-0.3581695855,,,
30.5000000000,3,-0.7306060791,,,
30.5156250000,3,-0.8108673096,,,
30.5312500000,3,-0.6407775879,,,
30.5468750000,3,-0.3513335884,,,
30.5625000000,3,-0.1091919020,,,
30.5781250000,3,-0.0105895996,,,
30.5937500000,3,-0.0597686805,,,
30.6093750000,3,-0.1704712063,,,
30.6250000000,3,-0.2776642144,,,
30.6406250000,3,-0.3423767090,,,
30.6562500000,3,-0.3891907036,,,
30.6718750000,3,-0.4605255127,,,
30.6875000000,3,-0.5581511855,,,
30.7031250000,3,-0.6442565918,,,
30.7187500000,3,-0.6768798828,,,
30.7343750000,3,-0.6514586806,,,
30.7500000000,3,-0.6340941787,,,
30.7656250000,3,-0.7151489258,,,
30.7812500000,3,-0.9313507080,,,
30.7968750000,3,-1.2265319824,,,
30.8125000000,3,-1.4710539579,,,
30.8281250000,3,-1.5298160315,,,
30.8437500000,3,-1.3449250460,,,
30.8593750000,3,-0.9694519043,,,
30.8750000000,3,-0.5251007080,,,
30.8906250000,3,-0.1225432977,,,
30.9062500000,3,0.1828460991,,,
30.9218750000,3,0.4079895020,,,
30.9375000000,3,0.5880280137,,,
30.9531250000,3,0.7434539795,,,
30.9687500000,3,0.8780822754,,,
30.9843750000,3,0.9751281738,,,
31.0000000000,3,1.0333399773,,,
31.0156250000,3,1.0725400448,,,
31.0312500000,3,1.1042939425,,,
31.0468750000,3,1.1161500216,,,
31.0625000000,3,1.0713809729,,,
31.0781250000,3,0.9467772841,,,
31.0937500000,3,0.7518767715,,,
31.1093750000,3,0.5547791123,,,
31.1250000000,3,0.4361419976,,,
31.1406250000,3,0.4617309868,,,
31.1562500000,3,0.6327208877,,,
31.1718750000,3,0.8791503906,,,
31.1875000000,3,-0.1957854927,,,
31.2031250000,3,-0.3629607856,,,
31.2187500000,3,-0.3497313857,,,
31.2343750000,3,-0.1102904975,,,
31.2500000000,3,0.2867125869,,,
31.2656250000,3,0.7131804824,,,
31.2812500000,3,1.0391080379,,,
31.2968750000,3,1.2005310059,,,
31.3125000000,3,1.2076569796,,,
31.3281250000,3,1.1235500574,,,
31.3437500000,3,0.9961243272,,,
31.3593750000,3,0.8637542725,,,
31.3750000000,3,0.7489929199,,,
31.3906250000,3,0.6607819200,,,
31.4062500000,3,0.6046752930,,,
31.4218750000,3,0.5696105957,,,
31.4375000000,3,0.5248718262,,,
31.4531250000,3,0.4383698106,,,
31.4687500000,3,0.2919006050,,,
31.4843750000,3,0.1128235012,,,
31.5000000000,3,-0.0542602502,,,
31.5156250000,3,-0.1549530029,,,
31.5312500000,3,-0.1619109958,,,
31.5468750000,3,-0.1086272970,,,
31.5625000000,3,-0.0672607422,,,
31.5781250000,3,-0.0961151123,,,
31.5937500000,3,-0.1953125000,,,
31.6093750000,3,-0.2974396050,,,
31.6250000000,3,-0.2969818115,,,
31.6406250000,3,-0.1215057001,,,
31.6562500000,3,0.2046813965,,,
31.6718750000,3,0.5586243272,,,
31.6875000000,3,0.7720336914,,,
31.7031250000,3,0.7185668945,,,
31.7187500000,3,0.3643799126,,,
31.7343750000,3,-0.2030639946,,,
31.7500000000,3,-0.8451232910,,,
31.7656250000,3,-1.4157099724,,,
31.7812500000,3,-1.8205260038,,,
31.7968750000,3,-2.0375978947,,,
31.8125000000,3,-2.0809628963,,,
31.8281250000,3,-1.9718170166,,,
31.8437500000,3,-1.7287600040,,,
31.8593750000,3,-1.3775329590,,,
31.8750000000,3,-0.9661406875,,,
31.8906250000,3,-0.5826721191,,,
31.9062500000,3,-0.3289948106,,,
31.9218750000,3,-0.2602233887,,,
31.9375000000,3,-0.3602448106,,,
31.9531250000,3,-0.5165253282,,,
31.9687500000,3,-0.5823975205,,,
31.9843750000,3,-0.4399718940,,,
32.0000000000,4,-0.0857238770,,,
32.0156250000,4,0.3688965142,,,
32.0312500000,4,0.7496796250,,,
32.0468750000,4,0.9081420898,,,
32.0625000000,4,0.8093261719,,,
32.0781250000,4,0.5266724229,,,
32.0937500000,4,0.2068175972,,,
32.1093750000,4,-0.0263061505,,,
32.1250000000,4,-0.1247252971,,,
32.1406250000,4,-0.1078644022,,,
32.1562500000,4,-0.0262908898,,,
32.1718750000,4,0.0993652269,,,
32.1875000000,4,0.2813872993,,,
32.2031250000,4,0.5378875732,,,
32.2187500000,4,0.8358458877,,,
32.2343750000,4,1.0966800451,,,
32.2500000000,4,1.2320560217,,,
32.2656250000,4,1.1976619959,,,
32.2812500000,4,1.0536350012,,,
32.2968750000,4,0.9052277207,,,
32.3125000000,4,0.8570404053,,,
32.3281250000,4,0.9361876845,,,
32.3437500000,4,1.0925749540,,,
32.3593750000,4,1.2270660400,,,
32.3750000000,4,1.2479859591,,,
32.3906250000,4,1.1226960421,,,
32.4062500000,4,0.8746489882,,,
32.4218750000,4,0.5751342773,,,
32.4375000000,4,0.2788391113,,,
32.4531250000,4,0.0106964102,,,
32.4687500000,4,-0.2443695068,,,
32.4843750000,4,-0.5066832900,,,
32.5000000000,4,-0.7717133164,,,
32.5156250000,4,-1.0029909611,,,
32.5312500000,4,-1.1280980110,,,
32.5468750000,4,-1.0933990479,,,
32.5625000000,4,-0.8853911757,,,
32.5781250000,4,-0.5451201797,,,
32.5937500000,4,-0.1680908054,,,
32.6093750000,4,0.1344147027,,,
32.6250000000,4,0.2701416016,,,
32.6406250000,4,0.2190856934,,,
32.6562500000,4,0.0181884803,,,
32.6718750000,4,-0.2317200005,,,
32.6875000000,4,-0.4431458116,,,
32.7031250000,4,-0.5628051758,,,
32.7187500000,4,-0.5979462266,,,
32.7343750000,4,-0.5917053223,,,
32.7500000000,4,-0.5889893174,,,
32.7656250000,4,-0.6279755235,,,
32.7812500000,4,-0.6926270127,,,
32.7968750000,4,-0.7558745742,,,
32.8125000000,4,-0.7685242295,,,
32.8281250000,4,-0.7070770264,,,
32.8437500000,4,-0.5677794814,,,
32.8593750000,4,-0.3761292100,,,
32.8750000000,4,-0.1714783013,,,
32.8906250000,4,0.0041503911,,,
32.9062500000,4,0.1204987019,,,
32.9218750000,4,0.1491851956,,,
32.9375000000,4,0.0830078125,,,
32.9531250000,4,-0.0740661621,,,
32.9687500000,4,-0.2877807915,,,
32.9843750000,4,-0.5017548203,,,
33.0000000000,4,-0.6486815810,,,
33.0156250000,4,-0.6930847168,,,
33.0312500000,4,-0.6233062744,,,
33.0468750000,4,-0.4660645127,,,
33.0625000000,4,-0.2626189888,,,
33.0781250000,4,-0.0527343787,,,
33.0937500000,4,0.1290587932,,,
33.1093750000,4,0.2476654053,,,
33.1250000000,4,0.2790679932,,,
33.1406250000,4,0.2073363960,,,
33.1562500000,4,0.0323791504,,,
33.1718750000,4,-0.2127380073,,,
33.1875000000,4,-0.4839172065,,,
33.2031250000,4,-0.7242736816,,,
33.2187500000,4,-0.9044188857,,,
33.2343750000,4,-1.0030980110,,,
33.2500000000,4,-1.0273129940,,,
33.2656250000,4,-0.9727172852,,,
33.2812500000,4,-0.8162993789,,,
33.2968750000,4,-0.5418549180,,,
33.3125000000,4,-0.1441040039,,,
33.3281250000,4,0.3109894097,,,
33.3437500000,4,0.7179564834,,,
33.3593750000,4,0.9653624892,,,
33.3750000000,4,0.9878540039,,,
33.3906250000,4,0.8168334961,,,
33.4062500000,4,0.5639038086,,,
33.4218750000,4,0.3497008979,,,
33.4375000000,4,0.2549437881,,,
33.4531250000,4,0.2556610107,,,
33.4687500000,4,0.2485352010,,,
33.4843750000,4,0.1307068020,,,
33.5000000000,4,-0.1369019002,,,
33.5156250000,4,-0.4716187119,,,
33.5312500000,4,-0.7175139785,,,
33.5468750000,4,-0.7342529297,,,
33.5625000000,4,-0.4896393120,,,
33.5781250000,4,-0.0960540771,,,
33.5937500000,4,0.2485809028,,,
33.6093750000,4,0.3606415093,,,
33.6250000000,4,0.1853332967,,,
33.6406250000,4,-0.1770019978,,,
33.6562500000,4,-0.5160828233,,,
33.6718750000,4,-0.6567078233,,,
33.6875000000,4,-0.5333861709,,,
33.7031250000,4,-0.2167357951,,,
33.7187500000,4,0.1247863993,,,
33.7343750000,4,0.3481140137,,,
33.7500000000,4,0.3827666938,,,
33.7656250000,4,0.2565917969,,,
33.7812500000,4,0.0500183105,,,
33.7968750000,4,-0.1512451023,,,
33.8125000000,4,-0.2872008979,,,
33.8281250000,4,-0.3257904053,,,
33.8437500000,4,-0.2467194051,,,
33.8593750000,4,-0.0321044885,,,
33.8750000000,4,0.2971039116,,,
33.8906250000,4,0.6787871718,,,
33.9062500000,4,0.9903870225,,,
33.9218750000,4,1.1113740206,,,
33.9375000000,4,0.9904326797,,,
33.9531250000,4,0.6896057129,,,
33.9687500000,4,0.3583526909,,,
33.9843750000,4,0.1643524021,,,
34.0000000000,4,0.1858520955,,,
34.0156250000,4,0.3964690864,,,
34.0312500000,4,0.6737822890,,,
34.0468750000,4,0.8529816270,,,
34.0625000000,4,0.8182526231,,,
34.0781250000,4,0.5367279053,,,
34.0937500000,4,0.0645904467,,,
34.1093750000,4,-0.4987488091,,,
34.1250000000,4,-1.0483089685,,,
34.1406250000,4,-1.5049740076,,,
34.1562500000,4,-1.8074799776,,,
34.1718750000,4,-1.9299620390,,,
34.1875000000,4,-1.8711849451,,,
34.2031250000,4,-1.6501770020,,,
34.2187500000,4,-1.3187710047,,,
34.2343750000,4,-0.9460144043,,,
34.2500000000,4,-0.5998076797,,,
34.2656250000,4,-0.3295746148,,,
34.2812500000,4,-0.1519622952,,,
34.2968750000,4,-0.0470123291,,,
34.3125000000,4,0.0434265099,,,
34.3281250000,4,0.1842651069,,,
34.3437500000,4,0.4273223877,,,
34.3593750000,4,0.7630767822,,,
34.3750000000,4,1.1080780029,,,
34.3906250000,4,1.3304140568,,,
34.4062500000,4,1.3037259579,,,
34.4218750000,4,0.9731749892,,,
34.4375000000,4,0.3755950928,,,
34.4531250000,4,-0.3602448106,,,
34.4687500000,4,-1.0685420036,,,
34.4843750000,4,-1.5843960047,,,
34.5000000000,4,-1.7968750000,,,
34.5156250000,4,-1.6523590088,,,
34.5312500000,4,-1.1719360352,,,
34.5468750000,4,-0.4768066108,,,
34.5625000000,4,0.2352752984,,,
34.5781250000,4,0.7270355225,,,
34.5937500000,4,0.8063353896,,,
34.6093750000,4,0.4312134087,,,
34.6250000000,4,-0.2458954006,,,
34.6406250000,4,-0.9230803847,,,
34.6562500000,4,-1.3037259579,,,
34.6718750000,4,-1.2341309786,,,
34.6875000000,4,-0.7894287109,,,
34.7031250000,4,-0.2151641995,,,
34.7187500000,4,0.2108612061,,,
34.7343750000,4,0.3420867920,,,
34.7500000000,4,0.2192687988,,,
34.7656250000,4,0.0070953369,,,
34.7812500000,4,-0.1185303032,,,
34.7968750000,4,-0.0784149170,,,
34.8125000000,4,0.1018676981,,,
34.8281250000,4,0.3439789116,,,
34.8437500000,4,0.5930480957,,,
34.8593750000,4,0.8524169922,,,
34.8750000000,4,1.1589360237,,,
34.8906250000,4,1.5176240206,,,
34.9062500000,4,1.8676609993,,,
34.9218750000,4,2.0953059196,,,
34.9375000000,4,2.0962829590,,,
34.9531250000,4,1.8402249813,,,
34.9687500000,4,1.3876190186,,,
34.9843750000,4,0.8589019775,,,
35.0000000000,4,0.3752289116,,,
35.0156250000,4,0.0078735352,,,
35.0312500000,4,-0.2440643013,,,
35.0468750000,4,-0.4383086860,,,
35.0625000000,4,-0.6430664063,,,
35.0781250000,4,-0.8864287734,,,
35.0937500000,4,-1.1209720373,,,
35.1093750000,4,-1.2395939827,,,
35.1250000000,4,-1.1352390051,,,
35.1406250000,4,-0.7571868896,,,
35.1562500000,4,-0.1703339070,,,
35.1718750000,4,0.4582062066,,,
35.1875000000,4,0.9335631728,,,
35.2031250000,4,1.1266169548,,,
35.2187500000,4,1.0336610079,,,
35.2343750000,4,0.7853087783,,,
35.2500000000,4,0.5531768799,,,
35.2656250000,4,0.4599303901,,,
35.2812500000,4,0.5030974746,,,
35.2968750000,4,0.5773314834,,,
35.3125000000,4,0.5343170166,,,
35.3281250000,4,0.2960051894,,,
35.3437500000,4,-0.0898895264,,,
35.3593750000,4,-0.4844818115,,,
35.3750000000,4,-0.7315062881,,,
35.3906250000,4,-0.7316741943,,,
35.4062500000,4,-0.5133209229,,,
35.4218750000,4,-0.1940612942,,,
35.4375000000,4,0.0690155029,,,
35.4531250000,4,0.1555633992,,,
35.4687500000,4,0.0352783203,,,
35.4843750000,4,-0.2469788045,,,
35.5000000000,4,-0.6003875732,,,
35.5156250000,4,-0.9446715713,,,
35.5312500000,4,-1.2283020020,,,
35.5468750000,4,-1.4341130257,,,
35.5625000000,4,-1.5410000086,,,
35.5781250000,4,-1.5347750187,,,
35.5937500000,4,-1.3919219971,,,
35.6093750000,4,-1.1132810116,,,
35.6250000000,4,-0.7415313721,,,
35.6406250000,4,-0.3740540147,,,
35.6562500000,4,-0.1338195950,,,
35.6718750000,4,-0.1333007962,,,
35.6875000000,4,-0.4199065864,,,
35.7031250000,4,-0.9441375732,,,
35.7187500000,4,-1.5627900362,,,
35.7343750000,4,-2.0670619011,,,
35.7500000000,4,-2.2598419189,,,
35.7656250000,4,-2.0284879208,,,
35.7812500000,4,-1.3844150305,,,
35.7968750000,4,-0.4680480957,,,
35.8125000000,4,0.4981688857,,,
35.8281250000,4,1.2984770536,,,
35.8437500000,4,1.7994689941,,,
35.8593750000,4,1.9998320341,,,
35.8750000000,4,2.0025019646,,,
35.8906250000,4,1.9743959904,,,
35.9062500000,4,2.0370030403,,,
35.9218750000,4,2.2280879021,,,
35.9375000000,4,2.4596710205,,,
35.9531250000,4,2.5796051025,,,
35.9687500000,4,2.4627230167,,,
35.9843750000,4,2.0809628963,,,
36.0000000000,4,1.5394439697,,,
36.0156250000,4,1.0224000216,,,
36.0312500000,4,0.6972351074,,,
36.0468750000,4,0.6168212891,,,
36.0625000000,4,0.7117156982,,,
36.0781250000,4,0.8356323242,,,
36.0937500000,4,0.8697509766,,,
36.1093750000,4,0.7849730849,,,
36.1250000000,4,0.6281890869,,,
36.1406250000,4,0.4646606147,,,
36.1562500000,4,0.2974700928,,,
36.1718750000,4,0.0808410570,,,
36.1875000000,4,-0.2485657036,,,
36.2031250000,4,-0.6846312881,,,
36.2187500000,4,-1.1290889978,,,
36.2343750000,4,-1.4368900061,,,
36.2500000000,4,-1.4865570068,,,
36.2656250000,4,-1.2759399414,,,
36.2812500000,4,-0.8998259902,,,
36.2968750000,4,-0.5180510879,,,
36.3125000000,4,-0.2515411079,,,
36.3281250000,4,-0.1554718018,,,
36.3437500000,4,-0.2138213962,,,
36.3593750000,4,-0.3774108887,,,
36.3750000000,4,-0.6059569716,,,
36.3906250000,4,-0.8578948975,,,
36.4062500000,4,-1.1063389778,,,
36.4218750000,4,-1.3026889563,,,
36.4375000000,4,-1.4406739473,,,
36.4531250000,4,-1.5349730253,,,
36.4687500000,4,-1.6159670353,,,
36.4843750000,4,-1.6972810030,,,
36.5000000000,4,-1.7562869787,,,
36.5156250000,4,-1.7322850227,,,
36.5312500000,4,-1.5693360567,,,
36.5468750000,4,-1.2563929558,,,
36.5625000000,4,-0.8392333984,,,
36.5781250000,4,-0.4015656114,,,
36.5937500000,4,0.0072937012,,,
36.6093750000,4,0.3851776123,,,
36.6250000000,4,0.7804412842,,,
36.6406250000,4,1.2443239689,,,
36.6562500000,4,1.7466280460,,,
36.6718750000,4,2.1945650578,,,
36.6875000000,4,2.4354400635,,,
36.7031250000,4,2.3547210693,,,
36.7187500000,4,1.9346159697,,,
36.7343750000,4,1.2868039608,,,
36.7500000000,4,0.6031188965,,,
36.7656250000,4,0.0801544189,,,
36.7812500000,4,-0.1555175930,,,
36.7968750000,4,-0.1177826002,,,
36.8125000000,4,0.0932922363,,,
36.8281250000,4,0.3404082954,,,
36.8437500000,4,0.5409545898,,,
36.8593750000,4,0.6989746094,,,
36.8750000000,4,0.8751220703,,,
36.8906250000,4,1.1027070284,,,
36.9062500000,4,1.3295290470,,,
36.9218750000,4,1.4577180147,,,
36.9375000000,4,1.3970949650,,,
36.9531250000,4,1.1543120146,,,
36.9687500000,4,0.8573760986,,,
36.9843750000,4,0.6712188721,,,
37.0000000000,4,0.6708527207,,,
37.0156250000,4,0.7889404297,,,
37.0312500000,4,0.8233336806,,,
37.0468750000,4,0.5863190293,,,
37.0625000000,4,0.0395660400,,,
37.0781250000,4,-0.6504058838,,,
37.0937500000,4,-1.1902309656,,,
37.1093750000,4,-1.3386839628,,,
37.1250000000,4,-1.0525360107,,,
37.1406250000,4,-0.5134429932,,,
37.1562500000,4,-0.0113983201,,,
37.1718750000,4,0.2334289998,,,
37.1875000000,4,0.1870117038,,,
37.2031250000,4,-0.0150909396,,,
37.2187500000,4,-0.2133789063,,,
37.2343750000,4,-0.3319702148,,,
37.2500000000,4,-0.4300689995,,,
37.2656250000,4,-0.6220551133,,,
37.2812500000,4,-0.9704132080,,,
37.2968750000,4,-1.3943630457,,,
37.3125000000,4,-1.7311400175,,,
37.3281250000,4,-1.8280329704,,,
37.3437500000,4,-1.6561889648,,,
37.3593750000,4,-1.3423919678,,,
37.3750000000,4,-1.0840610266,,,
37.3906250000,4,-1.0319370031,,,
37.4062500000,4,-1.1874849796,,,
37.4218750000,4,-1.4111479521,,,
37.4375000000,4,-1.4969179630,,,
37.4531250000,4,-1.3011929989,,,
37.4687500000,4,-0.7802277207,,,
37.4843750000,4,-0.0221404992,,,
37.5000000000,4,0.8022155762,,,
37.5156250000,4,1.5197600126,,,
37.5312500000,4,1.9900510311,,,
37.5468750000,4,2.1397399902,,,
37.5625000000,4,1.9718929529,,,
37.5781250000,4,1.5583800077,,,
37.5937500000,4,1.0032809973,,,
37.6093750000,4,0.4278563857,,,
37.6250000000,4,-0.0626831129,,,
37.6406250000,4,-0.3875885010,,,
37.6562500000,4,-0.5042877197,,,
37.6718750000,4,-0.4151459038,,,
37.6875000000,4,-0.1669006050,,,
37.7031250000,4,0.1600493938,,,
37.7187500000,4,0.4571075141,,,
37.7343750000,4,0.6256713867,,,
37.7500000000,4,0.6208953857,,,
37.7656250000,4,0.4613952935,,,
37.7812500000,4,0.2048645020,,,
37.7968750000,4,-0.0446777306,,,
37.8125000000,4,-0.2129821926,,,
37.8281250000,4,-0.2643738091,,,
37.8437500000,4,-0.2218475044,,,
37.8593750000,4,-0.1137999967,,,
37.8750000000,4,0.0360717811,,,
37.8906250000,4,0.2275085002,,,
37.9062500000,4,0.4455566108,,,
37.9218750000,4,0.6513062119,,,
37.9375000000,4,0.7811890244,,,
37.9531250000,4,0.7724152207,,,
37.9687500000,4,0.6158142090,,,
37.9843750000,4,0.3801270127,,,
38.0000000000,4,0.1611022949,,,
38.0156250000,4,0.0299377404,,,
38.0312500000,4,-0.0095214844,,,
38.0468750000,4,-0.0274047907,,,
38.0625000000,4,-0.1061249003,,,
38.0781250000,4,-0.2752532959,,,
38.0937500000,4,-0.4955750108,,,
38.1093750000,4,-0.7082213759,,,
38.1250000000,4,-0.8751525879,,,
38.1406250000,4,-1.0063929558,,,
38.1562500000,4,-1.1523590088,,,
38.1718750000,4,-1.3426510096,,,
38.1875000000,4,-1.5370329618,,,
38.2031250000,4,-1.6458890438,,,
38.2187500000,4,-1.5709079504,,,
38.2343750000,4,-1.2677760124,,,
38.2500000000,4,-0.7774199843,,,
38.2656250000,4,-0.2024841011,,,
38.2812500000,4,0.3209685981,,,
38.2968750000,4,0.6790009141,,,
38.3125000000,4,0.8261566162,,,
38.3281250000,4,0.7878264785,,,
38.3437500000,4,0.6277924180,,,
38.3593750000,4,0.4079284966,,,
38.3750000000,4,0.1621398926,,,
38.3906250000,4,-0.0913391113,,,
38.4062500000,4,-0.3263396919,,,
38.4218750000,4,-0.4787445068,,,
38.4375000000,4,-0.4499816895,,,
38.4531250000,4,-0.1681976020,,,
38.4687500000,4,0.3496246040,,,
38.4843750000,4,0.9764099121,,,
38.5000000000,4,1.5175319910,,,
38.5156250000,4,0.7536469102,,,
38.5312500000,4,0.5745850205,,,
38.5468750000,4,0.4374083877,,,
38.5625000000,4,0.4370116889,,,
38.5781250000,4,0.5730590820,,,
38.5937500000,4,0.7487946153,,,
38.6093750000,4,0.8397675157,,,
38.6250000000,4,0.7799683213,,,
38.6406250000,4,0.5977783203,,,
38.6562500000,4,0.3876037896,,,
38.6718750000,4,0.2458191067,,,
38.6875000000,4,0.2204589993,,,
38.7031250000,4,0.2771759033,,,
38.7187500000,4,0.3466187119,,,
38.7343750000,4,0.3584747016,,,
38.7500000000,4,0.2727966011,,,
38.7656250000,4,0.0970001221,,,
38.7812500000,4,-0.1298981011,,,
38.7968750000,4,-0.3483582139,,,
38.8125000000,4,-0.4943237007,,,
38.8281250000,4,-0.5261688232,,,
38.8437500000,4,-0.4573059082,,,
38.8593750000,4,-0.3349303901,,,
38.8750000000,4,-0.2282409966,,,
38.8906250000,4,-0.1872252971,,,
38.9062500000,4,-0.2095641941,,,
38.9218750000,4,-0.2504271865,,,
38.9375000000,4,-0.2690581977,,,
38.9531250000,4,-0.2313385010,,,
38.9687500000,4,-0.1336212009,,,
38.9843750000,4,0.0131683303,,,
39.0000000000,4,0.1985321045,,,
39.0156250000,4,0.4065856934,,,
39.0312500000,4,0.6102753282,,,
39.0468750000,4,0.7556458116,,,
39.0625000000,4,0.7848206162,,,
39.0781250000,4,0.6788939834,,,
39.0937500000,4,0.4649657905,,,
39.1093750000,4,0.2098540962,,,
39.1250000000,4,-0.0152282696,,,
39.1406250000,4,-0.1560364068,,,
39.1562500000,4,-0.1953583062,,,
39.1718750000,4,-0.1371612996,,,
39.1875000000,4,-0.0038909910,,,
39.2031250000,4,0.1569671929,,,
39.2187500000,4,0.2806243896,,,
39.2343750000,4,0.2831572890,,,
39.2500000000,4,0.1071930006,,,
39.2656250000,4,-0.2272796929,,,
39.2812500000,4,-0.6336212158,,,
39.2968750000,4,-0.9706726074,,,
39.3125000000,4,-1.1253360510,,,
39.3281250000,4,-1.0413360596,,,
39.3437500000,4,-0.7509766221,,,
39.3593750000,4,-0.3272705078,,,
39.3750000000,4,0.1484680027,,,
39.3906250000,4,0.6225585938,,,
39.4062500000,4,1.0627139807,,,
39.4218750000,4,1.4072879553,,,
39.4375000000,4,1.5789639950,,,
39.4531250000,4,1.5124360323,,,
39.4687500000,4,1.1976319551,,,
39.4843750000,4,0.7068480849,,,
39.5000000000,4,0.1684112996,,,
39.5156250000,4,-0.2668915093,,,
39.5312500000,4,-0.5015410781,,,
39.5468750000,4,-0.5074768066,,,
39.5625000000,4,-0.3401794136,,,
39.5781250000,4,-0.1288757026,,,
39.5937500000,4,-0.0222015399,,,
39.6093750000,4,-0.1290283054,,,
39.6250000000,4,-0.4638366997,,,
39.6406250000,4,-0.9358826280,,,
39.6562500000,4,-1.3799289465,,,
39.6718750000,4,-1.6352390051,,,
39.6875000000,4,-1.6345520020,,,
39.7031250000,4,-1.4561460018,,,
39.7187500000,4,-1.2622220516,,,
39.7343750000,4,-1.2238919735,,,
39.7500000000,4,-1.4040529728,,,
39.7656250000,4,-1.7012790442,,,
39.7812500000,4,-1.9124150276,,,
39.7968750000,4,-1.8440400362,,,
39.8125000000,4,-1.4249730110,,,
39.8281250000,4,-0.7510375977,,,
39.8437500000,4,-0.0204620399,,,
39.8593750000,4,0.5903015137,,,
39.8750000000,4,1.0005799532,,,
39.8906250000,4,1.2357480526,,,
39.9062500000,4,1.3757630587,,,
39.9218750000,4,1.4459689856,,,
39.9375000000,4,1.4026180506,,,
39.9531250000,4,1.1602330208,,,
39.9687500000,4,0.6961975098,,,
39.9843750000,4,0.0968017578,,,
40.0000000000,5,-0.4564361870,,,
40.0156250000,5,-0.7552642822,,,
40.0312500000,5,-0.6954193115,,,
40.0468750000,5,-0.3159790039,,,
40.0625000000,5,0.2129974067,,,
40.0781250000,5,0.6872863770,,,
40.0937500000,5,0.9537811279,,,
40.1093750000,5,0.9758452773,,,
40.1250000000,5,0.8168944716,,,
40.1406250000,5,0.6063231826,,,
40.1562500000,5,0.4528656006,,,
40.1718750000,5,0.4129180908,,,
40.1875000000,5,0.4703063965,,,
40.2031250000,5,0.5469666123,,,
40.2187500000,5,0.5657349229,,,
40.2343750000,5,0.4764556885,,,
40.2500000000,5,0.2940368950,,,
40.2656250000,5,0.0808715820,,,
40.2812500000,5,-0.0775909424,,,
40.2968750000,5,-0.1421660930,,,
40.3125000000,5,-0.1273345947,,,
40.3281250000,5,-0.1029967964,,,
40.3437500000,5,-0.1352691948,,,
40.3593750000,5,-0.2342528999,,,
40.3750000000,5,-0.3291778862,,,
40.3906250000,5,-0.3017883003,,,
40.4062500000,5,-0.0690155029,,,
40.4218750000,5,0.3477019966,,,
40.4375000000,5,0.8070678711,,,
40.4531250000,5,1.1078339815,,,
40.4687500000,5,1.1196750402,,,
40.4843750000,5,0.8377227783,,,
40.5000000000,5,0.4043273926,,,
40.5156250000,5,0.0207519494,,,
40.5312500000,5,-0.1730957031,,,
40.5468750000,5,-0.1849822998,,,
40.5625000000,5,-0.1534423977,,,
40.5781250000,5,-0.2646026909,,,
40.5937500000,5,-0.6289824843,,,
40.6093750000,5,-1.1955410242,,,
40.6250000000,5,-1.7843780518,,,
40.6406250000,5,-2.1654510498,,,
40.6562500000,5,-2.1779329777,,,
40.6718750000,5,-1.8098909855,,,
40.6875000000,5,-1.1869809628,,,
40.7031250000,5,-0.4864197075,,,
40.7187500000,5,0.1375122070,,,
40.7343750000,5,0.6302338243,,,
40.7500000000,5,1.0035710335,,,
40.7656250000,5,1.2977290154,,,
40.7812500000,5,1.5233609676,,,
40.7968750000,5,1.6481319666,,,
40.8125000000,5,1.6347349882,,,
40.8281250000,5,1.4866490364,,,
40.8437500000,5,1.2695920467,,,
40.8593750000,5,1.0898129940,,,
40.8750000000,5,1.0289310217,,,
40.8906250000,5,1.0871889591,,,
40.9062500000,5,1.1904599667,,,
40.9218750000,5,1.2173459530,,,
40.9375000000,5,1.0719300508,,,
40.9531250000,5,0.7476807237,,,
40.9687500000,5,0.3204956055,,,
40.9843750000,5,-0.0858154297,,,
41.0000000000,5,-0.3490295112,,,
41.0156250000,5,-0.4175109863,,,
41.0312500000,5,-0.3174743950,,,
41.0468750000,5,-0.1518097073,,,
41.0625000000,5,-0.0342864990,,,
41.0781250000,5,-0.0453949012,,,
41.0937500000,5,-0.1681976020,,,
41.1093750000,5,-0.2973175049,,,
41.1250000000,5,-0.2813416123,,,
41.1406250000,5,-0.0290832501,,,
41.1562500000,5,0.4397278130,,,
41.1718750000,5,0.9496002197,,,
41.1875000000,5,1.2525939941,,,
41.2031250000,5,1.1690059900,,,
41.2187500000,5,0.6669464111,,,
41.2343750000,5,-0.0689544678,,,
41.2500000000,5,-0.7452545166,,,
41.2656250000,5,-1.1004029512,,,
41.2812500000,5,-1.0320589542,,,
41.2968750000,5,-0.6526184082,,,
41.3125000000,5,-0.1949920952,,,
41.3281250000,5,0.1207427979,,,
41.3437500000,5,0.1962127984,,,
41.3593750000,5,0.0958709717,,,
41.3750000000,5,-0.0290222205,,,
41.3906250000,5,-0.0522766113,,,
41.4062500000,5,0.0599670410,,,
41.4218750000,5,0.2539215088,,,
41.4375000000,5,0.4251250923,,,
41.4531250000,5,0.5048676133,,,
41.4687500000,5,0.4784697890,,,
41.4843750000,5,0.3618468940,,,
41.5000000000,5,0.1813202053,,,
41.5156250000,5,-0.0551147498,,,
41.5312500000,5,-0.3378295898,,,
41.5468750000,5,-0.6412200928,,,
41.5625000000,5,-0.8994750977,,,
41.5781250000,5,-1.0594789982,,,
41.5937500000,5,-1.0977170467,,,
41.6093750000,5,-1.0487060547,,,
41.6250000000,5,-0.9718781114,,,
41.6406250000,5,-0.9247742295,,,
41.6562500000,5,-0.9034423828,,,
41.6718750000,5,-0.8753967285,,,
41.6875000000,5,-0.7946166992,,,
41.7031250000,5,-0.6407166123,,,
41.7187500000,5,-0.4332275093,,,
41.7343750000,5,-0.2015381008,,,
41.7500000000,5,0.0339965783,,,
41.7656250000,5,0.2648926079,,,
41.7812500000,5,0.4633789063,,,
41.7968750000,5,0.5797576904,,,
41.8125000000,5,0.5359802246,,,
41.8281250000,5,0.2888183892,,,
41.8437500000,5,-0.1507873982,,,
41.8593750000,5,-0.6866912842,,,
41.8750000000,5,-1.1892850399,,,
41.8906250000,5,-1.5423740149,,,
41.9062500000,5,-1.7095639706,,,
41.9218750000,5,-1.7110290527,,,
41.9375000000,5,-1.6022950411,,,
41.9531250000,5,-1.4443360567,,,
41.9687500000,5,-1.2696529627,,,
41.9843750000,5,-1.0814059973,,,
42.0000000000,5,-0.8730927110,,,
42.0156250000,5,-0.6175078750,,,
42.0312500000,5,-0.2876282036,,,
42.0468750000,5,0.1193085015,,,
42.0625000000,5,0.5794525146,,,
42.0781250000,5,1.0405429602,,,
42.0937500000,5,1.4097290039,,,
42.1093750000,5,1.6087039709,,,
42.1250000000,5,1.6188960075,,,
42.1406250000,5,1.4642180204,,,
42.1562500000,5,1.2184909582,,,
42.1718750000,5,0.9594573975,,,
42.1875000000,5,0.7267150879,,,
42.2031250000,5,0.5454558730,,,
42.2187500000,5,0.4290770888,,,
42.2343750000,5,0.3906708062,,,
42.2500000000,5,0.4470978081,,,
42.2656250000,5,0.5819854736,,,
42.2812500000,5,0.7455596924,,,
42.2968750000,5,0.8690186143,,,
42.3125000000,5,0.8891602159,,,
42.3281250000,5,0.7903594971,,,
42.3437500000,5,0.5955352783,,,
42.3593750000,5,0.3594512939,,,
42.3750000000,5,0.1307830960,,,
42.3906250000,5,-0.0442199707,,,
42.4062500000,5,-0.1565856934,,,
42.4218750000,5,-0.2027129978,,,
42.4375000000,5,-0.1843719035,,,
42.4531250000,5,-0.1094055027,,,
42.4687500000,5,-0.0035095210,,,
42.4843750000,5,0.1076965034,,,
42.5000000000,5,0.2074584961,,,
42.5156250000,5,0.2861328125,,,
42.5312500000,5,0.3413085938,,,
42.5468750000,5,0.3654632866,,,
42.5625000000,5,0.3262786865,,,
42.5781250000,5,0.2065429986,,,
42.5937500000,5,0.0057678218,,,
42.6093750000,5,-0.2454987019,,,
42.6250000000,5,-0.4832305908,,,
42.6406250000,5,-0.6609038711,,,
42.6562500000,5,-0.7672728896,,,
42.6718750000,5,-0.8146361709,,,
42.6875000000,5,-0.8520203233,,,
42.7031250000,5,-0.9003142715,,,
42.7187500000,5,-0.9475402832,,,
42.7343750000,5,-0.9549254775,,,
42.7500000000,5,-0.8627166748,,,
42.7656250000,5,-0.6501464844,,,
42.7812500000,5,-0.3289642036,,,
42.7968750000,5,0.0595092811,,,
42.8125000000,5,0.4425964057,,,
42.8281250000,5,0.7572479248,,,
42.8437500000,5,0.9213715196,,,
42.8593750000,5,0.8764647841,,,
42.8750000000,5,0.5924835205,,,
42.8906250000,5,0.1185607985,,,
42.9062500000,5,-0.4189453125,,,
42.9218750000,5,-0.8345947266,,,
42.9375000000,5,-0.9603118896,,,
42.9531250000,5,-0.7144774795,,,
42.9687500000,5,-0.1630858928,,,
42.9843750000,5,0.4954833984,,,
43.0000000000,5,1.0138399601,,,
43.0156250000,5,1.2208859921,,,
43.0312500000,5,1.0773769617,,,
43.0468750000,5,0.7080230713,,,
43.0625000000,5,0.2953644097,,,
43.0781250000,5,-0.0075378418,,,
43.0937500000,5,-0.1492156982,,,
43.1093750000,5,-0.1777344048,,,
43.1250000000,5,-0.1748656929,,,
43.1406250000,5,-0.2027435005,,,
43.1562500000,5,-0.2624207139,,,
43.1718750000,5,-0.3117980957,,,
43.1875000000,5,-0.3003540039,,,
43.2031250000,5,-0.2151641995,,,
43.2187500000,5,-0.0786743164,,,
43.2343750000,5,0.0556945801,,,
43.2500000000,5,0.1252899021,,,
43.2656250000,5,0.0809326172,,,
43.2812500000,5,-0.0904083326,,,
43.2968750000,5,-0.3396300972,,,
43.3125000000,5,-0.5798339844,,,
43.3281250000,5,-0.6884918213,,,
43.3437500000,5,-0.5759429932,,,
43.3593750000,5,-0.2301483005,,,
43.3750000000,5,0.2516632080,,,
43.3906250000,5,0.7067412734,,,
43.4062500000,5,0.9832611084,,,
43.4218750000,5,1.0190279484,,,
43.4375000000,5,0.8812561035,,,
43.4531250000,5,0.7169495225,,,
43.4687500000,5,0.6720581055,,,
43.4843750000,5,0.8048859239,,,
43.5000000000,5,1.0406650305,,,
43.5156250000,5,1.2379759550,,,
43.5312500000,5,1.2378389835,,,
43.5468750000,5,0.9977874756,,,
43.5625000000,5,0.5924835205,,,
43.5781250000,5,0.1878204048,,,
43.5937500000,5,-0.0544281006,,,
43.6093750000,5,-0.0605316199,,,
43.6250000000,5,0.1154785007,,,
43.6406250000,5,0.3379974067,,,
43.6562500000,5,0.4725494087,,,
43.6718750000,5,0.4469451904,,,
43.6875000000,5,0.2977904975,,,
43.7031250000,5,0.1238097996,,,
43.7187500000,5,0.0227508508,,,
43.7343750000,5,0.0349273682,,,
43.7500000000,5,0.1320189983,,,
43.7656250000,5,0.2495117038,,,
43.7812500000,5,0.3268890083,,,
43.7968750000,5,0.3485564888,,,
43.8125000000,5,0.3224639893,,,
43.8281250000,5,0.2560882866,,,
43.8437500000,5,0.1342620999,,,
43.8593750000,5,-0.0753936768,,,
43.8750000000,5,-0.3881072998,,,
43.8906250000,5,-0.7875670791,,,
43.9062500000,5,-1.1910550594,,,
43.9218750000,5,-1.5041960478,,,
43.9375000000,5,-1.6388549805,,,
43.9531250000,5,-1.5752869844,,,
43.9687500000,5,-1.3651280403,,,
43.9843750000,5,-1.1040190458,,,
44.0000000000,5,-0.8820952773,,,
44.0156250000,5,-0.7122650146,,,
44.0312500000,5,-0.5492553711,,,
44.0468750000,5,-0.3197937012,,,
44.0625000000,5,-0.0126953097,,,
44.0781250000,5,0.3024750054,,,
44.0937500000,5,0.4937744141,,,
44.1093750000,5,0.4505310059,,,
44.1250000000,5,0.1404723972,,,
44.1406250000,5,-0.3636322021,,,
44.1562500000,5,-0.9175109863,,,
44.1718750000,5,-1.3928990364,,,
44.1875000000,5,-1.7024229765,,,
44.2031250000,5,-1.8098909855,,,
44.2187500000,5,-1.7157900333,,,
44.2343750000,5,-1.4383540154,,,
44.2500000000,5,-1.0229339600,,,
44.2656250000,5,-0.5575562119,,,
44.2812500000,5,-0.1708220989,,,
44.2968750000,5,0.0290069599,,,
44.3125000000,5,0.0003509521,,,
44.3281250000,5,-0.1858977973,,,
44.3437500000,5,-0.3797455132,,,
44.3593750000,5,-0.4481506050,,,
44.3750000000,5,-0.3288115859,,,
44.3906250000,5,-0.0823364332,,,
44.4062500000,5,0.1873627007,,,
44.4218750000,5,0.3867188096,,,
44.4375000000,5,0.5039672852,,,
44.4531250000,5,0.5842437744,,,
44.4687500000,5,0.6848297119,,,
44.4843750000,5,0.8280181885,,,
44.5000000000,5,0.9705352783,,,
44.5156250000,5,1.0470279455,,,
44.5312500000,5,1.0197449923,,,
44.5468750000,5,0.9109343886,,,
44.5625000000,5,0.7825775146,,,
44.5781250000,5,0.7214661241,,,
44.5937500000,5,0.7467803955,,,
44.6093750000,5,0.8098906875,,,
44.6250000000,5,0.8024445176,,,
44.6406250000,5,0.6240081787,,,
44.6562500000,5,0.2448730022,,,
44.6718750000,5,-0.2768706977,,,
44.6875000000,5,-0.7987213135,,,
44.7031250000,5,-1.1674040556,,,
44.7187500000,5,-1.2741700411,,,
44.7343750000,5,-1.0878139734,,,
44.7500000000,5,-0.6706389785,,,
44.7656250000,5,-0.1255646050,,,
44.7812500000,5,0.4205321968,,,
44.7968750000,5,0.8835297227,,,
44.8125000000,5,1.2098540068,,,
44.8281250000,5,1.3714599609,,,
44.8437500000,5,1.3559570313,,,
44.8593750000,5,1.1545259953,,,
44.8750000000,5,0.7696228027,,,
44.8906250000,5,0.2438506931,,,
44.9062500000,5,-0.3534241021,,,
44.9218750000,5,-0.9222565293,,,
44.9375000000,5,-1.3657230139,,,
44.9531250000,5,-1.6453399658,,,
44.9687500000,5,-1.7848969698,,,
44.9843750000,5,-1.8199620247,,,
45.0000000000,5,-1.7910770178,,,
45.0156250000,5,-1.6895899773,,,
45.0312500000,5,-1.4754940271,,,
45.0468750000,5,-1.1139069796,,,
45.0625000000,5,-0.6443328857,,,
45.0781250000,5,-0.1443939060,,,
45.0937500000,5,0.2840270996,,,
45.1093750000,5,0.5886077881,,,
45.1250000000,5,0.7952271104,,,
45.1406250000,5,0.9733886719,,,
45.1562500000,5,1.1881560087,,,
45.1718750000,5,1.4087220430,,,
45.1875000000,5,1.5440520048,,,
45.2031250000,5,1.4761660099,,,
45.2187500000,5,1.1553189754,,,
45.2343750000,5,0.6390076280,,,
45.2500000000,5,0.0527954102,,,
45.2656250000,5,-0.4663085938,,,
45.2812500000,5,-0.8431702256,,,
45.2968750000,5,-1.0590670109,,,
45.3125000000,5,-1.1395870447,,,
45.3281250000,5,-1.1025389433,,,
45.3437500000,5,-0.9501647949,,,
45.3593750000,5,-0.6742095947,,,
45.3750000000,5,-0.3041991889,,,
45.3906250000,5,0.1078796014,,,
45.4062500000,5,0.4840087891,,,
45.4218750000,5,0.7477874756,,,
45.4375000000,5,0.8645172119,,,
45.4531250000,5,0.8321990967,,,
45.4687500000,5,0.6742249131,,,
45.4843750000,5,0.4399872124,,,
45.5000000000,5,0.1958466023,,,
45.5156250000,5,0.0091400146,,,
45.5312500000,5,-0.0682678223,,,
45.5468750000,5,-0.0320739709,,,
45.5625000000,5,0.0613250695,,,
45.5781250000,5,0.1225890964,,,
45.5937500000,5,0.0717315674,,,
45.6093750000,5,-0.1001282036,,,
45.6250000000,5,-0.3184661865,,,
45.6406250000,5,-0.4660491943,,,
45.6562500000,5,-0.4545440972,,,
45.6718750000,5,-0.2863770127,,,
45.6875000000,5,-0.0508422889,,,
45.7031250000,5,0.1337279975,,,
45.7187500000,5,0.1893157959,,,
45.7343750000,5,0.1119536981,,,
45.7500000000,5,-0.0402526893,,,
45.7656250000,5,-0.1943970025,,,
45.7812500000,5,-0.3005065918,,,
45.7968750000,5,-0.3218078911,,,
45.8125000000,5,-0.2363585979,,,
45.8281250000,5,0.9862822890,,,
45.8437500000,5,1.4641720057,,,
45.8593750000,5,1.6811219454,,,
45.8750000000,5,1.5513759851,,,
45.8906250000,5,1.1181490421,,,
45.9062500000,5,0.5550231934,,,
45.9218750000,5,0.0581359901,,,
45.9375000000,5,-0.2342987061,,,
45.9531250000,5,-0.2921142876,,,
45.9687500000,5,-0.1774750054,,,
45.9843750000,5,-0.0035858150,,,
46.0000000000,5,0.1358643025,,,
46.0156250000,5,0.1924591064,,,
46.0312500000,5,0.1738433987,,,
46.0468750000,5,0.1012877971,,,
46.0625000000,5,-0.0196838398,,,
46.0781250000,5,-0.1841125041,,,
46.0937500000,5,-0.3751221001,,,
46.1093750000,5,-0.5234528184,,,
46.1250000000,5,-0.5206604004,,,
46.1406250000,5,-0.2785491943,,,
46.1562500000,5,0.1945343018,,,
46.1718750000,5,0.7531433105,,,
46.1875000000,5,1.1610569954,,,
46.2031250000,5,1.2070159912,,,
46.2187500000,5,0.8490294814,,,
46.2343750000,5,0.2399902046,,,
46.2500000000,5,-0.3309479058,,,
46.2656250000,5,-0.5899506211,,,
46.2812500000,5,-0.4495849907,,,
46.2968750000,5,-0.0554656982,,,
46.3125000000,5,0.2946471870,,,
46.3281250000,5,0.3194580078,,,
46.3437500000,5,-0.0799408033,,,
46.3593750000,5,-0.7648010254,,,
46.3750000000,5,-1.4323430061,,,
46.3906250000,5,-1.7930760384,,,
46.4062500000,5,-1.7133790255,,,
46.4218750000,5,-1.2804410458,,,
46.4375000000,5,-0.7268524170,,,
46.4531250000,5,-0.2972260118,,,
46.4687500000,5,-0.1178741008,,,
46.4843750000,5,-0.1571808010,,,
46.5000000000,5,-0.2628937066,,,
46.5156250000,5,-0.3076629937,,,
46.5312500000,5,-0.2552185059,,,
46.5468750000,5,-0.1721190959,,,
46.5625000000,5,-0.1752472073,,,
46.5781250000,5,-0.3192901909,,,
46.5937500000,5,-0.5273438096,,,
46.6093750000,5,-0.6459044814,,,
46.6250000000,5,-0.5268555284,,,
46.6406250000,5,-0.1461638957,,,
46.6562500000,5,0.3610228896,,,
46.6718750000,5,0.7824860215,,,
46.6875000000,5,0.9410247803,,,
46.7031250000,5,0.7888488770,,,
46.7187500000,5,0.4407348931,,,
46.7343750000,5,0.0839691237,,,
46.7500000000,5,-0.1466522068,,,
46.7656250000,5,-0.2092590034,,,
46.7812500000,5,-0.1659698039,,,
46.7968750000,5,-0.1221313030,,,
46.8125000000,5,-0.1429138035,,,
46.8281250000,5,-0.2265471965,,,
46.8437500000,5,-0.3244171143,,,
46.8593750000,5,-0.3879089057,,,
46.8750000000,5,-0.4035033882,,,
46.8906250000,5,-0.3948974907,,,
46.9062500000,5,-0.3848266900,,,
46.9218750000,5,-0.3846588135,,,
46.9375000000,5,-0.3785400093,,,
46.9531250000,5,-0.3346099854,,,
46.9687500000,5,-0.2530517876,,,
46.9843750000,5,-0.1600951999,,,
47.0000000000,5,-0.1002807990,,,
47.0156250000,5,-0.1209105998,,,
47.0312500000,5,-0.2409972996,,,
47.0468750000,5,-0.4278563857,,,
47.0625000000,5,-0.6062927246,,,
47.0781250000,5,-0.6879271865,,,
47.0937500000,5,-0.5962982178,,,
47.1093750000,5,-0.3043364882,,,
47.1250000000,5,0.1428833008,,,
47.1406250000,5,0.6389160156,,,
47.1562500000,5,1.0487370491,,,
47.1718750000,5,1.2634739876,,,
47.1875000000,5,1.2420350313,,,
47.2031250000,5,1.0139919519,,,
47.2187500000,5,0.6925963759,,,
47.2343750000,5,0.4305419922,,,
47.2500000000,5,0.3461151123,,,
47.2656250000,5,0.4853515923,,,
47.2812500000,5,0.7810515761,,,
47.2968750000,5,1.0982669592,,,
47.3125000000,5,1.2902679443,,,
47.3281250000,5,1.2795870304,,,
47.3437500000,5,1.0937650204,,,
47.3593750000,5,0.8366851807,,,
47.3750000000,5,0.6329345703,,,
47.3906250000,5,0.5372161865,,,
47.4062500000,5,0.5162963867,,,
47.4218750000,5,0.4886626899,,,
47.4375000000,5,0.3594054878,,,
47.4531250000,5,0.1110228971,,,
47.4687500000,5,-0.2296448052,,,
47.4843750000,5,-0.5909423828,,,
47.5000000000,5,-0.9072418213,,,
47.5156250000,5,-1.1240080595,,,
47.5312500000,5,-1.2037049532,,,
47.5468750000,5,-1.1154170036,,,
47.5625000000,5,-0.8507689834,,,
47.5781250000,5,-0.4417572021,,,
47.5937500000,5,0.0177459698,,,
47.6093750000,5,0.4057616889,,,
47.6250000000,5,0.6108093262,,,
47.6406250000,5,0.6099091172,,,
47.6562500000,5,0.4605103135,,,
47.6718750000,5,0.2812804878,,,
47.6875000000,5,0.1710052043,,,
47.7031250000,5,0.1465148926,,,
47.7187500000,5,0.1449737996,,,
47.7343750000,5,0.0806579590,,,
47.7500000000,5,-0.0914154127,,,
47.7656250000,5,-0.3327484131,,,
47.7812500000,5,-0.5451049805,,,
47.7968750000,5,-0.6320037842,,,
47.8125000000,5,-0.5669556260,,,
47.8281250000,5,-0.4124450982,,,
47.8437500000,5,-0.2721557915,,,
47.8593750000,5,-0.2534636855,,,
47.8750000000,5,-0.3699035943,,,
47.8906250000,5,-0.5534667969,,,
47.9062500000,5,-0.6815186143,,,
47.9218750000,5,-0.6434174180,,,
47.9375000000,5,-0.3988800049,,,
47.9531250000,5,0.0194244403,,,
47.9687500000,5,0.5180205703,,,
47.9843750000,5,0.9853516221,,,
48.0000000000,6,1.3266910315,,,
48.0156250000,6,1.4804840088,,,
48.0312500000,6,1.4414060116,,,
48.0468750000,6,1.2381589413,,,
48.0625000000,6,0.9270172119,,,
48.0781250000,6,0.5879669189,,,
48.0937500000,6,0.3011780083,,,
48.1093750000,6,0.1385039985,,,
48.1250000000,6,0.1358948052,,,
48.1406250000,6,0.2729797065,,,
48.1562500000,6,0.4958800972,,,
48.1718750000,6,0.7195891738,,,
48.1875000000,6,0.8714752197,,,
48.2031250000,6,0.8833312988,,,
48.2187500000,6,0.7188720703,,,
48.2343750000,6,0.3811950982,,,
48.2500000000,6,-0.0866088867,,,
48.2656250000,6,-0.5920104980,,,
48.2812500000,6,-1.0244289637,,,
48.2968750000,6,-1.2766720057,,,
48.3125000000,6,-1.3044129610,,,
48.3281250000,6,-1.1436460018,,,
48.3437500000,6,-0.8883972168,,,
48.3593750000,6,-0.6622313857,,,
48.3750000000,6,-0.5602570176,,,
48.3906250000,6,-0.5973206162,,,
48.4062500000,6,-0.6951447129,,,
48.4218750000,6,-0.7500609756,,,
48.4375000000,6,-0.6731110215,,,
48.4531250000,6,-0.4647217095,,,
48.4687500000,6,-0.1984252930,,,
48.4843750000,6,0.0279388409,,,
48.5000000000,6,0.1449127048,,,
48.5156250000,6,0.1447601020,,,
48.5312500000,6,0.0913238525,,,
48.5468750000,6,0.0720520020,,,
48.5625000000,6,0.1300507039,,,
48.5781250000,6,0.2569732964,,,
48.5937500000,6,0.3853302002,,,
48.6093750000,6,0.4235228896,,,
48.6250000000,6,0.3185271919,,,
48.6406250000,6,0.0423736610,,,
48.6562500000,6,-0.3753052056,,,
48.6718750000,6,-0.8776854873,,,
48.6875000000,6,-1.3652950525,,,
48.7031250000,6,-1.7430109978,,,
48.7187500000,6,-1.9190520048,,,
48.7343750000,6,-1.8381650448,,,
48.7500000000,6,-1.5166629553,,,
48.7656250000,6,-1.0358730555,,,
48.7812500000,6,-0.5165863037,,,
48.7968750000,6,-0.0550842285,,,
48.8125000000,6,0.2924804986,,,
48.8281250000,6,0.5314788818,,,
48.8437500000,6,0.6871184707,,,
48.8593750000,6,0.7818450928,,,
48.8750000000,6,0.8062744141,,,
48.8906250000,6,0.7427979112,,,
48.9062500000,6,0.5963134766,,,
48.9218750000,6,0.4026030898,,,
48.9375000000,6,0.2438659966,,,
48.9531250000,6,0.2095032036,,,
48.9687500000,6,0.3528594971,,,
48.9843750000,6,0.6730042100,,,
49.0000000000,6,1.0931550264,,,
49.0156250000,6,1.4745329618,,,
49.0312500000,6,1.6608890295,,,
49.0468750000,6,1.5641629696,,,
49.0625000000,6,1.1899869442,,,
49.0781250000,6,0.6626740098,,,
49.0937500000,6,0.1641846001,,,
49.1093750000,6,-0.1588287055,,,
49.1250000000,6,-0.2652739882,,,
49.1406250000,6,-0.2143860012,,,
49.1562500000,6,-0.1302185059,,,
49.1718750000,6,-0.1167754978,,,
49.1875000000,6,-0.1935576946,,,
49.2031250000,6,-0.3032226861,,,
49.2187500000,6,-0.3619385064,,,
49.2343750000,6,-0.3163757026,,,
49.2500000000,6,-0.1661987007,,,
49.2656250000,6,0.0219726600,,,
49.2812500000,6,0.1624602973,,,
49.2968750000,6,0.1778258979,,,
49.3125000000,6,0.0210418701,,,
49.3281250000,6,-0.2756805122,,,
49.3437500000,6,-0.6130371094,,,
49.3593750000,6,-0.8561859131,,,
49.3750000000,6,-0.8777770996,,,
49.3906250000,6,-0.6302947998,,,
49.4062500000,6,-0.1931152046,,,
49.4218750000,6,0.2540436089,,,
49.4375000000,6,0.5121613145,,,
49.4531250000,6,0.4759368896,,,
49.4687500000,6,0.1892852932,,,
49.4843750000,6,-0.1791992038,,,
49.5000000000,6,-0.4297485054,,,
49.5156250000,6,-0.4451903999,,,
49.5312500000,6,-0.2554625869,,,
49.5468750000,6,0.0084838867,,,
49.5625000000,6,0.1944579929,,,
49.5781250000,6,0.2501677871,,,
49.5937500000,6,0.2166289985,,,
49.6093750000,6,0.1907196045,,,
49.6250000000,6,0.2296600044,,,
49.6406250000,6,0.3177795112,,,
49.6562500000,6,0.3742980957,,,
49.6718750000,6,0.3334656060,,,
49.6875000000,6,0.1818085015,,,
49.7031250000,6,-0.0106048603,,,
49.7187500000,6,-0.1398925930,,,
49.7343750000,6,-0.1318206936,,,
49.7500000000,6,0.0065917969,,,
49.7656250000,6,0.1954192966,,,
49.7812500000,6,0.3232727051,,,
49.7968750000,6,0.3124695122,,,
49.8125000000,6,0.1479033977,,,
49.8281250000,6,-0.1211699992,,,
49.8437500000,6,-0.4010010064,,,
49.8593750000,6,-0.6045380235,,,
49.8750000000,6,-0.6724854112,,,
49.8906250000,6,-0.5834807754,,,
49.9062500000,6,-0.3587341011,,,
49.9218750000,6,-0.0443267785,,,
49.9375000000,6,0.3072052002,,,
49.9531250000,6,0.6499938965,,,
49.9687500000,6,0.9375762939,,,
49.9843750000,6,1.1141970158,,,
50.0000000000,6,1.1106870174,,,
50.0156250000,6,0.8810729980,,,
50.0312500000,6,0.4384002984,,,
50.0468750000,6,-0.1256714016,,,
50.0625000000,6,-0.6650391221,,,
50.0781250000,6,-1.0308070183,,,
50.0937500000,6,-1.1552890539,,,
50.1093750000,6,-1.0701600313,,,
50.1250000000,6,-0.8677672744,,,
50.1406250000,6,-0.6495208740,,,
50.1562500000,6,-0.4624634087,,,
50.1718750000,6,-0.2980651855,,,
50.1875000000,6,-0.1156006008,,,
50.2031250000,6,0.1006926969,,,
50.2187500000,6,0.3169097900,,,
50.2343750000,6,0.4645232856,,,
50.2500000000,6,0.4894714057,,,
50.2656250000,6,0.3946838081,,,
50.2812500000,6,0.2453307956,,,
50.2968750000,6,0.1359710991,,,
50.3125000000,6,0.1295776069,,,
50.3281250000,6,0.2123565972,,,
50.3437500000,6,0.3051452935,,,
50.3593750000,6,0.3305968940,,,
50.3750000000,6,0.2475890964,,,
50.3906250000,6,0.1081084982,,,
50.4062500000,6,-0.0063323970,,,
50.4218750000,6,-0.0408782996,,,
50.4375000000,6,-0.0206756592,,,
50.4531250000,6,-0.0344238319,,,
50.4687500000,6,-0.1664734036,,,
50.4843750000,6,-0.4353789985,,,
50.5000000000,6,-0.7517089844,,,
50.5156250000,6,-0.9790802002,,,
50.5312500000,6,-1.0091860294,,,
50.5468750000,6,-0.8408812881,,,
50.5625000000,6,-0.5756226182,,,
50.5781250000,6,-0.3377380073,,,
50.5937500000,6,-0.1827393025,,,
50.6093750000,6,-0.0686950684,,,
50.6250000000,6,0.1220398024,,,
50.6406250000,6,0.4849090874,,,
50.6562500000,6,1.0330350399,,,
50.6718750000,6,1.6421200037,,,
50.6875000000,6,2.1385350227,,,
50.7031250000,6,2.3657839298,,,
50.7187500000,6,2.2669219971,,,
50.7343750000,6,1.9060820341,,,
50.7500000000,6,1.4260859489,,,
50.7656250000,6,0.9681395888,,,
50.7812500000,6,0.6219481826,,,
50.7968750000,6,0.3977203071,,,
50.8125000000,6,0.2591247857,,,
50.8281250000,6,0.1629485935,,,
50.8437500000,6,0.0910339430,,,
50.8593750000,6,0.0185241699,,,
50.8750000000,6,-0.0944061279,,,
50.8906250000,6,-0.2853546143,,,
50.9062500000,6,-0.5717620850,,,
50.9218750000,6,-0.9155579209,,,
50.9375000000,6,-1.2158969641,,,
50.9531250000,6,-1.3730009794,,,
50.9687500000,6,-1.3277440071,,,
50.9843750000,6,-1.1208339930,,,
51.0000000000,6,-0.8578339219,,,
51.0156250000,6,-0.6484984756,,,
51.0312500000,6,-0.5386809707,,,
51.0468750000,6,-0.4931182861,,,
51.0625000000,6,-0.4439544976,,,
51.0781250000,6,-0.3290404975,,,
51.0937500000,6,-0.1490935981,,,
51.1093750000,6,0.0578918494,,,
51.1250000000,6,0.2432250977,,,
51.1406250000,6,0.3792267144,,,
51.1562500000,6,0.4784088135,,,
51.1718750000,6,0.5532683730,,,
51.1875000000,6,0.6137847900,,,
51.2031250000,6,0.6367645264,,,
51.2187500000,6,0.5967864990,,,
51.2343750000,6,0.4663848877,,,
51.2500000000,6,0.2560577095,,,
51.2656250000,6,0.0086822510,,,
51.2812500000,6,-0.1855164021,,,
51.2968750000,6,-0.2392425984,,,
51.3125000000,6,-0.0935211182,,,
51.3281250000,6,0.2443390042,,,
51.3437500000,6,0.7059630752,,,
51.3593750000,6,1.1742249727,,,
51.3750000000,6,1.5275570154,,,
51.3906250000,6,1.6865539551,,,
51.4062500000,6,1.6281429529,,,
51.4218750000,6,1.3911590576,,,
51.4375000000,6,1.0530240536,,,
51.4531250000,6,0.6936187744,,,
51.4687500000,6,0.3848418891,,,
51.4843750000,6,0.1745299995,,,
51.5000000000,6,0.0835113525,,,
51.5156250000,6,0.0864562988,,,
51.5312500000,6,0.1249084026,,,
51.5468750000,6,0.1107024997,,,
51.5625000000,6,-0.0298919696,,,
51.5781250000,6,-0.3214417100,,,
51.5937500000,6,-0.7319182754,,,
51.6093750000,6,-1.1587220430,,,
51.6250000000,6,-1.4742130041,,,
51.6406250000,6,-1.5696719885,,,
51.6562500000,6,-1.4073489904,,,
51.6718750000,6,-1.0308840275,,,
51.6875000000,6,-0.5759735107,,,
51.7031250000,6,-0.1982116997,,,
51.7187500000,6,-0.0019226070,,,
51.7343750000,6,-0.0108795203,,,
51.7500000000,6,-0.1659087986,,,
51.7656250000,6,-0.3570250869,,,
51.7812500000,6,-0.4717864990,,,
51.7968750000,6,-0.4405060112,,,
51.8125000000,6,-0.2598418891,,,
51.8281250000,6,0.0239410400,,,
51.8437500000,6,0.3131104112,,,
51.8593750000,6,0.4957123101,,,
51.8750000000,6,0.4757690132,,,
51.8906250000,6,0.2193298042,,,
51.9062500000,6,-0.2515717149,,,
51.9218750000,6,-0.8380126953,,,
51.9375000000,6,-1.3965300322,,,
51.9531250000,6,-1.7855379581,,,
51.9687500000,6,-1.9024349451,,,
51.9843750000,6,-1.7297669649,,,
52.0000000000,6,-1.3234250546,,,
52.0156250000,6,-0.8066101074,,,
52.0312500000,6,-0.2911224067,,,
52.0468750000,6,0.1200561970,,,
52.0625000000,6,0.3831177056,,,
52.0781250000,6,0.4948577881,,,
52.0937500000,6,0.4821625054,,,
52.1093750000,6,0.3980560005,,,
52.1250000000,6,0.2995299995,,,
52.1406250000,6,0.2372436970,,,
52.1562500000,6,0.2508240044,,,
52.1718750000,6,0.3677367866,,,
52.1875000000,6,0.5568541884,,,
52.2031250000,6,0.7613831162,,,
52.2187500000,6,0.8759155273,,,
52.2343750000,6,0.8012694716,,,
52.2500000000,6,0.4817504883,,,
52.2656250000,6,-0.0570678711,,,
52.2812500000,6,-0.6958466172,,,
52.2968750000,6,-1.2531590462,,,
52.3125000000,6,-1.5523530245,,,
52.3281250000,6,-1.4700779915,,,
52.3437500000,6,-1.0050660372,,,
52.3593750000,6,-0.2689056098,,,
52.3750000000,6,0.5444489121,,,
52.3906250000,6,1.2290500402,,,
52.4062500000,6,1.6416169405,,,
52.4218750000,6,1.7491300106,,,
52.4375000000,6,1.6154940128,,,
52.4531250000,6,1.3525090218,,,
52.4687500000,6,1.0545649529,,,
52.4843750000,6,0.7559967041,,,
52.5000000000,6,0.4405823052,,,
52.5156250000,6,0.0698394775,,,
52.5312500000,6,-0.3366698921,,,
52.5468750000,6,-0.7126312256,,,
52.5625000000,6,-0.9395598769,,,
52.5781250000,6,-0.9180603027,,,
52.5937500000,6,-0.6353455186,,,
52.6093750000,6,-0.1908417046,,,
52.6250000000,6,0.2501677871,,,
52.6406250000,6,0.5334320068,,,
52.6562500000,6,0.6130065918,,,
52.6718750000,6,0.5558776855,,,
52.6875000000,6,0.5150452256,,,
52.7031250000,6,0.6121520996,,,
52.7187500000,6,0.8547515869,,,
52.7343750000,6,1.1242070198,,,
52.7500000000,6,1.2416379452,,,
52.7656250000,6,1.0922240019,,,
52.7812500000,6,0.6974791884,,,
52.7968750000,6,0.1884460002,,,
52.8125000000,6,-0.2686767876,,,
52.8281250000,6,-0.5831146240,,,
52.8437500000,6,-0.7894135118,,,
52.8593750000,6,-0.9862517715,,,
52.8750000000,6,-1.2369379997,,,
52.8906250000,6,-1.5183559656,,,
52.9062500000,6,-1.7125090361,,,
52.9218750000,6,-1.6969599724,,,
52.9375000000,6,-1.4188079834,,,
52.9531250000,6,-0.9394531250,,,
52.9687500000,6,-0.3957214057,,,
52.9843750000,6,0.0798339769,,,
53.0000000000,6,0.4180755913,,,
53.0156250000,6,0.6280059814,,,
53.0312500000,6,0.7602233887,,,
53.0468750000,6,0.8626403809,,,
53.0625000000,6,0.9413604736,,,
53.0781250000,6,0.9841002822,,,
53.0937500000,6,0.9914093018,,,
53.1093750000,6,0.9916992188,,,
53.1250000000,6,1.0157779455,,,
53.1406250000,6,1.0756679773,,,
53.1562500000,6,1.1272280216,,,
53.1718750000,6,1.0830080509,,,
53.1875000000,6,0.8728790283,,,
53.2031250000,6,1.0169529915,,,
53.2187500000,6,0.6191406250,,,
53.2343750000,6,0.2047424018,,,
53.2500000000,6,-0.1552277058,,,
53.2656250000,6,-0.4177246094,,,
53.2812500000,6,-0.5789794922,,,
53.2968750000,6,-0.6594390869,,,
53.3125000000,6,-0.6956481934,,,
53.3281250000,6,-0.7060546875,,,
53.3437500000,6,-0.6824036241,,,
53.3593750000,6,-0.6136931777,,,
53.3750000000,6,-0.5098114014,,,
53.3906250000,6,-0.4150238037,,,
53.4062500000,6,-0.3831939995,,,
53.4218750000,6,-0.4409179986,,,
53.4375000000,6,-0.5737761855,,,
53.4531250000,6,-0.7117766738,,,
53.4687500000,6,-0.7708129883,,,
53.4843750000,6,-0.7113342285,,,
53.5000000000,6,-0.5632324219,,,
53.5156250000,6,-0.4050140083,,,
53.5312500000,6,-0.3065947890,,,
53.5468750000,6,-0.2830353081,,,
53.5625000000,6,-0.2736968994,,,
53.5781250000,6,-0.1982422024,,,
53.5937500000,6,-0.0124206496,,,
53.6093750000,6,0.2544707954,,,
53.6250000000,6,0.4804688096,,,
53.6406250000,6,0.5252075195,,,
53.6562500000,6,0.2979278862,,,
53.6718750000,6,-0.1754913032,,,
53.6875000000,6,-0.7483062744,,,
53.7031250000,6,-1.2222290039,,,
53.7187500000,6,-1.4441529512,,,
53.7343750000,6,-1.3665009737,,,
53.7500000000,6,-1.0636750460,,,
53.7656250000,6,-0.6772766113,,,
53.7812500000,6,-0.3180694878,,,
53.7968750000,6,-0.0077667241,,,
53.8125000000,6,0.2840729058,,,
53.8281250000,6,0.6110687256,,,
53.8437500000,6,0.9703673720,,,
53.8593750000,6,1.3043819666,,,
53.8750000000,6,1.5271149874,,,
53.8906250000,6,1.5820770264,,,
53.9062500000,6,1.4883879423,,,
53.9218750000,6,1.3329620361,,,
53.9375000000,6,1.2125090361,,,
53.9531250000,6,1.1595920324,,,
53.9687500000,6,1.1138000488,,,
53.9843750000,6,0.9676514268,,,
54.0000000000,6,0.6260681152,,,
54.0156250000,6,0.1053467020,,,
54.0312500000,6,-0.4764862061,,,
54.0468750000,6,-0.9419097900,,,
54.0625000000,6,-1.1563719511,,,
54.0781250000,6,-1.0944819450,,,
54.0937500000,6,-0.8409271240,,,
54.1093750000,6,-0.5242766738,,,
54.1250000000,6,-0.2482604980,,,
54.1406250000,6,-0.0443725586,,,
54.1562500000,6,0.1131896973,,,
54.1718750000,6,0.2567596138,,,
54.1875000000,6,0.4047240913,,,
54.2031250000,6,0.5552672744,,,
54.2187500000,6,0.7101898193,,,
54.2343750000,6,0.8908538818,,,
54.2500000000,6,1.1337130070,,,
54.2656250000,6,1.4224699736,,,
54.2812500000,6,1.6757199764,,,
54.2968750000,6,1.7718509436,,,
54.3125000000,6,1.5915679932,,,
54.3281250000,6,1.1088409424,,,
54.3437500000,6,0.3962096870,,,
54.3593750000,6,-0.3917084038,,,
54.3750000000,6,-1.0937190056,,,
54.3906250000,6,-1.6010129452,,,
54.4062500000,6,-1.8803709745,,,
54.4218750000,6,-1.9634250402,,,
54.4375000000,6,-1.9061739445,,,
54.4531250000,6,-1.7740629911,,,
54.4687500000,6,-1.6269229650,,,
54.4843750000,6,-1.5164790154,,,
54.5000000000,6,-1.4801180363,,,
54.5156250000,6,-1.5103449821,,,
54.5312500000,6,-1.5673370361,,,
54.5468750000,6,-1.5869289637,,,
54.5625000000,6,-1.5153959990,,,
54.5781250000,6,-1.3447569609,,,
54.5937500000,6,-1.1227869987,,,
54.6093750000,6,-0.9175415039,,,
54.6250000000,6,-0.7951508164,,,
54.6406250000,6,-0.7767180800,,,
54.6562500000,6,-0.8364562988,,,
54.6718750000,6,-0.9100952148,,,
54.6875000000,6,-0.9268950820,,,
54.7031250000,6,-0.8486328125,,,
54.7187500000,6,-0.6745300293,,,
54.7343750000,6,-0.4487609863,,,
54.7500000000,6,-0.2196197957,,,
54.7656250000,6,-0.0166778602,,,
54.7812500000,6,0.1842651069,,,
54.7968750000,6,0.4422149956,,,
54.8125000000,6,0.8176574707,,,
54.8281250000,6,1.3170009851,,,
54.8437500000,6,1.8961030245,,,
54.8593750000,6,2.4509739876,,,
54.8750000000,6,2.8632199764,,,
54.8906250000,6,3.0481259823,,,
54.9062500000,6,2.9815220833,,,
54.9218750000,6,2.6992800236,,,
54.9375000000,6,2.2908780575,,,
54.9531250000,6,1.8628230095,,,
54.9687500000,6,1.5155030489,,,
54.9843750000,6,1.3064420223,,,
55.0000000000,6,1.2317500114,,,
55.0156250000,6,1.2146450281,,,
55.0312500000,6,1.1438750029,,,
55.0468750000,6,0.9216156006,,,
55.0625000000,6,0.5514678955,,,
55.0781250000,6,0.1476593018,,,
55.0937500000,6,-0.1240082011,,,
55.1093750000,6,-0.1530303955,,,
55.1250000000,6,0.0117797898,,,
55.1406250000,6,0.1840362996,,,
55.1562500000,6,0.1475982964,,,
55.1718750000,6,-0.1914214939,,,
55.1875000000,6,-0.7364807129,,,
55.2031250000,6,-1.2591090202,,,
55.2187500000,6,-1.5334010124,,,
55.2343750000,6,-1.4681700468,,,
55.2500000000,6,-1.1494749784,,,
55.2656250000,6,-0.7569885254,,,
55.2812500000,6,-0.4519805908,,,
55.2968750000,6,-0.2913818061,,,
55.3125000000,6,-0.2181396037,,,
55.3281250000,6,-0.1601867974,,,
55.3437500000,6,-0.0847930908,,,
55.3593750000,6,-0.0275116004,,,
55.3750000000,6,-0.0431823693,,,
55.3906250000,6,-0.1352234036,,,
55.4062500000,6,-0.2345428020,,,
55.4218750000,6,-0.2378845066,,,
55.4375000000,6,-0.0940399170,,,
55.4531250000,6,0.1588287055,,,
55.4687500000,6,0.3918151855,,,
55.4843750000,6,0.4704284966,,,
55.5000000000,6,0.3510895073,,,
55.5156250000,6,0.0905151367,,,
55.5312500000,6,-0.1829987019,,,
55.5468750000,6,-0.3552246094,,,
55.5625000000,6,-0.3938750923,,,
55.5781250000,6,-0.3717345893,,,
55.5937500000,6,-0.4009247124,,,
55.6093750000,6,-0.5532683730,,,
55.6250000000,6,-0.8208618164,,,
55.6406250000,6,-1.1198270321,,,
55.6562500000,6,-1.3452609777,,,
55.6718750000,6,-1.4214479923,,,
55.6875000000,6,-1.3359529972,,,
55.7031250000,6,-1.1224060059,,,
55.7187500000,6,-0.8265228271,,,
55.7343750000,6,-0.5038452148,,,
55.7500000000,6,-0.1984710991,,,
55.7656250000,6,0.0515136681,,,
55.7812500000,6,0.2090148926,,,
55.7968750000,6,0.2675476074,,,
55.8125000000,6,0.2661285102,,,
55.8281250000,6,0.2748259902,,,
55.8437500000,6,0.3623198867,,,
55.8593750000,6,0.5576630235,,,
55.8750000000,6,0.8180999756,,,
55.8906250000,6,1.0751340389,,,
55.9062500000,6,1.2471009493,,,
55.9218750000,6,1.3052829504,,,
55.9375000000,6,1.2510219812,,,
55.9531250000,6,1.1107330322,,,
55.9687500000,6,0.8964843750,,,
55.9843750000,6,0.6180725098,,,
56.0000000000,7,0.2870331109,,,
56.0156250000,7,-0.0812377930,,,
56.0312500000,7,-0.4593200982,,,
56.0468750000,7,-0.8035430908,,,
56.0625000000,7,-1.0627440214,,,
56.0781250000,7,-1.1718289852,,,
56.0937500000,7,-1.0851440430,,,
56.1093750000,7,-0.7906035781,,,
56.1250000000,7,-0.3394317925,,,
56.1406250000,7,0.1469573975,,,
56.1562500000,7,0.5062255859,,,
56.1718750000,7,0.6235198975,,,
56.1875000000,7,0.4586791992,,,
56.2031250000,7,0.0925903320,,,
56.2187500000,7,-0.3045043945,,,
56.2343750000,7,-0.5701751709,,,
