Time:64Hz,Epoch,Channel 1,Event Id,Event Date,Event Duration
0.0000000000,0,1.6930539608,,,
0.0156250000,0,1.7586669922,,,
0.0312500000,0,1.7639770508,,,
0.0468750000,0,1.5961910486,,,
0.0625000000,0,1.1859740019,,,
0.0781250000,0,0.5858765244,,,
0.0937500000,0,-0.0175170898,,,
0.1093750000,0,-0.4190062881,,,
0.1250000000,0,-0.4971924126,,,
0.1406250000,0,-0.2767333984,,,
0.1562500000,0,0.0887451172,,,
0.1718750000,0,0.4103393853,,,
0.1875000000,0,0.5412598252,,,
0.2031250000,0,0.4547728896,,,
0.2187500000,0,0.2233887017,,,
0.2343750000,0,-0.0518798791,,,
0.2500000000,0,-0.2899169922,,,
0.2656250000,0,-0.4706420898,,,
0.2812500000,0,-0.6041870117,,,
0.2968750000,0,-0.6973876953,,,
0.3125000000,0,-0.7487792969,,,
0.3281250000,0,-0.7548828125,,,
0.3437500000,0,-0.7169188857,,,
0.3593750000,0,-0.6996459961,,,
0.3750000000,0,-0.7734375000,,,
0.3906250000,0,-0.9910277724,,,
0.4062500000,0,-1.3465579748,,,
0.4218750000,0,-1.7625730038,,,
0.4375000000,0,-2.1373898983,,,
0.4531250000,0,-2.3403930664,,,
0.4687500000,0,-2.2937619686,,,
0.4843750000,0,-1.9685670137,,,
0.5000000000,0,-1.4171750546,,,
0.5156250000,0,-0.7444458008,,,
0.5312500000,0,-0.0940551832,,,
0.5468750000,0,0.3991698921,,,
0.5625000000,0,0.6341552734,,,
0.5781250000,0,0.5861206055,,,
0.5937500000,0,0.2918091118,,,
0.6093750000,0,-0.1411132962,,,
0.6250000000,0,-0.5715332031,,,
0.6406250000,0,-0.8782349229,,,
0.6562500000,0,-0.9869384766,,,
0.6718750000,0,-0.8919066787,,,
0.6875000000,0,-0.6419066787,,,
0.7031250000,0,-0.3088988960,,,
0.7187500000,0,0.0623168908,,,
0.7343750000,0,0.4577026069,,,
0.7500000000,0,0.8782349229,,,
0.7656250000,0,1.2993769646,,,
0.7812500000,0,1.6932979822,,,
0.7968750000,0,2.0105590820,,,
0.8125000000,0,2.2382199764,,,
0.8281250000,0,2.3908689022,,,
0.8437500000,0,2.5278320313,,,
0.8593750000,0,2.6962890625,,,
0.8750000000,0,2.8590090275,,,
0.8906250000,0,2.9230959415,,,
0.9062500000,0,2.7803959846,,,
0.9218750000,0,2.3748779297,,,
0.9375000000,0,1.7510379553,,,
0.9531250000,0,1.0367430449,,,
0.9687500000,0,0.3591918945,,,
0.9843750000,0,-0.2285155952,,,
1.0000000000,0,-0.7417603135,,,
1.0156250000,0,-1.2200930119,,,
1.0312500000,0,-1.6453859806,,,
1.0468750000,0,-1.9558110237,,,
1.0625000000,0,-2.0726931095,,,
1.0781250000,0,-1.9636230469,,,
1.0937500000,0,-1.6995240450,,,
1.1093750000,0,-1.3934940100,,,
1.1250000000,0,-1.1586300135,,,
1.1406250000,0,-1.0278320313,,,
1.1562500000,0,-0.9817504883,,,
1.1718750000,0,-0.9511718750,,,
1.1875000000,0,-0.8956909180,,,
1.2031250000,0,-0.7926024795,,,
1.2187500000,0,-0.6586303711,,,
1.2343750000,0,-0.5065917969,,,
1.2500000000,0,-0.3317871094,,,
1.2656250000,0,-0.1369019002,,,
1.2812500000,0,0.0635375977,,,
1.2968750000,0,0.2526854873,,,
1.3125000000,0,0.4345703125,,,
1.3281250000,0,0.6191406250,,,
1.3437500000,0,0.8231201172,,,
1.3593750000,0,1.0478520393,,,
1.3750000000,0,1.2315670252,,,
1.3906250000,0,1.3074949980,,,
1.4062500000,0,1.2514040470,,,
1.4218750000,0,1.1402590275,,,
1.4375000000,0,1.0756839514,,,
1.4531250000,0,1.1580200195,,,
1.4687500000,0,1.3854980469,,,
1.4843750000,0,1.6413569450,,,
1.5000000000,0,1.7871090174,,,
1.5156250000,0,1.7510989904,,,
1.5312500000,0,1.5950930119,,,
1.5468750000,0,1.4226679802,,,
1.5625000000,0,1.2671509981,,,
1.5781250000,0,1.0417480469,,,
1.5937500000,0,0.5984497070,,,
1.6093750000,0,-0.1351318061,,,
1.6250000000,0,-1.0372309685,,,
1.6406250000,0,-1.8148189783,,,
1.6562500000,0,-2.1771240234,,,
1.6718750000,0,-2.0255739689,,,
1.6875000000,0,-1.5225219727,,,
1.7031250000,0,-0.9916381836,,,
1.7187500000,0,-0.7286376953,,,
1.7343750000,0,-0.8232421875,,,
1.7500000000,0,-1.1219480038,,,
1.7656250000,0,-1.3562619686,,,
1.7812500000,0,-1.3200680017,,,
1.7968750000,0,-0.9790648818,,,
1.8125000000,0,-0.4745483100,,,
1.8281250000,0,-0.0187988300,,,
1.8437500000,0,0.2286376953,,,
1.8593750000,0,0.2413329929,,,
1.8750000000,0,0.1012573019,,,
1.8906250000,0,-0.0361938514,,,
1.9062500000,0,-0.0422973596,,,
1.9218750000,0,0.1467285007,,,
1.9375000000,0,0.4533691108,,,
1.9531250000,0,0.7191771865,,,
1.9687500000,0,0.7855834961,,,
1.9843750000,0,0.6060791016,,,
2.0000000000,0,0.2644042969,,,
2.0156250000,0,-0.0427856408,,,
2.0312500000,0,-0.1107788011,,,
2.0468750000,0,0.1569214016,,,
2.0625000000,0,0.7142943740,,,
2.0781250000,0,1.4165649414,,,
2.0937500000,0,2.0911870003,,,
2.1093750000,0,2.5906369686,,,
2.1250000000,0,2.8164060116,,,
2.1406250000,0,2.7169799805,,,
2.1562500000,0,2.2846069336,,,
2.1718750000,0,1.5928959846,,,
2.1875000000,0,0.8151245117,,,
2.2031250000,0,0.1849976033,,,
2.2187500000,0,-0.0827636719,,,
2.2343750000,0,0.0770874023,,,
2.2500000000,0,0.5371093750,,,
2.2656250000,0,1.0056760311,,,
2.2812500000,0,1.1698000431,,,
2.2968750000,0,0.8616333008,,,
2.3125000000,0,0.1262816936,,,
2.3281250000,0,-0.8159180284,,,
2.3437500000,0,-1.6681519747,,,
2.3593750000,0,-2.2138059139,,,
2.3750000000,0,-2.3913569450,,,
2.3906250000,0,-2.2707519531,,,
2.4062500000,0,-1.9921879768,,,
2.4218750000,0,-1.6877440214,,,
2.4375000000,0,-1.4174799919,,,
2.4531250000,0,-1.1710209846,,,
2.4687500000,0,-0.9191284180,,,
2.4843750000,0,-0.6403809190,,,
2.5000000000,0,-0.3756104112,,,
2.5156250000,0,-0.1826172024,,,
2.5312500000,0,-0.0963134766,,,
2.5468750000,0,-0.0881347731,,,
2.5625000000,0,-0.0897827074,,,
2.5781250000,0,-0.0165405292,,,
2.5937500000,0,0.1646728963,,,
2.6093750000,0,0.3900145888,,,
2.6250000000,0,0.5339354873,,,
2.6406250000,0,0.5001220703,,,
2.6562500000,0,0.2647095025,,,
2.6718750000,0,-0.0930786133,,,
2.6875000000,0,-0.4721679986,,,
2.7031250000,0,-0.7940673828,,,
2.7187500000,0,-1.0202029943,,,
2.7343750000,0,-1.1405030489,,,
2.7500000000,0,-1.1260379553,,,
2.7656250000,0,-0.9715576172,,,
2.7812500000,0,-0.7042235732,,,
2.7968750000,0,-0.4513550103,,,
2.8125000000,0,-0.3768311143,,,
2.8281250000,0,-0.5981444716,,,
2.8437500000,0,-1.0488280058,,,
2.8593750000,0,-1.4922490120,,,
2.8750000000,0,-1.6705930233,,,
2.8906250000,0,-1.4959720373,,,
2.9062500000,0,-1.1353759766,,,
2.9218750000,0,-0.9304810166,,,
2.9375000000,0,-1.1596679688,,,
2.9531250000,0,-1.8081049919,,,
2.9687500000,0,-2.5577390194,,,
2.9843750000,0,-2.9338378906,,,
3.0000000000,0,-2.6157228947,,,
3.0156250000,0,-1.6277470589,,,
3.0312500000,0,-0.3330687881,,,
3.0468750000,0,0.8145751953,,,
3.0625000000,0,1.4804079533,,,
3.0781250000,0,1.6398320198,,,
3.0937500000,0,1.5156860352,,,
3.1093750000,0,1.4197390079,,,
3.1250000000,0,1.5085450411,,,
3.1406250000,0,1.7743530273,,,
3.1562500000,0,2.0358281136,,,
3.1718750000,0,2.1127929688,,,
3.1875000000,0,1.9318850040,,,
3.2031250000,0,1.5610350370,,,
3.2187500000,0,1.1301879883,,,
3.2343750000,0,0.7568969727,,,
3.2500000000,0,0.4647827148,,,
3.2656250000,0,0.1713867038,,,
3.2812500000,0,-0.1737060994,,,
3.2968750000,0,-0.5804442763,,,
3.3125000000,0,-0.9454345703,,,
3.3281250000,0,-1.1212160587,,,
3.3437500000,0,-0.9751586914,,,
3.3593750000,0,-0.4848633111,,,
3.3750000000,0,0.2704468071,,,
3.3906250000,0,1.0911870003,,,
3.4062500000,0,1.7836300135,,,
3.4218750000,0,2.1879880428,,,
3.4375000000,0,2.2267460823,,,
3.4531250000,0,1.9320679903,,,
3.4687500000,0,1.4370729923,,,
3.4843750000,0,0.9196776748,,,
3.5000000000,0,0.5332031250,,,
3.5156250000,0,0.3481445014,,,
3.5312500000,0,0.3239136040,,,
3.5468750000,0,0.3252562881,,,
3.5625000000,0,0.2164916992,,,
3.5781250000,0,-0.0545654297,,,
3.5937500000,0,-0.4243774116,,,
3.6093750000,0,-0.7266234756,,,
3.6250000000,0,-0.8285521865,,,
3.6406250000,0,-0.6672363281,,,
3.6562500000,0,-0.2886962891,,,
3.6718750000,0,0.2038574070,,,
3.6875000000,0,0.7013549805,,,
3.7031250000,0,1.1671750546,,,
3.7187500000,0,1.5820920467,,,
3.7343750000,0,1.9766850471,,,
3.7500000000,0,2.3496088982,,,
3.7656250000,0,2.6828610897,,,
3.7812500000,0,2.9341430664,,,
3.7968750000,0,3.0536499023,,,
3.8125000000,0,2.9823000431,,,
3.8281250000,0,2.6623539925,,,
3.8437500000,0,2.0778810978,,,
3.8593750000,0,1.2661130428,,,
3.8750000000,0,0.3659057915,,,
3.8906250000,0,-0.4508666992,,,
3.9062500000,0,-0.9794921875,,,
3.9218750000,0,-1.0916140079,,,
3.9375000000,0,-0.7838745117,,,
3.9531250000,0,-0.1915894002,,,
3.9687500000,0,0.4653320014,,,
3.9843750000,0,0.9547728896,,,
4.0000000000,0,1.1010739803,,,
4.0156250000,0,0.8253784180,,,
4.0312500000,0,0.1591797024,,,
4.0468750000,0,-0.7594603896,,,
4.0625000000,0,-1.7354739904,,,
4.0781250000,0,-2.5794680119,,,
4.0937500000,0,-3.1473391056,,,
4.1093750000,0,-3.4138789177,,,
4.1250000000,0,-3.4224851131,,,
4.1406250000,0,-3.2562260628,,,
4.1562500000,0,-2.9904170036,,,
4.1718750000,0,-2.6646730900,,,
4.1875000000,0,-2.3084719181,,,
4.2031250000,0,-1.9258420467,,,
4.2187500000,0,-1.5402829647,,,
4.2343750000,0,-1.1378170252,,,
4.2500000000,0,-0.7117919922,,,
4.2656250000,0,-0.2365112007,,,
4.2812500000,0,0.2810058892,,,
4.2968750000,0,0.7789916992,,,
4.3125000000,0,1.1522829533,,,
4.3281250000,0,1.3172609806,,,
4.3437500000,0,1.2656250000,,,
4.3593750000,0,1.1025999784,,,
4.3750000000,0,0.9962158203,,,
4.3906250000,0,1.0507199764,,,
4.4062500000,0,1.2629389763,,,
4.4218750000,0,1.5046390295,,,
4.4375000000,0,1.6168210506,,,
4.4531250000,0,1.5228270292,,,
4.4687500000,0,1.2622679472,,,
4.4843750000,0,0.9490355849,,,
4.5000000000,0,0.6864014268,,,
4.5156250000,0,0.5133057237,,,
4.5312500000,0,0.4005737007,,,
4.5468750000,0,0.3344115913,,,
4.5625000000,0,0.3117676079,,,
4.5781250000,0,0.3204956055,,,
4.5937500000,0,0.3511962891,,,
4.6093750000,0,0.3249512017,,,
4.6250000000,0,0.1732178032,,,
4.6406250000,0,-0.1264037937,,,
4.6562500000,0,-0.4956665039,,,
4.6718750000,0,-0.7843627930,,,
4.6875000000,0,-0.8694458008,,,
4.7031250000,0,-0.7288208008,,,
4.7187500000,0,-0.4826050103,,,
4.7343750000,0,-0.2982178032,,,
4.7500000000,0,-0.3084106147,,,
4.7656250000,0,-0.5103148818,,,
4.7812500000,0,-0.7813720703,,,
4.7968750000,0,-0.9163208008,,,
4.8125000000,0,-0.7938842773,,,
4.8281250000,0,-0.4061889946,,,
4.8437500000,0,0.1046753004,,,
4.8593750000,0,0.5441284180,,,
4.8750000000,0,0.7318726182,,,
4.8906250000,0,0.6065673828,,,
4.9062500000,0,0.2401123047,,,
4.9218750000,0,-0.2036743015,,,
4.9375000000,0,-0.5458983779,,,
4.9531250000,0,-0.6658325195,,,
4.9687500000,0,-0.5445557237,,,
4.9843750000,0,-0.2266846001,,,
5.0000000000,0,0.1643065959,,,
5.0156250000,0,0.5133057237,,,
5.0312500000,0,0.7086791992,,,
5.0468750000,0,0.6954345703,,,
5.0625000000,0,0.4782103896,,,
5.0781250000,0,0.1381226033,,,
5.0937500000,0,-0.1934814006,,,
5.1093750000,0,-0.4022827148,,,
5.1250000000,0,-0.4356079102,,,
5.1406250000,0,-0.3494873047,,,
5.1562500000,0,-0.2715454102,,,
5.1718750000,0,-0.3265990913,,,
5.1875000000,0,-0.5465087891,,,
5.2031250000,0,-0.8572998047,,,
5.2187500000,0,-1.0940550566,,,
5.2343750000,0,-1.0945429802,,,
5.2500000000,0,-0.7772827148,,,
5.2656250000,0,-0.2087402046,,,
5.2812500000,0,0.4495238960,,,
5.2968750000,0,1.0129389763,,,
5.3125000000,0,1.3425899744,,,
5.3281250000,0,1.4129639864,,,
5.3437500000,0,1.2819819450,,,
5.3593750000,0,1.0625610352,,,
5.3750000000,0,0.8247681260,,,
5.3906250000,0,0.5974121094,,,
5.4062500000,0,0.3749389946,,,
5.4218750000,0,0.1449584961,,,
5.4375000000,0,-0.0601196289,,,
5.4531250000,0,-0.1756591946,,,
5.4687500000,0,-0.1552124023,,,
5.4843750000,0,0.0175170898,,,
5.5000000000,0,0.2821654975,,,
5.5156250000,0,0.5523682237,,,
5.5312500000,0,0.7584838867,,,
5.5468750000,0,0.8750609756,,,
5.5625000000,0,0.9136962891,,,
5.5781250000,0,0.8808593750,,,
5.5937500000,0,0.7685546875,,,
5.6093750000,0,0.5447388291,,,
5.6250000000,0,0.1776732951,,,
5.6406250000,0,-0.3079223931,,,
5.6562500000,0,-0.8478394151,,,
5.6718750000,0,-1.3467409611,,,
5.6875000000,0,-1.7501219511,,,
5.7031250000,0,-2.0668950081,,,
5.7187500000,0,-2.3521120548,,,
5.7343750000,0,-2.6484990120,,,
5.7500000000,0,-2.9184570313,,,
5.7656250000,0,-3.0825200081,,,
5.7812500000,0,-3.0036010742,,,
5.7968750000,0,-2.6151120663,,,
5.8125000000,0,-1.9505620003,,,
5.8281250000,0,-1.1442259550,,,
5.8437500000,0,-0.3617554009,,,
5.8593750000,0,0.2523804009,,,
5.8750000000,0,0.6356201172,,,
5.8906250000,0,0.8070067763,,,
5.9062500000,0,0.8452147841,,,
5.9218750000,0,0.8145751953,,,
5.9375000000,0,0.7618408203,,,
5.9531250000,0,0.6918334961,,,
5.9687500000,0,0.5740966797,,,
5.9843750000,0,0.3989258111,,,
6.0000000000,0,0.1691284031,,,
6.0156250000,0,-0.0629272535,,,
6.0312500000,0,-0.2341309041,,,
6.0468750000,0,-0.2965697944,,,
6.0625000000,0,-0.2344360054,,,
6.0781250000,0,-0.1047362983,,,
6.0937500000,0,0.0261230506,,,
6.1093750000,0,0.1215820014,,,
6.1250000000,0,0.2265625000,,,
6.1406250000,0,0.4101563096,,,
6.1562500000,0,0.7207642198,,,
6.1718750000,0,1.1418459415,,,
6.1875000000,0,1.5591429472,,,
6.2031250000,0,1.8638919592,,,
6.2187500000,0,2.0064699650,,,
6.2343750000,0,2.0219728947,,,
6.2500000000,0,1.9761350155,,,
6.2656250000,0,1.8692630529,,,
6.2812500000,0,1.6290889978,,,
6.2968750000,0,1.1422729492,,,
6.3125000000,0,0.3764648139,,,
6.3281250000,0,-0.5609741211,,,
6.3437500000,0,-1.4273680449,,,
6.3593750000,0,-1.9783329964,,,
6.3750000000,0,-2.0999150276,,,
6.3906250000,0,-1.8718869686,,,
6.4062500000,0,-1.5133670568,,,
6.4218750000,0,-1.2444460392,,,
6.4375000000,0,-1.1292719841,,,
6.4531250000,0,-1.0524289608,,,
6.4687500000,0,-0.8151245117,,,
6.4843750000,0,-0.2670288086,,,
6.5000000000,0,0.5860595703,,,
6.5156250000,0,1.5374759436,,,
6.5312500000,0,2.3135991096,,,
6.5468750000,0,2.6877439022,,,
6.5625000000,0,2.6008911133,,,
6.5781250000,0,2.1848139763,,,
6.5937500000,0,1.6832890511,,,
6.6093750000,0,1.3161009550,,,
6.6250000000,0,1.1908570528,,,
6.6406250000,0,1.2190550566,,,
6.6562500000,0,1.1979370117,,,
6.6718750000,0,0.9151000977,,,
6.6875000000,0,0.2954711914,,,
6.7031250000,0,-0.5770264268,,,
6.7187500000,0,-1.4631960392,,,
6.7343750000,0,-2.0830080509,,,
6.7500000000,0,-2.2366940975,,,
6.7656250000,0,-1.8533940315,,,
6.7812500000,0,-1.0203859806,,,
6.7968750000,0,0.0617675819,,,
6.8125000000,0,1.1411130428,,,
6.8281250000,0,1.9813230038,,,
6.8437500000,0,2.4001460075,,,
6.8593750000,0,2.3532710075,,,
6.8750000000,0,1.9383540154,,,
6.8906250000,0,1.3833010197,,,
6.9062500000,0,0.9319458008,,,
6.9218750000,0,0.7216796875,,,
6.9375000000,0,0.7121582031,,,
6.9531250000,0,0.7088623047,,,
6.9687500000,0,0.4715575874,,,
6.9843750000,0,-0.1148682013,,,
7.0000000000,0,-0.9534301758,,,
7.0156250000,0,-1.7729489803,,,
7.0312500000,0,-2.2572019100,,,
7.0468750000,0,-2.2353520393,,,
7.0625000000,0,-1.7378540039,,,
7.0781250000,0,-1.0009160042,,,
7.0937500000,0,-0.3203735054,,,
7.1093750000,0,0.0808105469,,,
7.1250000000,0,0.1598511040,,,
7.1406250000,0,0.0205078106,,,
7.1562500000,0,-0.1389770955,,,
7.1718750000,0,-0.1800536960,,,
7.1875000000,0,-0.0230102502,,,
7.2031250000,0,0.2689819038,,,
7.2187500000,0,0.5908203125,,,
7.2343750000,0,0.8395385742,,,
7.2500000000,0,0.9700927734,,,
7.2656250000,0,0.9649047852,,,
7.2812500000,0,0.8627930284,,,
7.2968750000,0,0.6803588867,,,
7.3125000000,0,0.4501343071,,,
7.3281250000,0,0.2288818061,,,
7.3437500000,0,0.0995483398,,,
7.3593750000,0,0.1273193061,,,
7.3750000000,0,0.3013916016,,,
7.3906250000,0,0.5069580078,,,
7.4062500000,0,0.5474243164,,,
7.4218750000,0,0.3173828125,,,
7.4375000000,0,-0.1484375000,,,
7.4531250000,0,-0.6108397841,,,
7.4687500000,0,-0.8154296875,,,
7.4843750000,0,-0.6145629883,,,
7.5000000000,0,-0.0953369066,,,
7.5156250000,0,0.4639892876,,,
7.5312500000,0,0.7729492188,,,
7.5468750000,0,0.7034301758,,,
7.5625000000,0,0.3685913086,,,
7.5781250000,0,0.0057983398,,,
7.5937500000,0,-0.2092285007,,,
7.6093750000,0,-0.2753295898,,,
7.6250000000,0,-0.3237915039,,,
7.6406250000,0,-0.4912109077,,,
7.6562500000,0,-0.7503051758,,,
7.6718750000,0,-0.9382935166,,,
7.6875000000,0,-0.8222656250,,,
7.7031250000,0,-0.2910155952,,,
7.7187500000,0,0.5441284180,,,
7.7343750000,0,1.4108890295,,,
7.7500000000,0,2.0089719296,,,
7.7656250000,0,2.1571660042,,,
7.7812500000,0,1.8975830078,,,
7.7968750000,0,1.4120479822,,,
7.8125000000,0,0.9322509766,,,
7.8281250000,0,0.5603638291,,,
7.8437500000,0,0.2713012993,,,
7.8593750000,0,-0.0504150391,,,
7.8750000000,0,-0.4933471978,,,
7.8906250000,0,-1.0316770077,,,
7.9062500000,0,-1.5526119471,,,
7.9218750000,0,-1.9059449434,,,
7.9375000000,0,-2.0363159180,,,
7.9531250000,0,-1.9799189568,,,
7.9687500000,0,-1.8762209415,,,
7.9843750000,0,-1.8154909611,,,
8.0000000000,1,-1.7963260412,,,
8.0156250000,1,-1.6813960075,,,
8.0312500000,1,-1.3132929802,,,
8.0468750000,1,-0.5971068740,,,
8.0625000000,1,0.4119873047,,,
8.0781250000,1,1.5115970373,,,
8.0937500000,1,2.4591670036,,,
8.1093750000,1,3.0632319450,,,
8.1250000000,1,3.2571411133,,,
8.1406250000,1,3.1017460823,,,
8.1562500000,1,2.7241210938,,,
8.1718750000,1,2.2316279411,,,
8.1875000000,1,1.6692500114,,,
8.2031250000,1,1.0196529627,,,
8.2187500000,1,0.2498778999,,,
8.2343750000,1,-0.6102905273,,,
8.2500000000,1,-1.4579470158,,,
8.2656250000,1,-2.1397089958,,,
8.2812500000,1,-2.5155639648,,,
8.2968750000,1,-2.5751950741,,,
8.3125000000,1,-2.4006960392,,,
8.3281250000,1,-2.1511230469,,,
8.3437500000,1,-1.9147950411,,,
8.3593750000,1,-1.6831049919,,,
8.3750000000,1,-1.3207399845,,,
8.3906250000,1,-0.7223510742,,,
8.4062500000,1,0.1000977010,,,
8.4218750000,1,0.9834594727,,,
8.4375000000,1,1.6732790470,,,
8.4531250000,1,1.9824830294,,,
8.4687500000,1,1.8654789925,,,
8.4843750000,1,1.4355469942,,,
8.5000000000,1,0.8492432237,,,
8.5156250000,1,0.2166748047,,,
8.5312500000,1,-0.4408569038,,,
8.5468750000,1,-1.1471560001,,,
8.5625000000,1,-1.8812259436,,,
8.5781250000,1,-2.5408940315,,,
8.5937500000,1,-2.9470829964,,,
8.6093750000,1,-2.9624021053,,,
8.6250000000,1,-2.5573730469,,,
8.6406250000,1,-1.8666989803,,,
8.6562500000,1,-1.1197509766,,,
8.6718750000,1,-0.5151978135,,,
8.6875000000,1,-0.1452637017,,,
8.7031250000,1,0.0208129901,,,
8.7187500000,1,0.0791625977,,,
8.7343750000,1,0.1141356975,,,
8.7500000000,1,0.1304931939,,,
8.7656250000,1,0.0917968825,,,
8.7812500000,1,-0.0333862305,,,
8.7968750000,1,-0.2271728963,,,
8.8125000000,1,-0.4314574897,,,
8.8281250000,1,-0.5882567763,,,
8.8437500000,1,-0.6708374023,,,
8.8593750000,1,-0.6937866211,,,
8.8750000000,1,-0.6556395888,,,
8.8906250000,1,-0.5619506836,,,
8.9062500000,1,-0.3790893853,,,
8.9218750000,1,-0.1015625000,,,
8.9375000000,1,0.2343139946,,,
8.9531250000,1,0.5539550781,,,
8.9687500000,1,0.8004149795,,,
8.9843750000,1,0.9868164063,,,
9.0000000000,1,1.2133179903,,,
9.0156250000,1,1.5930789709,,,
9.0312500000,1,2.1706540585,,,
9.0468750000,1,2.8290410042,,,
9.0625000000,1,3.3279418945,,,
9.0781250000,1,3.3905639648,,,
9.0937500000,1,2.8562009335,,,
9.1093750000,1,1.7888790369,,,
9.1250000000,1,0.4660645127,,,
9.1406250000,1,-0.7443848252,,,
9.1562500000,1,-1.5460209846,,,
9.1718750000,1,-1.8308110237,,,
9.1875000000,1,-1.6782840490,,,
9.2031250000,1,-1.2944339514,,,
9.2187500000,1,-0.8677368164,,,
9.2343750000,1,-0.4874877930,,,
9.2500000000,1,-0.1395263970,,,
9.2656250000,1,0.2425536960,,,
9.2812500000,1,0.6649780273,,,
9.2968750000,1,1.0654909611,,,
9.3125000000,1,1.3245240450,,,
9.3281250000,1,1.3529050350,,,
9.3437500000,1,1.1528320313,,,
9.3593750000,1,0.8237305284,,,
9.3750000000,1,0.5162354112,,,
9.3906250000,1,0.3260498047,,,
9.4062500000,1,0.2734985054,,,
9.4218750000,1,0.2934570014,,,
9.4375000000,1,0.2950438857,,,
9.4531250000,1,0.2046508938,,,
9.4687500000,1,0.0382080115,,,
9.4843750000,1,-0.1467895955,,,
9.5000000000,1,-0.2529906929,,,
9.5156250000,1,-0.2224730998,,,
9.5312500000,1,-0.0372314490,,,
9.5468750000,1,0.2334595025,,,
9.5625000000,1,0.5048828125,,,
9.5781250000,1,0.6870728135,,,
9.5937500000,1,0.7650145888,,,
9.6093750000,1,0.7670288086,,,
9.6250000000,1,0.7414550781,,,
9.6406250000,1,0.6996459961,,,
9.6562500000,1,0.6016234756,,,
9.6718750000,1,0.3723145127,,,
9.6875000000,1,-0.0250244103,,,
9.7031250000,1,-0.5148925781,,,
9.7187500000,1,-0.9565430284,,,
9.7343750000,1,-1.1668089628,,,
9.7500000000,1,-1.0756230354,,,
9.7656250000,1,-0.7437744141,,,
9.7812500000,1,-0.3739624023,,,
9.7968750000,1,-0.1736450046,,,
9.8125000000,1,-0.2386475056,,,
9.8281250000,1,-0.5140380859,,,
9.8437500000,1,-0.8276367188,,,
9.8593750000,1,-0.9877318740,,,
9.8750000000,1,-0.8817139268,,,
9.8906250000,1,-0.5479735732,,,
9.9062500000,1,-0.1266479045,,,
9.9218750000,1,0.2214965969,,,
9.9375000000,1,0.3847655952,,,
9.9531250000,1,0.3657226861,,,
9.9687500000,1,0.2622680962,,,
9.9843750000,1,0.1923218071,,,
10.0000000000,1,0.2068480998,,,
10.0156250000,1,0.2758179009,,,
10.0312500000,1,0.2922362983,,,
10.0468750000,1,0.1816405952,,,
10.0625000000,1,-0.0419311486,,,
10.0781250000,1,-0.2652587891,,,
10.0937500000,1,-0.3346557915,,,
10.1093750000,1,-0.1757812947,,,
10.1250000000,1,0.1555785984,,,
10.1406250000,1,0.4973754883,,,
10.1562500000,1,0.6961060166,,,
10.1718750000,1,0.7157592773,,,
10.1875000000,1,0.6771240234,,,
10.2031250000,1,0.7650756836,,,
10.2187500000,1,1.0817869902,,,
10.2343750000,1,1.5639040470,,,
10.2500000000,1,1.9972529411,,,
10.2656250000,1,2.1366579533,,,
10.2812500000,1,1.8732299805,,,
10.2968750000,1,1.2799680233,,,
10.3125000000,1,0.5856934190,,,
10.3281250000,1,0.0416870117,,,
10.3437500000,1,-0.2377929986,,,
10.3593750000,1,-0.2980346978,,,
10.3750000000,1,-0.3123778999,,,
10.3906250000,1,-0.4627074897,,,
10.4062500000,1,-0.8245850205,,,
10.4218750000,1,-1.3189090490,,,
10.4375000000,1,-1.7639770508,,,
10.4531250000,1,-1.9728389978,,,
10.4687500000,1,-1.8647459745,,,
10.4843750000,1,-1.4871829748,,,
10.5000000000,1,-0.9923706055,,,
10.5156250000,1,-0.5245972276,,,
10.5312500000,1,-0.1311035007,,,
10.5468750000,1,0.2476806939,,,
10.5625000000,1,0.6931763291,,,
10.5781250000,1,1.2393800020,,,
10.5937500000,1,1.8091429472,,,
10.6093750000,1,2.2897949219,,,
10.6250000000,1,2.5616459846,,,
10.6406250000,1,2.5958249569,,,
10.6562500000,1,2.4160161018,,,
10.6718750000,1,2.0763549805,,,
10.6875000000,1,1.6086430550,,,
10.7031250000,1,1.0085450411,,,
10.7187500000,1,0.2541503906,,,
10.7343750000,1,-0.6232299805,,,
10.7500000000,1,-1.5209959745,,,
10.7656250000,1,-2.3012080193,,,
10.7812500000,1,-2.8190920353,,,
10.7968750000,1,-3.0142819881,,,
10.8125000000,1,-2.9088749886,,,
10.8281250000,1,-2.5906369686,,,
10.8437500000,1,-2.1629641056,,,
10.8593750000,1,-1.7073969841,,,
10.8750000000,1,-1.2783199549,,,
10.8906250000,1,-0.8983765244,,,
10.9062500000,1,-0.5679932237,,,
10.9218750000,1,-0.2844237983,,,
10.9375000000,1,-0.0421142615,,,
10.9531250000,1,0.1381226033,,,
10.9687500000,1,0.2465820014,,,
10.9843750000,1,0.2880249023,,,
11.0000000000,1,0.2814941108,,,
11.0156250000,1,0.2758179009,,,
11.0312500000,1,0.2950438857,,,
11.0468750000,1,0.3508301079,,,
11.0625000000,1,0.4211426079,,,
11.0781250000,1,0.4746094048,,,
11.0937500000,1,0.5128173828,,,
11.1093750000,1,0.5838623047,,,
11.1250000000,1,0.7565917969,,,
11.1406250000,1,1.0844119787,,,
11.1562500000,1,1.5184940100,,,
11.1718750000,1,1.9367070198,,,
11.1875000000,1,2.1173710823,,,
11.2031250000,1,1.9062500000,,,
11.2187500000,1,1.2509160042,,,
11.2343750000,1,0.2759399116,,,
11.2500000000,1,-0.7525634766,,,
11.2656250000,1,-1.5777590275,,,
11.2812500000,1,-2.0025629997,,,
11.2968750000,1,-1.9951779842,,,
11.3125000000,1,-1.6577149630,,,
11.3281250000,1,-1.1694339514,,,
11.3437500000,1,-0.6947020888,,,
11.3593750000,1,-0.3546752930,,,
11.3750000000,1,-0.1909179986,,,
11.3906250000,1,-0.2136840969,,,
11.4062500000,1,-0.4182128906,,,
11.4218750000,1,-0.7615355849,,,
11.4375000000,1,-1.1542359591,,,
11.4531250000,1,-1.4643549919,,,
11.4687500000,1,-1.5446170568,,,
11.4843750000,1,-1.3124389648,,,
11.5000000000,1,-0.8209229112,,,
11.5156250000,1,-0.2756958008,,,
11.5312500000,1,0.0585937500,,,
11.5468750000,1,-0.0357055701,,,
11.5625000000,1,-0.5930175781,,,
11.5781250000,1,-1.4389040470,,,
11.5937500000,1,-2.2838129997,,,
11.6093750000,1,-2.8450930119,,,
11.6250000000,1,-2.9772949219,,,
11.6406250000,1,-2.6956179142,,,
11.6562500000,1,-2.1342160702,,,
11.6718750000,1,-1.4057010412,,,
11.6875000000,1,-0.6010131836,,,
11.7031250000,1,0.2445068061,,,
11.7187500000,1,1.0616459846,,,
11.7343750000,1,1.7488399744,,,
11.7500000000,1,2.1739499569,,,
11.7656250000,1,2.2424321175,,,
11.7812500000,1,1.9715579748,,,
11.7968750000,1,1.4900510311,,,
11.8125000000,1,0.9931641221,,,
11.8281250000,1,0.6391602159,,,
11.8437500000,1,0.5200806260,,,
11.8593750000,1,0.6019896865,,,
11.8750000000,1,0.7764893174,,,
11.8906250000,1,0.9073485732,,,
11.9062500000,1,0.8464354873,,,
11.9218750000,1,0.5416259766,,,
11.9375000000,1,0.0353393592,,,
11.9531250000,1,-0.5167847276,,,
11.9687500000,1,-0.9063109756,,,
11.9843750000,1,-0.9519652724,,,
12.0000000000,1,-0.5720825195,,,
12.0156250000,1,0.1311645955,,,
12.0312500000,1,0.9956665039,,,
12.0468750000,1,1.8177490234,,,
12.0625000000,1,2.4420170784,,,
12.0781250000,1,2.7969360352,,,
12.0937500000,1,2.8664550781,,,
12.1093750000,1,2.6608281136,,,
12.1250000000,1,2.2415161133,,,
12.1406250000,1,1.6838380098,,,
12.1562500000,1,1.1047359705,,,
12.1718750000,1,0.6409912109,,,
12.1875000000,1,0.3172607124,,,
12.2031250000,1,0.0931396484,,,
12.2187500000,1,-0.1669311970,,,
12.2343750000,1,-0.5503540039,,,
12.2500000000,1,-1.0457760096,,,
12.2656250000,1,-1.5148930550,,,
12.2812500000,1,-1.7634279728,,,
12.2968750000,1,-1.6624759436,,,
12.3125000000,1,-1.1975710392,,,
12.3281250000,1,-0.5054932237,,,
12.3437500000,1,0.2107543945,,,
12.3593750000,1,0.7724608779,,,
12.3750000000,1,1.0789790154,,,
12.3906250000,1,1.1378779411,,,
12.4062500000,1,1.0048830509,,,
12.4218750000,1,0.7783812881,,,
12.4375000000,1,0.5582885742,,,
12.4531250000,1,0.4620971978,,,
12.4687500000,1,0.5272216797,,,
12.4843750000,1,0.7376099229,,,
12.5000000000,1,1.0129389763,,,
12.5156250000,1,1.2232060432,,,
12.5312500000,1,1.2687380314,,,
12.5468750000,1,1.1237180233,,,
12.5625000000,1,0.8406981826,,,
12.5781250000,1,0.5145874023,,,
12.5937500000,1,0.2448730022,,,
12.6093750000,1,0.0541381799,,,
12.6250000000,1,-0.0579223596,,,
12.6406250000,1,-0.1322021037,,,
12.6562500000,1,-0.1925048977,,,
12.6718750000,1,-0.2109375000,,,
12.6875000000,1,-0.1351318061,,,
12.7031250000,1,0.0452880897,,,
12.7187500000,1,0.2828369141,,,
12.7343750000,1,0.4641112983,,,
12.7500000000,1,0.4679565132,,,
12.7656250000,1,0.2353516072,,,
12.7812500000,1,-0.2012328953,,,
12.7968750000,1,-0.7591552734,,,
12.8125000000,1,-1.3243410587,,,
12.8281250000,1,-1.8081049919,,,
12.8437500000,1,-2.1457519531,,,
12.8593750000,1,-2.2828979492,,,
12.8750000000,1,-2.1620481014,,,
12.8906250000,1,-1.7545169592,,,
12.9062500000,1,-1.0764770508,,,
12.9218750000,1,-0.2165527046,,,
12.9375000000,1,0.6649780273,,,
12.9531250000,1,1.4407960176,,,
12.9687500000,1,2.0075070858,,,
12.9843750000,1,2.3372800350,,,
13.0000000000,1,2.4158940315,,,
13.0156250000,1,2.2350459099,,,
13.0312500000,1,1.7783199549,,,
13.0468750000,1,1.0535889864,,,
13.0625000000,1,0.1268921047,,,
13.0781250000,1,-0.8379517198,,,
13.0937500000,1,-1.6492309570,,,
13.1093750000,1,-2.1495358944,,,
13.1250000000,1,-2.2769780159,,,
13.1406250000,1,-2.0758669376,,,
13.1562500000,1,-1.6456910372,,,
13.1718750000,1,-1.0996700525,,,
13.1875000000,1,-0.5037841797,,,
13.2031250000,1,0.0695190430,,,
13.2187500000,1,0.5487670898,,,
13.2343750000,1,0.8453978896,,,
13.2500000000,1,0.9027100205,,,
13.2656250000,1,0.7473754883,,,
13.2812500000,1,0.5118408203,,,
13.2968750000,1,0.3696899116,,,
13.3125000000,1,0.4854736030,,,
13.3281250000,1,0.9004517198,,,
13.3437500000,1,1.5185550451,,,
13.3593750000,1,2.1257319450,,,
13.3750000000,1,2.4859011173,,,
13.3906250000,1,2.4649660587,,,
13.4062500000,1,2.0758669376,,,
13.4218750000,1,1.4644169807,,,
13.4375000000,1,0.8325806260,,,
13.4531250000,1,0.3438721001,,,
13.4687500000,1,0.0533447303,,,
13.4843750000,1,-0.0661010668,,,
13.5000000000,1,-0.1005249023,,,
13.5156250000,1,-0.1063842997,,,
13.5312500000,1,-0.0721435472,,,
13.5468750000,1,0.0546264611,,,
13.5625000000,1,0.3229370117,,,
13.5781250000,1,0.7239379883,,,
13.5937500000,1,1.1483149529,,,
13.6093750000,1,1.4673459530,,,
13.6250000000,1,1.5652470589,,,
13.6406250000,1,1.4347529411,,,
13.6562500000,1,1.1468509436,,,
13.6718750000,1,0.8347777724,,,
13.6875000000,1,0.5828247070,,,
13.7031250000,1,0.4291991889,,,
13.7187500000,1,0.3424682915,,,
13.7343750000,1,0.2784424126,,,
13.7500000000,1,0.1845093071,,,
13.7656250000,1,0.0226440392,,,
13.7812500000,1,-0.2478027046,,,
13.7968750000,1,-0.6458129883,,,
13.8125000000,1,-1.1527099609,,,
13.8281250000,1,-1.7094119787,,,
13.8437500000,1,-2.1671140194,,,
13.8593750000,1,-2.4067990780,,,
13.8750000000,1,-2.3557128906,,,
13.8906250000,1,-2.0604250431,,,
13.9062500000,1,-1.6528929472,,,
13.9218750000,1,-1.2880250216,,,
13.9375000000,1,-1.0375980139,,,
13.9531250000,1,-0.8812255859,,,
13.9687500000,1,-0.7473754883,,,
13.9843750000,1,-0.5982056260,,,
14.0000000000,1,-0.4591675103,,,
14.0156250000,1,-0.4237670898,,,
14.0312500000,1,-0.5382689834,,,
14.0468750000,1,-0.7650145888,,,
14.0625000000,1,-0.9609375000,,,
14.0781250000,1,-0.9860228896,,,
14.0937500000,1,-0.7908936143,,,
14.1093750000,1,-0.4512329102,,,
14.1250000000,1,-0.1284790039,,,
14.1406250000,1,0.0532226600,,,
14.1562500000,1,0.0632324219,,,
14.1718750000,1,0.0140380897,,,
14.1875000000,1,0.0400390588,,,
14.2031250000,1,0.2352295071,,,
14.2187500000,1,0.5468750000,,,
14.2343750000,1,0.8537598252,,,
14.2500000000,1,1.0253299475,,,
14.2656250000,1,1.0189820528,,,
14.2812500000,1,0.8750609756,,,
14.2968750000,1,0.6904907227,,,
14.3125000000,1,0.5183715820,,,
14.3281250000,1,0.3350220025,,,
14.3437500000,1,0.0780639574,,,
14.3593750000,1,-0.3386841118,,,
14.3750000000,1,-0.9321898818,,,
14.3906250000,1,-1.6194460392,,,
14.4062500000,1,-2.2835080624,,,
14.4218750000,1,-2.7937619686,,,
14.4375000000,1,-3.0715939999,,,
14.4531250000,1,-3.1043090820,,,
14.4687500000,1,-2.9255979061,,,
14.4843750000,1,-2.5795290470,,,
14.5000000000,1,-2.0667109489,,,
14.5156250000,1,-1.3922120333,,,
14.5312500000,1,-0.5604248047,,,
14.5468750000,1,0.3435668945,,,
14.5625000000,1,1.1923220158,,,
14.5781250000,1,1.8369139433,,,
14.5937500000,1,2.1605219841,,,
14.6093750000,1,2.1279299259,,,
14.6250000000,1,1.7976069450,,,
14.6406250000,1,1.2953490019,,,
14.6562500000,1,0.7852172852,,,
14.6718750000,1,0.3967284858,,,
14.6875000000,1,0.2106322944,,,
14.7031250000,1,0.2694702148,,,
14.7187500000,1,0.5479125977,,,
14.7343750000,1,1.0056760311,,,
14.7500000000,1,1.5363769531,,,
14.7656250000,1,2.0196530819,,,
14.7812500000,1,2.3430790901,,,
14.7968750000,1,2.4488530159,,,
14.8125000000,1,2.3830571175,,,
14.8281250000,1,2.2791750431,,,
14.8437500000,1,2.2757570744,,,
14.8593750000,1,2.4513549805,,,
14.8750000000,1,2.7300419807,,,
14.8906250000,1,2.9200439453,,,
14.9062500000,1,2.7788090706,,,
14.9218750000,1,2.1444699764,,,
14.9375000000,1,1.0329589844,,,
14.9531250000,1,-0.3640747070,,,
14.9687500000,1,-1.7518310547,,,
14.9843750000,1,-2.8768920898,,,
15.0000000000,1,-3.6037600040,,,
15.0156250000,1,-3.9520258904,,,
15.0312500000,1,-4.0296630859,,,
15.0468750000,1,-3.9685668945,,,
15.0625000000,1,-3.8424069881,,,
15.0781250000,1,-3.6649780273,,,
15.0937500000,1,-3.4614870548,,,
15.1093750000,1,-3.2879030704,,,
15.1250000000,1,-3.2671511173,,,
15.1406250000,1,-3.5010380745,,,
15.1562500000,1,-3.9657590389,,,
15.1718750000,1,-4.5098881721,,,
15.1875000000,1,-4.8536381721,,,
15.2031250000,1,-4.7327880859,,,
15.2187500000,1,-4.0140380859,,,
15.2343750000,1,-2.7436521053,,,
15.2500000000,1,-1.1153559685,,,
15.2656250000,1,0.5986937881,,,
15.2812500000,1,2.1629030704,,,
15.2968750000,1,3.4353640079,,,
15.3125000000,1,4.3591308594,,,
15.3281250000,1,4.9625239372,,,
15.3437500000,1,5.3110351563,,,
15.3593750000,1,5.4906010628,,,
15.3750000000,1,5.5587768555,,,
15.3906250000,1,5.5547490120,,,
15.4062500000,1,5.4706420898,,,
15.4218750000,1,5.2845458984,,,
15.4375000000,1,4.9650268555,,,
15.4531250000,1,4.5166020393,,,
15.4687500000,1,3.9799799919,,,
15.4843750000,1,3.3941650391,,,
15.5000000000,1,2.7720339298,,,
15.5156250000,1,2.1096189022,,,
15.5312500000,1,1.4110720158,,,
15.5468750000,1,0.7312622070,,,
15.5625000000,1,0.1654053032,,,
15.5781250000,1,-0.1792602986,,,
15.5937500000,1,-0.2868041992,,,
15.6093750000,1,-0.2062377930,,,
15.6250000000,1,-0.0692138672,,,
15.6406250000,1,0.0111694299,,,
15.6562500000,1,-0.0116577102,,,
15.6718750000,1,-0.0917968825,,,
15.6875000000,1,-0.1253661960,,,
15.7031250000,1,0.0012207030,,,
15.7187500000,1,0.3104858100,,,
15.7343750000,1,0.7275391221,,,
15.7500000000,1,1.1370849609,,,
15.7656250000,1,1.4154659510,,,
15.7812500000,1,1.5301510096,,,
15.7968750000,1,1.5146479607,,,
15.8125000000,1,1.4616090059,,,
15.8281250000,1,1.4085689783,,,
15.8437500000,1,1.3364870548,,,
15.8593750000,1,1.1962280273,,,
15.8750000000,1,0.9458618164,,,
15.8906250000,1,0.6134644151,,,
15.9062500000,1,0.2489013970,,,
15.9218750000,1,-0.1168823019,,,
15.9375000000,1,-0.5317382813,,,
15.9531250000,1,-1.0801999569,,,
15.9687500000,1,-1.8435059786,,,
15.9843750000,1,-2.7521359921,,,
16.0000000000,2,-3.6127929688,,,
16.0156250000,2,-4.1733398438,,,
16.0312500000,2,-4.2634282112,,,
16.0468750000,2,-3.8816530704,,,
16.0625000000,2,-3.1923220158,,,
16.0781250000,2,-2.4401249886,,,
16.0937500000,2,-1.7818599939,,,
16.1093750000,2,-1.3020019531,,,
16.1250000000,2,-0.9691162109,,,
16.1406250000,2,-0.7315062881,,,
16.1562500000,2,-0.5523682237,,,
16.1718750000,2,-0.3934937119,,,
16.1875000000,2,-0.2382201999,,,
16.2031250000,2,-0.0458373986,,,
16.2187500000,2,0.1534423977,,,
16.2343750000,2,0.2416992038,,,
16.2500000000,2,0.0343017615,,,
16.2656250000,2,-0.6012573242,,,
16.2812500000,2,-1.6232299805,,,
16.2968750000,2,-2.7747189999,,,
16.3125000000,2,-3.6537480354,,,
16.3281250000,2,-3.9112548828,,,
16.3437500000,2,-3.4110109806,,,
16.3593750000,2,-2.3021850586,,,
16.3750000000,2,-0.9456787109,,,
16.3906250000,2,0.2911376953,,,
16.4062500000,2,1.1911009550,,,
16.4218750000,2,1.7290040255,,,
16.4375000000,2,2.0372309685,,,
16.4531250000,2,2.2532351017,,,
16.4687500000,2,2.4356689453,,,
16.4843750000,2,2.5497438908,,,
16.5000000000,2,2.5363769531,,,
16.5156250000,2,2.3599851131,,,
16.5312500000,2,2.0437619686,,,
16.5468750000,2,1.6454470158,,,
16.5625000000,2,1.1949460506,,,
16.5781250000,2,0.6928101182,,,
16.5937500000,2,0.1641846001,,,
16.6093750000,2,-0.3624877930,,,
16.6250000000,2,-0.8222656250,,,
16.6406250000,2,-1.1524660587,,,
16.6562500000,2,-1.3709110022,,,
16.6718750000,2,-1.5335079432,,,
16.6875000000,2,-1.7158199549,,,
16.7031250000,2,-1.9403690100,,,
16.7187500000,2,-2.1521608829,,,
16.7343750000,2,-2.2201540470,,,
16.7500000000,2,-2.0641479492,,,
16.7656250000,2,-1.7028809786,,,
16.7812500000,2,-1.2700200081,,,
16.7968750000,2,-0.9375609756,,,
16.8125000000,2,-0.8087769151,,,
16.8281250000,2,-0.8633422852,,,
16.8437500000,2,-0.9818115234,,,
16.8593750000,2,-1.0382690430,,,
16.8750000000,2,-0.9995728135,,,
16.8906250000,2,-0.9361572266,,,
16.9062500000,2,-0.9645996094,,,
16.9218750000,2,-1.1518549919,,,
16.9375000000,2,-1.4468380213,,,
16.9531250000,2,-1.6835939884,,,
16.9687500000,2,-1.6657099724,,,
16.9843750000,2,-1.2700810432,,,
17.0000000000,2,-0.5193480849,,,
17.0156250000,2,0.4072875977,,,
17.0312500000,2,1.2683110237,,,
17.0468750000,2,1.8518069983,,,
17.0625000000,2,2.0589599609,,,
17.0781250000,2,1.9230959415,,,
17.0937500000,2,1.5889890194,,,
17.1093750000,2,1.2175290585,,,
17.1250000000,2,0.9544677734,,,
17.1406250000,2,0.8754271865,,,
17.1562500000,2,0.9838867188,,,
17.1718750000,2,1.2381589413,,,
17.1875000000,2,1.5347290039,,,
17.2031250000,2,1.7764890194,,,
17.2187500000,2,1.8623659611,,,
17.2343750000,2,1.7611689568,,,
17.2500000000,2,1.4799189568,,,
17.2656250000,2,1.1137700081,,,
17.2812500000,2,0.7711791992,,,
17.2968750000,2,0.5687866211,,,
17.3125000000,2,0.5605468750,,,
17.3281250000,2,0.7235106826,,,
17.3437500000,2,0.9633178711,,,
17.3593750000,2,1.1544799805,,,
17.3750000000,2,1.1740720272,,,
17.3906250000,2,0.9562377930,,,
17.4062500000,2,0.5202025771,,,
17.4218750000,2,-0.0410156287,,,
17.4375000000,2,-0.5887451172,,,
17.4531250000,2,-0.9904785156,,,
17.4687500000,2,-1.1888430119,,,
17.4843750000,2,-1.2111819983,,,
17.5000000000,2,-1.1849370003,,,
17.5156250000,2,-1.2506099939,,,
17.5312500000,2,-1.4959110022,,,
17.5468750000,2,-1.9093630314,,,
17.5625000000,2,-2.3859250546,,,
17.5781250000,2,-2.7787480354,,,
17.5937500000,2,-2.9488530159,,,
17.6093750000,2,-2.8551640511,,,
17.6250000000,2,-2.5121459961,,,
17.6406250000,2,-2.0097050667,,,
17.6562500000,2,-1.4452509880,,,
17.6718750000,2,-0.8928833008,,,
17.6875000000,2,-0.3955078125,,,
17.7031250000,2,0.0465698205,,,
17.7187500000,2,0.4350585938,,,
17.7343750000,2,0.7800292969,,,
17.7500000000,2,1.0866090059,,,
17.7656250000,2,1.3371579647,,,
17.7812500000,2,1.5231930017,,,
17.7968750000,2,1.6115720272,,,
17.8125000000,2,1.5706180334,,,
17.8281250000,2,1.3590090275,,,
17.8437500000,2,0.9716187119,,,
17.8593750000,2,0.4658203125,,,
17.8750000000,2,-0.0321655311,,,
17.8906250000,2,-0.3625487983,,,
17.9062500000,2,-0.3956299126,,,
17.9218750000,2,-0.0957641602,,,
17.9375000000,2,0.4505004883,,,
17.9531250000,2,1.0805660486,,,
17.9687500000,2,1.6145019531,,,
17.9843750000,2,1.9741209745,,,
18.0000000000,2,2.1655879021,,,
18.0156250000,2,2.2546999454,,,
18.0312500000,2,2.2810060978,,,
18.0468750000,2,2.2029418945,,,
18.0625000000,2,1.9063719511,,,
18.0781250000,2,1.2935179472,,,
18.0937500000,2,0.3910521865,,,
18.1093750000,2,-0.6521605849,,,
18.1250000000,2,-1.6052860022,,,
18.1406250000,2,-2.2804570198,,,
18.1562500000,2,-2.6203610897,,,
18.1718750000,2,-2.7276000977,,,
18.1875000000,2,-2.7777099609,,,
18.2031250000,2,-2.8851320744,,,
18.2187500000,2,-3.0427250862,,,
18.2343750000,2,-3.1223750114,,,
18.2500000000,2,-2.9636230469,,,
18.2656250000,2,-2.4990839958,,,
18.2812500000,2,-1.8059079647,,,
18.2968750000,2,-1.0975949764,,,
18.3125000000,2,-0.5733643174,,,
18.3281250000,2,-0.3652344048,,,
18.3437500000,2,-0.4431762993,,,
18.3593750000,2,-0.7059937119,,,
18.3750000000,2,-1.0393069983,,,
18.3906250000,2,-1.4064329863,,,
18.4062500000,2,-1.8528439999,,,
18.4218750000,2,-2.4283449650,,,
18.4375000000,2,-3.1151731014,,,
18.4531250000,2,-3.7952270508,,,
18.4687500000,2,-4.3370971680,,,
18.4843750000,2,-4.6557011604,,,
18.5000000000,2,-4.7709960938,,,
18.5156250000,2,-4.7227778435,,,
18.5312500000,2,-4.4889531136,,,
18.5468750000,2,-3.9442749023,,,
18.5625000000,2,-2.9299929142,,,
18.5781250000,2,-1.3779300451,,,
18.5937500000,2,0.5859984756,,,
18.6093750000,2,2.6457519531,,,
18.6250000000,2,4.4489750862,,,
18.6406250000,2,5.8096308708,,,
18.6562500000,2,6.8128051758,,,
18.6718750000,2,7.7631840706,,,
18.6875000000,2,8.9734497070,,,
18.7031250000,2,10.5681800842,,,
18.7187500000,2,12.3638896942,,,
18.7343750000,2,13.9486103058,,,
18.7500000000,2,14.8844604492,,,
18.7656250000,2,14.8943500519,,,
18.7812500000,2,13.9876098633,,,
18.7968750000,2,12.3913602829,,,
18.8125000000,2,10.4394502640,,,
18.8281250000,2,8.4285888672,,,
18.8437500000,2,6.5380249023,,,
18.8593750000,2,4.8124389648,,,
18.8750000000,2,3.2120358944,,,
18.8906250000,2,1.6790770292,,,
18.9062500000,2,0.2050780952,,,
18.9218750000,2,-1.1557619572,,,
18.9375000000,2,-2.2889399529,,,
18.9531250000,2,-3.0903320313,,,
18.9687500000,2,-3.4834589958,,,
18.9843750000,2,-3.4738159180,,,
19.0000000000,2,-3.1445310116,,,
19.0156250000,2,-2.6536870003,,,
19.0312500000,2,-2.1628420353,,,
19.0468750000,2,-1.8358149529,,,
19.0625000000,2,-1.7525019646,,,
19.0781250000,2,-1.9058840275,,,
19.0937500000,2,-2.2097780704,,,
19.1093750000,2,-2.5170290470,,,
19.1250000000,2,-2.6967160702,,,
19.1406250000,2,-2.6427609921,,,
19.1562500000,2,-2.3535768986,,,
19.1718750000,2,-1.8945920467,,,
19.1875000000,2,-1.3887330294,,,
19.2031250000,2,-0.9270020127,,,
19.2187500000,2,-0.5427855849,,,
19.2343750000,2,-0.2003784031,,,
19.2500000000,2,0.1665039063,,,
19.2656250000,2,0.5665283203,,,
19.2812500000,2,0.9313964844,,,
19.2968750000,2,1.1464229822,,,
19.3125000000,2,1.1094969511,,,
19.3281250000,2,0.7963867188,,,
19.3437500000,2,0.2745361030,,,
19.3593750000,2,-0.3399657905,,,
19.3750000000,2,-0.9305419922,,,
19.3906250000,2,-1.4462280273,,,
19.4062500000,2,-1.8767089844,,,
19.4218750000,2,-2.2063601017,,,
19.4375000000,2,-2.3724370003,,,
19.4531250000,2,-2.3007810116,,,
19.4687500000,2,-1.9308470488,,,
19.4843750000,2,-1.3319089413,,,
19.5000000000,2,-0.6674805284,,,
19.5156250000,2,-0.1735229045,,,
19.5312500000,2,0.0228271503,,,
19.5468750000,2,-0.0950317383,,,
19.5625000000,2,-0.3868407905,,,
19.5781250000,2,-0.6815186143,,,
19.5937500000,2,-0.8979492188,,,
19.6093750000,2,-1.1047359705,,,
19.6250000000,2,-1.4771729708,,,
19.6406250000,2,-2.1350710392,,,
19.6562500000,2,-3.0343019962,,,
19.6718750000,2,-3.9423220158,,,
19.6875000000,2,-4.5607299805,,,
19.7031250000,2,-4.6781010628,,,
19.7187500000,2,-4.2932128906,,,
19.7343750000,2,-3.6016240120,,,
19.7500000000,2,-2.8633420467,,,
19.7656250000,2,-2.2664179802,,,
19.7812500000,2,-1.8234250546,,,
19.7968750000,2,-1.4157710075,,,
19.8125000000,2,-0.9006958008,,,
19.8281250000,2,-0.1925659031,,,
19.8437500000,2,0.6711425781,,,
19.8593750000,2,1.5684809685,,,
19.8750000000,2,2.3602290154,,,
19.8906250000,2,2.9650270939,,,
19.9062500000,2,3.3497309685,,,
19.9218750000,2,3.5408940315,,,
19.9375000000,2,3.5953369141,,,
19.9531250000,2,3.5499269962,,,
19.9687500000,2,3.4102780819,,,
19.9843750000,2,3.1423339844,,,
20.0000000000,2,2.7339479923,,,
20.0156250000,2,2.1934199333,,,
20.0312500000,2,1.6111450195,,,
20.0468750000,2,1.0905150175,,,
20.0625000000,2,0.6846923828,,,
20.0781250000,2,0.3876343071,,,
20.0937500000,2,0.1073608026,,,
20.1093750000,2,-0.2324828953,,,
20.1250000000,2,-0.6378173828,,,
20.1406250000,2,-1.0193480253,,,
20.1562500000,2,-1.2200319767,,,
20.1718750000,2,-1.1510009766,,,
20.1875000000,2,-0.8722534180,,,
20.2031250000,2,-0.5753784180,,,
20.2187500000,2,-0.4855957031,,,
20.2343750000,2,-0.7228394151,,,
20.2500000000,2,-1.2225949764,,,
20.2656250000,2,-1.8004150391,,,
20.2812500000,2,-2.2350459099,,,
20.2968750000,2,-2.3919680119,,,
20.3125000000,2,-2.2578740120,,,
20.3281250000,2,-1.9300539494,,,
20.3437500000,2,-1.5243530273,,,
20.3593750000,2,-1.1407469511,,,
20.3750000000,2,-0.8453369141,,,
20.3906250000,2,-0.6557006836,,,
20.4062500000,2,-0.5671997070,,,
20.4218750000,2,-0.5635375977,,,
20.4375000000,2,-0.5853270888,,,
20.4531250000,2,-0.5474243164,,,
20.4687500000,2,-0.3928833008,,,
20.4843750000,2,-0.1123047024,,,
20.5000000000,2,0.2364501953,,,
20.5156250000,2,0.5496826172,,,
20.5312500000,2,0.7515258789,,,
20.5468750000,2,0.8373413086,,,
20.5625000000,2,0.8371582031,,,
20.5781250000,2,0.7802733779,,,
20.5937500000,2,0.6330565810,,,
20.6093750000,2,0.2937012017,,,
20.6250000000,2,-0.3178710938,,,
20.6406250000,2,-1.2012330294,,,
20.6562500000,2,-2.2054440975,,,
20.6718750000,2,-3.0955200195,,,
20.6875000000,2,-3.6624760628,,,
20.7031250000,2,-3.8208010197,,,
20.7187500000,2,-3.6340939999,,,
20.7343750000,2,-3.2471919060,,,
20.7500000000,2,-2.7831420898,,,
20.7656250000,2,-2.2743530273,,,
20.7812500000,2,-1.6763919592,,,
20.7968750000,2,-0.9503784180,,,
20.8125000000,2,-0.0991210863,,,
20.8281250000,2,0.7599486709,,,
20.8437500000,2,1.4876710176,,,
20.8593750000,2,1.9631350040,,,
20.8750000000,2,2.1621699333,,,
20.8906250000,2,2.1458129883,,,
20.9062500000,2,2.0214838982,,,
20.9218750000,2,1.8831789494,,,
20.9375000000,2,1.7712399960,,,
20.9531250000,2,1.6619869471,,,
20.9687500000,2,1.4991459846,,,
20.9843750000,2,1.2434079647,,,
21.0000000000,2,0.8963013291,,,
21.0156250000,2,0.5332642198,,,
21.0312500000,2,0.2293701023,,,
21.0468750000,2,0.0626220703,,,
21.0625000000,2,0.0256958008,,,
21.0781250000,2,0.0782470703,,,
21.0937500000,2,0.1572266072,,,
21.1093750000,2,0.2296143025,,,
21.1250000000,2,0.3062744141,,,
21.1406250000,2,0.4311523139,,,
21.1562500000,2,0.6299437881,,,
21.1718750000,2,0.8712158203,,,
21.1875000000,2,1.0417480469,,,
21.2031250000,2,1.0001219511,,,
21.2187500000,2,0.6439208984,,,
21.2343750000,2,-0.0178833008,,,
21.2500000000,2,-0.8594970703,,,
21.2656250000,2,-1.6697390079,,,
21.2812500000,2,-2.2214360237,,,
21.2968750000,2,-2.3596799374,,,
21.3125000000,2,-2.0264890194,,,
21.3281250000,2,-1.3074949980,,,
21.3437500000,2,-0.3682861030,,,
21.3593750000,2,0.5580443740,,,
21.3750000000,2,1.2874150276,,,
21.3906250000,2,1.7037349939,,,
21.4062500000,2,1.8012080193,,,
21.4218750000,2,1.6510620117,,,
21.4375000000,2,1.3923339844,,,
21.4531250000,2,1.1483149529,,,
21.4687500000,2,1.0096440315,,,
21.4843750000,2,1.0092769861,,,
21.5000000000,2,1.1242070198,,,
21.5156250000,2,1.3175660372,,,
21.5312500000,2,1.5234990120,,,
21.5468750000,2,1.6748659611,,,
21.5625000000,2,1.6804200411,,,
21.5781250000,2,1.4478149414,,,
21.5937500000,2,0.9434813857,,,
21.6093750000,2,0.2225951999,,,
21.6250000000,2,-0.5549315810,,,
21.6406250000,2,-1.1765749454,,,
21.6562500000,2,-1.4644780159,,,
21.6718750000,2,-1.3593750000,,,
21.6875000000,2,-0.9567260742,,,
21.7031250000,2,-0.4481200874,,,
21.7187500000,2,-0.0659789965,,,
21.7343750000,2,0.0465698205,,,
21.7500000000,2,-0.1458130032,,,
21.7656250000,2,-0.5426635742,,,
21.7812500000,2,-0.9861450195,,,
21.7968750000,2,-1.3087160587,,,
21.8125000000,2,-1.4104609489,,,
21.8281250000,2,-1.2822879553,,,
21.8437500000,2,-0.9870604873,,,
21.8593750000,2,-0.6186522841,,,
21.8750000000,2,-0.2804565132,,,
21.8906250000,2,-0.0509033203,,,
21.9062500000,2,0.0384521484,,,
21.9218750000,2,-0.0084228516,,,
21.9375000000,2,-0.1318970025,,,
21.9531250000,2,-0.2183838040,,,
21.9687500000,2,-0.1533813030,,,
21.9843750000,2,0.1309203953,,,
22.0000000000,2,0.5954589844,,,
22.0156250000,2,1.0953669548,,,
22.0312500000,2,1.4182740450,,,
22.0468750000,2,1.3720699549,,,
22.0625000000,2,0.8823853135,,,
22.0781250000,2,0.0137023898,,,
22.0937500000,2,-1.0201109648,,,
22.1093750000,2,-1.9589840174,,,
22.1250000000,2,-2.5873110294,,,
22.1406250000,2,-2.7748110294,,,
22.1562500000,2,-2.5194399357,,,
22.1718750000,2,-1.9182740450,,,
22.1875000000,2,-1.1498719454,,,
22.2031250000,2,-0.4267272949,,,
22.2187500000,2,0.0722351074,,,
22.2343750000,2,0.2491150051,,,
22.2500000000,2,0.1351013035,,,
22.2656250000,2,-0.1325684041,,,
22.2812500000,2,-0.3673096001,,,
22.2968750000,2,-0.3980712891,,,
22.3125000000,2,-0.1311950982,,,
22.3281250000,2,0.4285278022,,,
22.3437500000,2,1.1728819609,,,
22.3593750000,2,1.9483640194,,,
22.3750000000,2,2.5639948845,,,
22.3906250000,2,2.8628849983,,,
22.4062500000,2,2.7863159180,,,
22.4218750000,2,2.4135439396,,,
22.4375000000,2,1.9131159782,,,
22.4531250000,2,1.5082399845,,,
22.4687500000,2,1.3473210335,,,
22.4843750000,2,1.4449460506,,,
22.5000000000,2,1.6699830294,,,
22.5156250000,2,1.8235169649,,,
22.5312500000,2,1.7517089844,,,
22.5468750000,2,1.4310610294,,,
22.5625000000,2,0.9825134277,,,
22.5781250000,2,0.5625609756,,,
22.5937500000,2,0.3024291992,,,
22.6093750000,2,0.2053222954,,,
22.6250000000,2,0.2059936970,,,
22.6406250000,2,0.2105713040,,,
22.6562500000,2,0.2046508938,,,
22.6718750000,2,0.2367859036,,,
22.6875000000,2,0.4136047065,,,
22.7031250000,2,0.7828063965,,,
22.7187500000,2,1.3011469841,,,
22.7343750000,2,1.8140870333,,,
22.7500000000,2,2.1357419491,,,
22.7656250000,2,2.1352539063,,,
22.7812500000,2,1.8111879826,,,
22.7968750000,2,1.2817690372,,,
22.8125000000,2,0.7203978896,,,
22.8281250000,2,0.2450866997,,,
22.8437500000,2,-0.1216431037,,,
22.8593750000,2,-0.4733582139,,,
22.8750000000,2,-0.9172974229,,,
22.8906250000,2,-1.4950560331,,,
22.9062500000,2,-2.1252439022,,,
22.9218750000,2,-2.6353149414,,,
22.9375000000,2,-2.8496088982,,,
22.9531250000,2,-2.6752619743,,,
22.9687500000,2,-2.1760859489,,,
22.9843750000,2,-1.5400090218,,,
23.0000000000,2,-0.9977722168,,,
23.0156250000,2,-0.7222595215,,,
23.0312500000,2,-0.7622069716,,,
23.0468750000,2,-1.0310360193,,,
23.0625000000,2,-1.3574520350,,,
23.0781250000,2,-1.5789179802,,,
23.0937500000,2,-1.6059880257,,,
23.1093750000,2,-1.4554439783,,,
23.1250000000,2,-1.2205510139,,,
23.1406250000,2,-1.0046689510,,,
23.1562500000,2,-0.8648375869,,,
23.1718750000,2,-0.7917479873,,,
23.1875000000,2,-0.7253417969,,,
23.2031250000,2,-0.6139525771,,,
23.2187500000,2,-0.4221802056,,,
23.2343750000,2,-0.1598206013,,,
23.2500000000,2,0.1525574028,,,
23.2656250000,2,0.4910582900,,,
23.2812500000,2,0.8364562988,,,
23.2968750000,2,1.1464229822,,,
23.3125000000,2,1.3501889706,,,
23.3281250000,2,1.3691710234,,,
23.3437500000,2,1.1951600313,,,
23.3593750000,2,0.8961182237,,,
23.3750000000,2,0.6328430176,,,
23.3906250000,2,0.5626831055,,,
23.4062500000,2,0.7666016221,,,
23.4218750000,2,1.1554260254,,,
23.4375000000,2,1.5195620060,,,
23.4531250000,2,1.6252139807,,,
23.4687500000,2,1.3272709846,,,
23.4843750000,2,0.6291809082,,,
23.5000000000,2,-0.3011474907,,,
23.5156250000,2,-1.2336119413,,,
23.5312500000,2,-1.9648740292,,,
23.5468750000,2,-2.3849790096,,,
23.5625000000,2,-2.4739069939,,,
23.5781250000,2,-2.2653200626,,,
23.5937500000,2,-1.7971190214,,,
23.6093750000,2,-1.1069639921,,,
23.6250000000,2,-0.2511292100,,,
23.6406250000,2,0.6698607802,,,
23.6562500000,2,1.5021669865,,,
23.6718750000,2,2.1071779728,,,
23.6875000000,2,2.4017639160,,,
23.7031250000,2,2.4007260799,,,
23.7187500000,2,2.2176210880,,,
23.7343750000,2,2.0123898983,,,
23.7500000000,2,1.9045410156,,,
23.7656250000,2,1.9149169922,,,
23.7812500000,2,1.9721980095,,,
23.7968750000,2,1.9529420137,,,
23.8125000000,2,1.7502440214,,,
23.8281250000,2,1.2919310331,,,
23.8437500000,2,0.6131287217,,,
23.8593750000,2,-0.1869506985,,,
23.8750000000,2,-0.9414978027,,,
23.8906250000,2,-1.4427490234,,,
23.9062500000,2,-1.5269780159,,,
23.9218750000,2,-1.1587519646,,,
23.9375000000,2,-0.5019531250,,,
23.9531250000,2,0.0871276930,,,
23.9687500000,2,0.2193298042,,,
23.9843750000,2,-0.3545837104,,,
24.0000000000,3,-1.5610959530,,,
24.0156250000,3,-3.0299069881,,,
24.0312500000,3,-4.2199101448,,,
24.0468750000,3,-4.7178039551,,,
24.0625000000,3,-4.4525761604,,,
24.0781250000,3,-3.7180790901,,,
24.0937500000,3,-2.9803769588,,,
24.1093750000,3,-2.6163640022,,,
24.1250000000,3,-2.7014160156,,,
24.1406250000,3,-3.0097959042,,,
24.1562500000,3,-3.1937870979,,,
24.1718750000,3,-2.9966430664,,,
24.1875000000,3,-2.4165949821,,,
24.2031250000,3,-1.6695859432,,,
24.2187500000,3,-1.0282590389,,,
24.2343750000,3,-0.6618651748,,,
24.2500000000,3,-0.5573425293,,,
24.2656250000,3,-0.5606688857,,,
24.2812500000,3,-0.5372009277,,,
24.2968750000,3,-0.4598082900,,,
24.3125000000,3,-0.4321899116,,,
24.3281250000,3,-0.6326599121,,,
24.3437500000,3,-1.2009580135,,,
24.3593750000,3,-2.1387329102,,,
24.3750000000,3,-3.3061220646,,,
24.3906250000,3,-4.4969477654,,,
24.4062500000,3,-5.5292968750,,,
24.4218750000,3,-6.3334960938,,,
24.4375000000,3,-6.9525151253,,,
24.4531250000,3,-7.4982910156,,,
24.4687500000,3,-8.0187072754,,,
24.4843750000,3,-8.4403991699,,,
24.5000000000,3,-8.5795593262,,,
24.5156250000,3,-8.2370605469,,,
24.5312500000,3,-7.3015441895,,,
24.5468750000,3,-5.8224182129,,,
24.5625000000,3,-3.9901120663,,,
24.5781250000,3,-2.0662839413,,,
24.5937500000,3,-0.2740783989,,,
24.6093750000,3,1.2636409998,,,
24.6250000000,3,2.5381159782,,,
24.6406250000,3,3.5722050667,,,
24.6562500000,3,4.3988342285,,,
24.6718750000,3,5.0153198242,,,
24.6875000000,3,5.4343872070,,,
24.7031250000,3,5.7340388298,,,
24.7187500000,3,6.0488281250,,,
24.7343750000,3,6.5488281250,,,
24.7500000000,3,7.3135070801,,,
24.7656250000,3,8.3119201660,,,
24.7812500000,3,9.3694152832,,,
24.7968750000,3,10.2402601242,,,
24.8125000000,3,10.7254600525,,,
24.8281250000,3,10.7811603546,,,
24.8437500000,3,10.5270395279,,,
24.8593750000,3,10.1972398758,,,
24.8750000000,3,10.0313701630,,,
24.8906250000,3,10.1453895569,,,
24.9062500000,3,10.4871797562,,,
24.9218750000,3,10.8924903870,,,
24.9375000000,3,11.1615295410,,,
24.9531250000,3,11.1840496063,,,
24.9687500000,3,10.9364004135,,,
24.9843750000,3,10.4742097855,,,
25.0000000000,3,9.8136291504,,,
25.0156250000,3,8.9375915527,,,
25.0312500000,3,7.7799677849,,,
25.0468750000,3,6.2845458984,,,
25.0625000000,3,4.4555358887,,,
25.0781250000,3,2.3786621094,,,
25.0937500000,3,0.2029723972,,,
25.1093750000,3,-1.9058229923,,,
25.1250000000,3,-3.7996220589,,,
25.1406250000,3,-5.3857121468,,,
25.1562500000,3,-6.5727839470,,,
25.1718750000,3,-7.2869257927,,,
25.1875000000,3,-7.4615478516,,,
25.2031250000,3,-7.0659480095,,,
25.2187500000,3,-6.1716308594,,,
25.2343750000,3,-4.9710998535,,,
25.2500000000,3,-3.7841188908,,,
25.2656250000,3,-2.9505920410,,,
25.2812500000,3,-2.7185359001,,,
25.2968750000,3,-3.1498720646,,,
25.3125000000,3,-4.0646362305,,,
25.3281250000,3,-5.1059269905,,,
25.3437500000,3,-5.8826899529,,,
25.3593750000,3,-6.1186218262,,,
25.3750000000,3,-5.7948608398,,,
25.3906250000,3,-5.1153559685,,,
25.4062500000,3,-4.4053649902,,,
25.4218750000,3,-3.9282839298,,,
25.4375000000,3,-3.7716979980,,,
25.4531250000,3,-3.8140261173,,,
25.4687500000,3,-3.8188169003,,,
25.4843750000,3,-3.5725100040,,,
25.5000000000,3,-3.0297238827,,,
25.5156250000,3,-2.3244929314,,,
25.5312500000,3,-1.7054140568,,,
25.5468750000,3,-1.3750610352,,,
25.5625000000,3,-1.3872070313,,,
25.5781250000,3,-1.6126099825,,,
25.5937500000,3,-1.8269040585,,,
25.6093750000,3,-1.8299560547,,,
25.6250000000,3,-1.5810849667,,,
25.6406250000,3,-1.2097779512,,,
25.6562500000,3,-0.9404602051,,,
25.6718750000,3,-0.9538878798,,,
25.6875000000,3,-1.2838439941,,,
25.7031250000,3,-1.7984310389,,,
25.7187500000,3,-2.2692260742,,,
25.7343750000,3,-2.4841001034,,,
25.7500000000,3,-2.3253779411,,,
25.7656250000,3,-1.8113709688,,,
25.7812500000,3,-1.0373229980,,,
25.7968750000,3,-0.0983581468,,,
25.8125000000,3,0.9468994141,,,
25.8281250000,3,2.1026918888,,,
25.8437500000,3,3.3917539120,,,
25.8593750000,3,4.7702031136,,,
25.8750000000,3,6.1255488396,,,
25.8906250000,3,7.2741088867,,,
25.9062500000,3,8.0447998047,,,
25.9218750000,3,8.3359069824,,,
25.9375000000,3,8.1676635742,,,
25.9531250000,3,7.6499018669,,,
25.9687500000,3,6.9346919060,,,
25.9843750000,3,6.1364140511,,,
26.0000000000,3,5.2960820198,,,
26.0156250000,3,4.4034118652,,,
26.0312500000,3,3.4284360409,,,
26.0468750000,3,2.3918759823,,,
26.0625000000,3,1.3901979923,,,
26.0781250000,3,0.5459899902,,,
26.0937500000,3,-0.0461120605,,,
26.1093750000,3,-0.3637999892,,,
26.1250000000,3,-0.4797058105,,,
26.1406250000,3,-0.5130310059,,,
26.1562500000,3,-0.5696105957,,,
26.1718750000,3,-0.7400817871,,,
26.1875000000,3,-1.0567320585,,,
26.2031250000,3,-1.5092469454,,,
26.2187500000,3,-2.0711059570,,,
26.2343750000,3,-2.6649780273,,,
26.2500000000,3,-3.2034909725,,,
26.2656250000,3,-3.5865170956,,,
26.2812500000,3,-3.7601010799,,,
26.2968750000,3,-3.7165219784,,,
26.3125000000,3,-3.5206599236,,,
26.3281250000,3,-3.2775270939,,,
26.3437500000,3,-3.0800480843,,,
26.3593750000,3,-2.9855959415,,,
26.3750000000,3,-2.9910581112,,,
26.3906250000,3,-3.0648798943,,,
26.4062500000,3,-3.1629939079,,,
26.4218750000,3,-3.2522890568,,,
26.4375000000,3,-3.2876279354,,,
26.4531250000,3,-3.2262880802,,,
26.4687500000,3,-2.9945371151,,,
26.4843750000,3,-2.5263369083,,,
26.5000000000,3,-1.7951660156,,,
26.5156250000,3,-0.8373107910,,,
26.5312500000,3,0.2399291992,,,
26.5468750000,3,1.2420040369,,,
26.5625000000,3,1.9806209803,,,
26.5781250000,3,2.3077089787,,,
26.5937500000,3,2.1999819279,,,
26.6093750000,3,1.7599790096,,,
26.6250000000,3,1.1990660429,,,
26.6406250000,3,0.7499390244,,,
26.6562500000,3,0.5941162109,,,
26.6718750000,3,0.7696837783,,,
26.6875000000,3,1.1675109863,,,
26.7031250000,3,1.6158139706,,,
26.7187500000,3,1.9300539494,,,
26.7343750000,3,2.0153200626,,,
26.7500000000,3,1.8817440271,,,
26.7656250000,3,1.6132509708,,,
26.7812500000,3,1.3083189726,,,
26.7968750000,3,1.0392459631,,,
26.8125000000,3,0.8287963867,,,
26.8281250000,3,0.6743469238,,,
26.8437500000,3,0.5499268174,,,
26.8593750000,3,0.4357300103,,,
26.8750000000,3,0.2994995117,,,
26.8906250000,3,0.1300354004,,,
26.9062500000,3,-0.0787353516,,,
26.9218750000,3,-0.3071899116,,,
26.9375000000,3,-0.5213623047,,,
26.9531250000,3,-0.7001038194,,,
26.9687500000,3,-0.8328552246,,,
26.9843750000,3,-0.9390258789,,,
27.0000000000,3,-1.0511169434,,,
27.0156250000,3,-1.1700129509,,,
27.0312500000,3,-1.2284849882,,,
27.0468750000,3,-1.1152340174,,,
27.0625000000,3,-0.7019042969,,,
27.0781250000,3,0.0715637207,,,
27.0937500000,3,1.1615600586,,,
27.1093750000,3,2.3888850212,,,
27.1250000000,3,3.5222780704,,,
27.1406250000,3,4.3332819939,,,
27.1562500000,3,4.6998901367,,,
27.1718750000,3,4.6358637810,,,
27.1875000000,3,4.2517089844,,,
27.2031250000,3,3.6929020882,,,
27.2187500000,3,3.0623779297,,,
27.2343750000,3,2.3683779240,,,
27.2500000000,3,1.5746150017,,,
27.2656250000,3,0.6402282715,,,
27.2812500000,3,-0.3928833008,,,
27.2968750000,3,-1.3897399902,,,
27.3125000000,3,-2.1755070686,,,
27.3281250000,3,-2.5998229980,,,
27.3437500000,3,-2.6277770996,,,
27.3593750000,3,-2.3417360783,,,
27.3750000000,3,-1.9045720100,,,
27.3906250000,3,-1.4832149744,,,
27.4062500000,3,-1.1813659668,,,
27.4218750000,3,-0.9956970215,,,
27.4375000000,3,-0.8558350205,,,
27.4531250000,3,-0.6851196289,,,
27.4687500000,3,-0.4577637017,,,
27.4843750000,3,-0.2060852051,,,
27.5000000000,3,0.0011291500,,,
27.5156250000,3,0.1168517992,,,
27.5312500000,3,0.1439819038,,,
27.5468750000,3,0.1378173977,,,
27.5625000000,3,0.1477660984,,,
27.5781250000,3,0.1868591011,,,
27.5937500000,3,0.2035216987,,,
27.6093750000,3,0.1061095968,,,
27.6250000000,3,-0.1614380032,,,
27.6406250000,3,-0.5954285264,,,
27.6562500000,3,-1.1070859432,,,
27.6718750000,3,-1.5544129610,,,
27.6875000000,3,-1.8258670568,,,
27.7031250000,3,-1.8725889921,,,
27.7187500000,3,-1.7034300566,,,
27.7343750000,3,-1.3667910099,,,
27.7500000000,3,-0.8959351182,,,
27.7656250000,3,-0.3285216987,,,
27.7812500000,3,0.3007202148,,,
27.7968750000,3,0.9043884277,,,
27.8125000000,3,1.3894040585,,,
27.8281250000,3,1.6599119902,,,
27.8437500000,3,1.6860350370,,,
27.8593750000,3,1.4927669764,,,
27.8750000000,3,1.1708070040,,,
27.8906250000,3,0.8121643066,,,
27.9062500000,3,0.4911803901,,,
27.9218750000,3,0.2381591946,,,
27.9375000000,3,0.0597229004,,,
27.9531250000,3,-0.0640869066,,,
27.9687500000,3,-0.1645812988,,,
27.9843750000,3,-0.2989501953,,,
28.0000000000,3,-0.5568541884,,,
28.0156250000,3,-1.0106509924,,,
28.0312500000,3,-1.6832890511,,,
28.0468750000,3,-2.5067749023,,,
28.0625000000,3,-3.3277890682,,,
28.0781250000,3,-3.9344179630,,,
28.0937500000,3,-4.1531372070,,,
28.1093750000,3,-3.9203801155,,,
28.1250000000,3,-3.3042910099,,,
28.1406250000,3,-2.4910891056,,,
28.1562500000,3,-1.7160340548,,,
28.1718750000,3,-1.1620789766,,,
28.1875000000,3,-0.9005432129,,,
28.2031250000,3,-0.8516845703,,,
28.2187500000,3,-0.8455504775,,,
28.2343750000,3,-0.7079467773,,,
28.2500000000,3,-0.3672791123,,,
28.2656250000,3,0.0821533203,,,
28.2812500000,3,0.4617919922,,,
28.2968750000,3,0.5731812119,,,
28.3125000000,3,0.3521117866,,,
28.3281250000,3,-0.1374512017,,,
28.3437500000,3,-0.6807860732,,,
28.3593750000,3,-1.0550229549,,,
28.3750000000,3,-1.1353759766,,,
28.3906250000,3,-0.8977965713,,,
28.4062500000,3,-0.4039916992,,,
28.4218750000,3,0.2302855998,,,
28.4375000000,3,0.8971251845,,,
28.4531250000,3,1.4766850471,,,
28.4687500000,3,1.8914790154,,,
28.4843750000,3,2.0840759277,,,
28.5000000000,3,2.0843811035,,,
28.5156250000,3,1.9578549862,,,
28.5312500000,3,1.8030400276,,,
28.5468750000,3,1.6656800508,,,
28.5625000000,3,1.5235290527,,,
28.5781250000,3,1.3045959473,,,
28.5937500000,3,0.9632874131,,,
28.6093750000,3,0.5305175781,,,
28.6250000000,3,0.1051025018,,,
28.6406250000,3,-0.1922606975,,,
28.6562500000,3,-0.3228454888,,,
28.6718750000,3,-0.3476257026,,,
28.6875000000,3,-0.4075317085,,,
28.7031250000,3,-0.6349486709,,,
28.7187500000,3,-1.0419620275,,,
28.7343750000,3,-1.5070500374,,,
28.7500000000,3,-1.8432919979,,,
28.7656250000,3,-1.9330140352,,,
28.7812500000,3,-1.7684940100,,,
28.7968750000,3,-1.4703370333,,,
28.8125000000,3,-1.1652829647,,,
28.8281250000,3,-0.9331970215,,,
28.8437500000,3,-0.7593383789,,,
28.8593750000,3,-0.5801085830,,,
28.8750000000,3,-0.3693237007,,,
28.8906250000,3,-0.1722716987,,,
28.9062500000,3,-0.0889587402,,,
28.9218750000,3,-0.2337646037,,,
28.9375000000,3,-0.6239014268,,,
28.9531250000,3,-1.1557309628,,,
28.9687500000,3,-1.6304630041,,,
28.9843750000,3,-1.8590090275,,,
29.0000000000,3,-1.7449040413,,,
29.0156250000,3,-1.3304749727,,,
29.0312500000,3,-0.7519226074,,,
29.0468750000,3,-0.1664734036,,,
29.0625000000,3,0.3501586914,,,
29.0781250000,3,0.7762145996,,,
29.0937500000,3,1.1361080408,,,
29.1093750000,3,1.4446409941,,,
29.1250000000,3,1.6942440271,,,
29.1406250000,3,1.8386839628,,,
29.1562500000,3,1.8698730469,,,
29.1718750000,3,1.8089289665,,,
29.1875000000,3,1.7185670137,,,
29.2031250000,3,1.6289980412,,,
29.2187500000,3,1.5072629452,,,
29.2343750000,3,1.2660219669,,,
29.2500000000,3,0.8396605849,,,
29.2656250000,3,0.2713012993,,,
29.2812500000,3,-0.2766112983,,,
29.2968750000,3,-0.5829772949,,,
29.3125000000,3,-0.5188599229,,,
29.3281250000,3,-0.0968933105,,,
29.3437500000,3,0.4890747070,,,
29.3593750000,3,0.9754943848,,,
29.3750000000,3,1.1657409668,,,
29.3906250000,3,1.0249019861,,,
29.4062500000,3,0.6891173720,,,
29.4218750000,3,0.3662415147,,,
29.4375000000,3,0.2109069973,,,
29.4531250000,3,0.2664490044,,,
29.4687500000,3,0.4270935059,,,
29.4843750000,3,0.5560913086,,,
29.5000000000,3,0.5219116211,,,
29.5156250000,3,0.3073729873,,,
29.5312500000,3,-0.0136108398,,,
29.5468750000,3,-0.3113098145,,,
29.5625000000,3,-0.4877625108,,,
29.5781250000,3,-0.5181580186,,,
29.5937500000,3,-0.5063781738,,,
29.6093750000,3,-0.5890197754,,,
29.6250000000,3,-0.8563842773,,,
29.6406250000,3,-1.3044129610,,,
29.6562500000,3,-1.7973020077,,,
29.6718750000,3,-2.1676330566,,,
29.6875000000,3,-2.2557680607,,,
29.7031250000,3,-2.0085749626,,,
29.7187500000,3,-1.4727170467,,,
29.7343750000,3,-0.7692565918,,,
29.7500000000,3,-0.0348205604,,,
29.7656250000,3,0.5988770127,,,
29.7812500000,3,1.0324399471,,,
29.7968750000,3,1.2396240234,,,
29.8125000000,3,1.2261660099,,,
29.8281250000,3,1.0670169592,,,
29.8437500000,3,0.8589171767,,,
29.8593750000,3,0.6981505752,,,
29.8750000000,3,0.6170043945,,,
29.8906250000,3,0.6080933213,,,
29.9062500000,3,0.6137084961,,,
29.9218750000,3,0.5807800293,,,
29.9375000000,3,0.5081481934,,,
29.9531250000,3,0.4375916123,,,
29.9687500000,3,0.4534606934,,,
29.9843750000,3,0.6029052734,,,
30.0000000000,3,0.8782349229,,,
30.0156250000,3,1.1714479923,,,
30.0312500000,3,1.3565670252,,,
30.0468750000,3,1.3442989588,,,
30.0625000000,3,1.1369930506,,,
30.0781250000,3,0.8603820801,,,
30.0937500000,3,0.6583557129,,,
30.1093750000,3,0.6548156738,,,
30.1250000000,3,0.8355103135,,,
30.1406250000,3,1.0820009708,,,
30.1562500000,3,1.2019350529,,,
30.1718750000,3,1.0537110567,,,
30.1875000000,3,0.6119995117,,,
30.2031250000,3,-0.0088806152,,,
30.2187500000,3,-0.6109923720,,,
30.2343750000,3,-1.0027470589,,,
30.2500000000,3,-1.0860290527,,,
30.2656250000,3,-0.8850402832,,,
30.2812500000,3,-0.4882507026,,,
30.2968750000,3,0.0076293950,,,
30.3125000000,3,0.5552368164,,,
30.3281250000,3,1.1428829432,,,
30.3437500000,3,1.7546390295,,,
30.3593750000,3,2.3219599724,,,
30.3750000000,3,2.7162480354,,,
30.3906250000,3,2.8016970158,,,
30.4062500000,3,2.5025939941,,,
30.4218750000,3,1.8754880428,,,
30.4375000000,3,1.1262209415,,,
30.4531250000,3,0.5110474229,,,
30.4687500000,3,0.2210693061,,,
30.4843750000,3,0.2899169922,,,
30.5000000000,3,0.6073607802,,,
30.5156250000,3,0.9560546875,,,
30.5312500000,3,1.1469730139,,,
30.5468750000,3,1.0873409510,,,
30.5625000000,3,0.7921143174,,,
30.5781250000,3,0.3496094048,,,
30.5937500000,3,-0.1475525051,,,
30.6093750000,3,-0.5921326280,,,
30.6250000000,3,-0.9034729004,,,
30.6406250000,3,-0.9863281250,,,
30.6562500000,3,-0.7817687988,,,
30.6718750000,3,-0.2834778130,,,
30.6875000000,3,0.3988037109,,,
30.7031250000,3,1.1076049805,,,
30.7187500000,3,1.6335749626,,,
30.7343750000,3,1.8614200354,,,
30.7500000000,3,1.7588809729,,,
30.7656250000,3,1.3692020178,,,
30.7812500000,3,0.7884520888,,,
30.7968750000,3,0.0956420898,,,
30.8125000000,3,-0.6201171875,,,
30.8281250000,3,-1.2478029728,,,
30.8437500000,3,-1.6518249512,,,
30.8593750000,3,-1.7110600471,,,
30.8750000000,3,-1.4011230469,,,
30.8906250000,3,-0.8223876953,,,
30.9062500000,3,-0.1838379055,,,
30.9218750000,3,0.2920837104,,,
30.9375000000,3,0.4876404107,,,
30.9531250000,3,0.4570007026,,,
30.9687500000,3,0.3659667969,,,
30.9843750000,3,0.3661499023,,,
31.0000000000,3,0.5186768174,,,
31.0156250000,3,0.7311707139,,,
31.0312500000,3,0.8566895127,,,
31.0468750000,3,0.7806702256,,,
31.0625000000,3,0.4940186143,,,
31.0781250000,3,0.0772094727,,,
31.0937500000,3,-0.3434753120,,,
31.1093750000,3,-0.6813353896,,,
31.1250000000,3,-0.9222717285,,,
31.1406250000,3,-1.1078490019,,,
31.1562500000,3,-1.2976069450,,,
31.1718750000,3,-1.5046999454,,,
31.1875000000,3,-1.6984560490,,,
31.2031250000,3,-1.8017879725,,,
31.2187500000,3,-1.7375179529,,,
31.2343750000,3,-1.4790339470,,,
31.2500000000,3,-1.0695799589,,,
31.2656250000,3,-0.6231995225,,,
31.2812500000,3,-0.2783203125,,,
31.2968750000,3,-0.1330565959,,,
31.3125000000,3,-0.1800841987,,,
31.3281250000,3,-0.3285216987,,,
31.3437500000,3,-0.4399414063,,,
31.3593750000,3,-0.4085999131,,,
31.3750000000,3,-0.2259826958,,,
31.3906250000,3,0.0378723107,,,
31.4062500000,3,0.2676086128,,,
31.4218750000,3,0.3894957900,,,
31.4375000000,3,0.3506165147,,,
31.4531250000,3,0.1782837063,,,
31.4687500000,3,-0.1211853027,,,
31.4843750000,3,-0.5138245225,,,
31.5000000000,3,-0.9556273818,,,
31.5156250000,3,-1.3800050020,,,
31.5312500000,3,-1.6840820313,,,
31.5468750000,3,-1.7890629768,,,
31.5625000000,3,-1.6678769588,,,
31.5781250000,3,-1.3951419592,,,
31.5937500000,3,-1.0562440157,,,
31.6093750000,3,-0.7614135742,,,
31.6250000000,3,-0.5534362793,,,
31.6406250000,3,-0.4338074028,,,
31.6562500000,3,-0.3840332031,,,
31.6718750000,3,-0.3924255073,,,
31.6875000000,3,-0.4583129883,,,
31.7031250000,3,-0.5946350098,,,
31.7187500000,3,-0.7831420898,,,
31.7343750000,3,-1.0024410486,,,
31.7500000000,3,-1.2248539925,,,
31.7656250000,3,-1.4307249784,,,
31.7812500000,3,-1.5949709415,,,
31.7968750000,3,-1.6674799919,,,
31.8125000000,3,-1.5870360136,,,
31.8281250000,3,-1.3257449865,,,
31.8437500000,3,-0.9223021865,,,
31.8593750000,3,-0.4951781929,,,
31.8750000000,3,-0.1875000000,,,
31.8906250000,3,-0.0938720703,,,
31.9062500000,3,-0.1971130073,,,
31.9218750000,3,-0.3559874892,,,
31.9375000000,3,-0.3888550103,,,
31.9531250000,3,-0.1502991021,,,
31.9687500000,3,0.3695374131,,,
31.9843750000,3,1.0642089844,,,
32.0000000000,4,1.7559510469,,,
32.0156250000,4,2.2725219727,,,
32.0312500000,4,2.4958190918,,,
32.0468750000,4,2.3958740234,,,
32.0625000000,4,2.0050349236,,,
32.0781250000,4,1.4099119902,,,
32.0937500000,4,0.7309265137,,,
32.1093750000,4,0.1150207967,,,
32.1250000000,4,-0.3350830078,,,
32.1406250000,4,-0.5589600205,,,
32.1562500000,4,-0.5697631836,,,
32.1718750000,4,-0.4584960938,,,
32.1875000000,4,-0.3407287896,,,
32.2031250000,4,-0.3041687012,,,
32.2187500000,4,-0.3470458984,,,
32.2343750000,4,-0.3942871094,,,
32.2500000000,4,-0.3103333116,,,
32.2656250000,4,-0.0123901404,,,
32.2812500000,4,0.5020446777,,,
32.2968750000,4,1.1064449549,,,
32.3125000000,4,1.6146240234,,,
32.3281250000,4,1.8430479765,,,
32.3437500000,4,1.7112729549,,,
32.3593750000,4,1.2691650391,,,
32.3750000000,4,0.6893311143,,,
32.3906250000,4,0.1581421047,,,
32.4062500000,4,-0.2033997029,,,
32.4218750000,4,-0.4053955078,,,
32.4375000000,4,-0.5469359756,,,
32.4531250000,4,-0.7432556152,,,
32.4687500000,4,-1.0528260469,,,
32.4843750000,4,-1.4113160372,,,
32.5000000000,4,-1.7155460119,,,
32.5156250000,4,-1.8681950569,,,
32.5312500000,4,-1.8457640409,,,
32.5468750000,4,-1.7073669434,,,
32.5625000000,4,-1.5398559570,,,
32.5781250000,4,-1.3880620003,,,
32.5937500000,4,-1.2265930176,,,
32.6093750000,4,-0.9688109756,,,
32.6250000000,4,-0.5499572754,,,
32.6406250000,4,0.0181884803,,,
32.6562500000,4,0.6401671767,,,
32.6718750000,4,1.1856689453,,,
32.6875000000,4,1.5375980139,,,
32.7031250000,4,1.6888430119,,,
32.7187500000,4,1.6844179630,,,
32.7343750000,4,1.6254880428,,,
32.7500000000,4,1.5797419548,,,
32.7656250000,4,1.5414429903,,,
32.7812500000,4,1.4595340490,,,
32.7968750000,4,1.2602540255,,,
32.8125000000,4,0.9199218750,,,
32.8281250000,4,0.4835509956,,,
32.8437500000,4,0.0711059570,,,
32.8593750000,4,-0.2128296047,,,
32.8750000000,4,-0.2971191108,,,
32.8906250000,4,-0.2028197944,,,
32.9062500000,4,-0.0078125000,,,
32.9218750000,4,0.2099304050,,,
32.9375000000,4,0.4031372070,,,
32.9531250000,4,0.5518187881,,,
32.9687500000,4,0.6588745117,,,
32.9843750000,4,0.7233886719,,,
33.0000000000,4,0.7322083116,,,
33.0156250000,4,0.6676331162,,,
33.0312500000,4,0.5364685059,,,
33.0468750000,4,0.3677979112,,,
33.0625000000,4,0.1973876953,,,
33.0781250000,4,0.0496826209,,,
33.0937500000,4,-0.0572509803,,,
33.1093750000,4,-0.1454468071,,,
33.1250000000,4,-0.2163695991,,,
33.1406250000,4,-0.2681579888,,,
33.1562500000,4,-0.2675170898,,,
33.1718750000,4,-0.1820679009,,,
33.1875000000,4,-0.0016174320,,,
33.2031250000,4,0.2651978135,,,
33.2187500000,4,0.5542603135,,,
33.2343750000,4,0.7975769043,,,
33.2500000000,4,0.9321289063,,,
33.2656250000,4,0.9153137207,,,
33.2812500000,4,0.7381896973,,,
33.2968750000,4,0.4456787109,,,
33.3125000000,4,0.1022948995,,,
33.3281250000,4,-0.2167357951,,,
33.3437500000,4,-0.4519348145,,,
33.3593750000,4,-0.5955200195,,,
33.3750000000,4,-0.6596984863,,,
33.3906250000,4,-0.6857910156,,,
33.4062500000,4,-0.7171630859,,,
33.4218750000,4,-0.7555847168,,,
33.4375000000,4,-0.7641295791,,,
33.4531250000,4,-0.6915283203,,,
33.4687500000,4,-0.4951781929,,,
33.4843750000,4,-0.1679992974,,,
33.5000000000,4,0.2406920940,,,
33.5156250000,4,0.6270751953,,,
33.5312500000,4,0.8966674805,,,
33.5468750000,4,0.9988707900,,,
33.5625000000,4,0.9432373047,,,
33.5781250000,4,0.8012084961,,,
33.5937500000,4,0.6886597276,,,
33.6093750000,4,0.7029113770,,,
33.6250000000,4,0.8953247070,,,
33.6406250000,4,1.2220150232,,,
33.6562500000,4,1.5563960075,,,
33.6718750000,4,1.7201839685,,,
33.6875000000,4,1.5727540255,,,
33.7031250000,4,1.0811460018,,,
33.7187500000,4,0.3306885064,,,
33.7343750000,4,-0.4903869927,,,
33.7500000000,4,-1.1569520235,,,
33.7656250000,4,-1.4988709688,,,
33.7812500000,4,-1.4576719999,,,
33.7968750000,4,-1.0904539824,,,
33.8125000000,4,-0.5451354980,,,
33.8281250000,4,0.0087585449,,,
33.8437500000,4,0.4487609863,,,
33.8593750000,4,0.7172241211,,,
33.8750000000,4,0.8190612793,,,
33.8906250000,4,0.8012999892,,,
33.9062500000,4,0.7135314941,,,
33.9218750000,4,0.6227111816,,,
33.9375000000,4,0.5774840713,,,
33.9531250000,4,0.6192017198,,,
33.9687500000,4,0.7409058213,,,
33.9843750000,4,0.8874511719,,,
34.0000000000,4,0.9859923720,,,
34.0156250000,4,0.9648743272,,,
34.0312500000,4,0.8320006728,,,
34.0468750000,4,0.6364440918,,,
34.0625000000,4,0.4594115913,,,
34.0781250000,4,0.3457641900,,,
34.0937500000,4,0.2572020888,,,
34.1093750000,4,0.0847167969,,,
34.1250000000,4,-0.2300720066,,,
34.1406250000,4,-0.6306151748,,,
34.1562500000,4,-0.9250183105,,,
34.1718750000,4,-0.8956298828,,,
34.1875000000,4,-0.4571228027,,,
34.2031250000,4,0.2594909966,,,
34.2187500000,4,0.9629821777,,,
34.2343750000,4,1.3516240120,,,
34.2500000000,4,1.2867740393,,,
34.2656250000,4,0.8300781250,,,
34.2812500000,4,0.1549683064,,,
34.2968750000,4,-0.5675354004,,,
34.3125000000,4,-1.2736510038,,,
34.3281250000,4,-1.9563289881,,,
34.3437500000,4,-2.5809628963,,,
34.3593750000,4,-3.0202031136,,,
34.3750000000,4,-3.1281740665,,,
34.3906250000,4,-2.8366999626,,,
34.4062500000,4,-2.2305600643,,,
34.4218750000,4,-1.5362550020,,,
34.4375000000,4,-1.0070190430,,,
34.4531250000,4,-0.7705078125,,,
34.4687500000,4,-0.7902832031,,,
34.4843750000,4,-0.9280396104,,,
34.5000000000,4,-1.0352779627,,,
34.5156250000,4,-1.0559389591,,,
34.5312500000,4,-0.9915161133,,,
34.5468750000,4,-0.8722534180,,,
34.5625000000,4,-0.7049254775,,,
34.5781250000,4,-0.4711914063,,,
34.5937500000,4,-0.1785888970,,,
34.6093750000,4,0.1161499023,,,
34.6250000000,4,0.3318786919,,,
34.6406250000,4,0.4201965034,,,
34.6562500000,4,0.3860167861,,,
34.6718750000,4,0.2991333008,,,
34.6875000000,4,0.2427673042,,,
34.7031250000,4,0.2551575005,,,
34.7187500000,4,0.3337402046,,,
34.7343750000,4,0.4714354873,,,
34.7500000000,4,0.6809998155,,,
34.7656250000,4,0.9861754775,,,
34.7812500000,4,1.3823239803,,,
34.7968750000,4,1.8021240234,,,
34.8125000000,4,2.1362299919,,,
34.8281250000,4,2.2650759220,,,
34.8437500000,4,2.1486508846,,,
34.8593750000,4,1.8531800508,,,
34.8750000000,4,1.5320429802,,,
34.8906250000,4,1.3129880428,,,
34.9062500000,4,1.2323909998,,,
34.9218750000,4,1.2091369629,,,
34.9375000000,4,1.0807800293,,,
34.9531250000,4,0.7223206162,,,
34.9687500000,4,0.1137695014,,,
34.9843750000,4,-0.6473693848,,,
35.0000000000,4,-1.3737180233,,,
35.0156250000,4,-1.8953549862,,,
35.0312500000,4,-2.1191709042,,,
35.0468750000,4,-2.0374760628,,,
35.0625000000,4,-1.7264709473,,,
35.0781250000,4,-1.2852480412,,,
35.0937500000,4,-0.8115844727,,,
35.1093750000,4,-0.3802489936,,,
35.1250000000,4,-0.0489196815,,,
35.1406250000,4,0.1767272949,,,
35.1562500000,4,0.3186646104,,,
35.1718750000,4,0.4297791123,,,
35.1875000000,4,0.5335999131,,,
35.2031250000,4,0.6273499131,,,
35.2187500000,4,0.6445006728,,,
35.2343750000,4,0.5008850098,,,
35.2500000000,4,0.1586304009,,,
35.2656250000,4,-0.3390198052,,,
35.2812500000,4,-0.8775023818,,,
35.2968750000,4,-1.3084110022,,,
35.3125000000,4,-1.5349119902,,,
35.3281250000,4,-1.5629580021,,,
35.3437500000,4,-1.4643249512,,,
35.3593750000,4,-1.3341059685,,,
35.3750000000,4,-1.1970210075,,,
35.3906250000,4,-1.0163569450,,,
35.4062500000,4,-0.7044982910,,,
35.4218750000,4,-0.2248229980,,,
35.4375000000,4,0.3864136040,,,
35.4531250000,4,1.0196529627,,,
35.4687500000,4,1.5541690588,,,
35.4843750000,4,1.9221800566,,,
35.5000000000,4,2.1381530762,,,
35.5156250000,4,2.2730100155,,,
35.5312500000,4,2.3903200626,,,
35.5468750000,4,2.4961850643,,,
35.5625000000,4,2.5352170467,,,
35.5781250000,4,2.4108889103,,,
35.5937500000,4,2.0664060116,,,
35.6093750000,4,1.5222469568,,,
35.6250000000,4,0.8442687988,,,
35.6406250000,4,0.1545104980,,,
35.6562500000,4,-0.4377135932,,,
35.6718750000,4,-0.8415526748,,,
35.6875000000,4,-1.0250849724,,,
35.7031250000,4,-1.0085140467,,,
35.7187500000,4,-0.8395385742,,,
35.7343750000,4,-0.5839539170,,,
35.7500000000,4,-0.3145447075,,,
35.7656250000,4,-0.0918273926,,,
35.7812500000,4,0.0278625507,,,
35.7968750000,4,0.0373535194,,,
35.8125000000,4,-0.0617370605,,,
35.8281250000,4,-0.2309570014,,,
35.8437500000,4,-0.4223937988,,,
35.8593750000,4,-0.6015930176,,,
35.8750000000,4,-0.7447814941,,,
35.8906250000,4,-0.8555297852,,,
35.9062500000,4,-0.9722899795,,,
35.9218750000,4,-1.1513060331,,,
35.9375000000,4,-1.4324339628,,,
35.9531250000,4,-1.8306879997,,,
35.9687500000,4,-2.2675778866,,,
35.9843750000,4,-2.6135859489,,,
36.0000000000,4,-2.7277219296,,,
36.0156250000,4,-2.5515439510,,,
36.0312500000,4,-2.1208500862,,,
36.0468750000,4,-1.5856319666,,,
36.0625000000,4,-1.0958249569,,,
36.0781250000,4,-0.7374877930,,,
36.0937500000,4,-0.4879761040,,,
36.1093750000,4,-0.2391051948,,,
36.1250000000,4,0.1192627028,,,
36.1406250000,4,0.6101989746,,,
36.1562500000,4,1.1534420252,,,
36.1718750000,4,1.6001280546,,,
36.1875000000,4,1.8570250273,,,
36.2031250000,4,1.9100949764,,,
36.2187500000,4,1.8403929472,,,
36.2343750000,4,1.7570799589,,,
36.2500000000,4,1.7346800566,,,
36.2656250000,4,1.7543950081,,,
36.2812500000,4,1.7462459803,,,
36.2968750000,4,1.6601560116,,,
36.3125000000,4,1.4934389591,,,
36.3281250000,4,1.3122860193,,,
36.3437500000,4,1.1970829964,,,
36.3593750000,4,1.1800839901,,,
36.3750000000,4,1.2036130428,,,
36.3906250000,4,1.1663210392,,,
36.4062500000,4,0.9567260742,,,
36.4218750000,4,0.5592041016,,,
36.4375000000,4,0.0544738807,,,
36.4531250000,4,-0.4065246880,,,
36.4687500000,4,-0.6841431260,,,
36.4843750000,4,-0.7300415039,,,
36.5000000000,4,-0.5814514160,,,
36.5156250000,4,-0.3229064941,,,
36.5312500000,4,0.0002441406,,,
36.5468750000,4,0.3688049018,,,
36.5625000000,4,0.7963867188,,,
36.5781250000,4,1.2558900118,,,
36.5937500000,4,1.6607359648,,,
36.6093750000,4,1.8819270134,,,
36.6250000000,4,1.8222349882,,,
36.6406250000,4,1.4877929688,,,
36.6562500000,4,0.9814453125,,,
36.6718750000,4,0.4652405083,,,
36.6875000000,4,0.0810852125,,,
36.7031250000,4,-0.1106567010,,,
36.7187500000,4,-0.1205139011,,,
36.7343750000,4,-0.0259399395,,,
36.7500000000,4,0.1151733026,,,
36.7656250000,4,0.2370299995,,,
36.7812500000,4,0.3248291016,,,
36.7968750000,4,0.3488770127,,,
36.8125000000,4,0.3218994141,,,
36.8281250000,4,0.2764587104,,,
36.8437500000,4,0.2595215142,,,
36.8593750000,4,0.2893677056,,,
36.8750000000,4,0.3435364068,,,
36.8906250000,4,0.3755798042,,,
36.9062500000,4,0.3125916123,,,
36.9218750000,4,0.1235046014,,,
36.9375000000,4,-0.1867980957,,,
36.9531250000,4,-0.5477905273,,,
36.9687500000,4,-0.8781738281,,,
36.9843750000,4,-1.1059269905,,,
37.0000000000,4,-1.1954350471,,,
37.0156250000,4,-1.1791690588,,,
37.0312500000,4,-1.1050109863,,,
37.0468750000,4,-1.0419009924,,,
37.0625000000,4,-1.0029300451,,,
37.0781250000,4,-0.9765015244,,,
37.0937500000,4,-0.9162598252,,,
37.1093750000,4,-0.7545166016,,,
37.1250000000,4,-0.4882813096,,,
37.1406250000,4,-0.1639403999,,,
37.1562500000,4,0.1024169996,,,
37.1718750000,4,0.2148742974,,,
37.1875000000,4,0.1595153958,,,
37.2031250000,4,0.0401001014,,,
37.2187500000,4,0.0088500977,,,
37.2343750000,4,0.1597290039,,,
37.2500000000,4,0.4496459961,,,
37.2656250000,4,0.7202147841,,,
37.2812500000,4,0.8073120117,,,
37.2968750000,4,0.6537780762,,,
37.3125000000,4,0.3831481934,,,
37.3281250000,4,0.1845397949,,,
37.3437500000,4,0.2164611965,,,
37.3593750000,4,0.4423522949,,,
37.3750000000,4,0.6771851182,,,
37.3906250000,4,0.6815186143,,,
37.4062500000,4,0.3461608887,,,
37.4218750000,4,-0.2369385064,,,
37.4375000000,4,-0.8229064941,,,
37.4531250000,4,-1.1636049747,,,
37.4687500000,4,-1.1588749886,,,
37.4843750000,4,-0.9243469238,,,
37.5000000000,4,-0.6907349229,,,
37.5156250000,4,-0.6628417969,,,
37.5312500000,4,-0.9194335938,,,
37.5468750000,4,-1.3800660372,,,
37.5625000000,4,-1.8876949549,,,
37.5781250000,4,-2.2882080078,,,
37.5937500000,4,-2.5230710506,,,
37.6093750000,4,-2.6009829044,,,
37.6250000000,4,-2.5545649529,,,
37.6406250000,4,-2.4067690372,,,
37.6562500000,4,-2.1560060978,,,
37.6718750000,4,-1.8107299805,,,
37.6875000000,4,-1.4203799963,,,
37.7031250000,4,-1.0562740564,,,
37.7187500000,4,-0.7557982802,,,
37.7343750000,4,-0.4640808105,,,
37.7500000000,4,-0.0650024414,,,
37.7656250000,4,0.5744323730,,,
37.7812500000,4,1.4595949650,,,
37.7968750000,4,2.4440610409,,,
37.8125000000,4,3.2602229118,,,
37.8281250000,4,3.6540529728,,,
37.8437500000,4,3.5212709904,,,
37.8593750000,4,2.9445190430,,,
37.8750000000,4,2.1667180061,,,
37.8906250000,4,1.4274899960,,,
37.9062500000,4,0.8856201172,,,
37.9218750000,4,0.5529479980,,,
37.9375000000,4,0.3479613960,,,
37.9531250000,4,0.1640625000,,,
37.9687500000,4,-0.0380859412,,,
37.9843750000,4,-0.2344360054,,,
38.0000000000,4,-0.3665466011,,,
38.0156250000,4,-0.3679198921,,,
38.0312500000,4,-0.2143860012,,,
38.0468750000,4,0.0812683105,,,
38.0625000000,4,0.4433288872,,,
38.0781250000,4,0.7794495225,,,
38.0937500000,4,0.9894713759,,,
38.1093750000,4,0.9900208116,,,
38.1250000000,4,0.7724608779,,,
38.1406250000,4,0.3627013862,,,
38.1562500000,4,-0.1433410943,,,
38.1718750000,4,-0.6287537217,,,
38.1875000000,4,-1.0141910315,,,
38.2031250000,4,-1.2612299919,,,
38.2187500000,4,-1.4210209846,,,
38.2343750000,4,-1.5639649630,,,
38.2500000000,4,-1.7674870491,,,
38.2656250000,4,-2.0362849236,,,
38.2812500000,4,-2.3042600155,,,
38.2968750000,4,-2.4765319824,,,
38.3125000000,4,-2.4585568905,,,
38.3281250000,4,-2.2216799259,,,
38.3437500000,4,-1.8164980412,,,
38.3593750000,4,-1.3014830351,,,
38.3750000000,4,-0.7210083008,,,
38.3906250000,4,-0.0795898363,,,
38.4062500000,4,0.5959777832,,,
38.4218750000,4,1.2238769531,,,
38.4375000000,4,1.6228640079,,,
38.4531250000,4,1.6252139807,,,
38.4687500000,4,1.1758420467,,,
38.4843750000,4,0.4396362007,,,
38.5000000000,4,-0.2597045898,,,
38.5156250000,4,-0.5890808105,,,
38.5312500000,4,-0.3863525093,,,
38.5468750000,4,0.2467346042,,,
38.5625000000,4,0.9883728027,,,
38.5781250000,4,1.4989320040,,,
38.5937500000,4,1.6040040255,,,
38.6093750000,4,1.3717039824,,,
38.6250000000,4,1.0336910486,,,
38.6406250000,4,0.8241271973,,,
38.6562500000,4,0.8045043945,,,
38.6718750000,4,0.8718566895,,,
38.6875000000,4,0.8343811035,,,
38.7031250000,4,0.5758361816,,,
38.7187500000,4,0.1533813030,,,
38.7343750000,4,-0.2518616021,,,
38.7500000000,4,-0.4400329888,,,
38.7656250000,4,-0.3272399902,,,
38.7812500000,4,0.0354003906,,,
38.7968750000,4,0.4634399116,,,
38.8125000000,4,0.7784729004,,,
38.8281250000,4,0.8802185059,,,
38.8437500000,4,0.7713928223,,,
38.8593750000,4,0.5429688096,,,
38.8750000000,4,0.2909241021,,,
38.8906250000,4,0.0585022010,,,
38.9062500000,4,-0.1613464057,,,
38.9218750000,4,-0.3988341987,,,
38.9375000000,4,-0.6843566895,,,
38.9531250000,4,-1.0123900175,,,
38.9687500000,4,-1.3196719885,,,
38.9843750000,4,-1.5222469568,,,
39.0000000000,4,-1.5448909998,,,
39.0156250000,4,-1.3308110237,,,
39.0312500000,4,-0.8938292861,,,
39.0468750000,4,-0.3034363091,,,
39.0625000000,4,0.3107604980,,,
39.0781250000,4,0.8116760254,,,
39.0937500000,4,1.0726619959,,,
39.1093750000,4,1.0680539608,,,
39.1250000000,4,0.8230286241,,,
39.1406250000,4,0.4459838867,,,
39.1562500000,4,0.0409545898,,,
39.1718750000,4,-0.3199158013,,,
39.1875000000,4,-0.6112365723,,,
39.2031250000,4,-0.8447266221,,,
39.2187500000,4,-1.0162960291,,,
39.2343750000,4,-1.1035770178,,,
39.2500000000,4,-1.0557249784,,,
39.2656250000,4,-0.8376770020,,,
39.2812500000,4,-0.4758911133,,,
39.2968750000,4,-0.0551147498,,,
39.3125000000,4,0.3491210938,,,
39.3281250000,4,0.6931763291,,,
39.3437500000,4,1.0116579533,,,
39.3593750000,4,1.3914179802,,,
39.3750000000,4,1.8869630098,,,
39.3906250000,4,2.4431149960,,,
39.4062500000,4,2.9149479866,,,
39.4218750000,4,3.1245419979,,,
39.4375000000,4,2.9667050838,,,
39.4531250000,4,2.4695429802,,,
39.4687500000,4,1.7982180119,,,
39.4843750000,4,1.1550290585,,,
39.5000000000,4,0.6798095703,,,
39.5156250000,4,0.3877868950,,,
39.5312500000,4,0.1980590969,,,
39.5468750000,4,-0.0062866211,,,
39.5625000000,4,-0.2926940918,,,
39.5781250000,4,-0.6077880859,,,
39.5937500000,4,-0.8230590820,,,
39.6093750000,4,-0.7955322266,,,
39.6250000000,4,-0.5114440918,,,
39.6406250000,4,-0.0703430176,,,
39.6562500000,4,0.3219909966,,,
39.6718750000,4,0.5062561035,,,
39.6875000000,4,0.4476929009,,,
39.7031250000,4,0.2843933105,,,
39.7187500000,4,0.2093811035,,,
39.7343750000,4,0.3658752143,,,
39.7500000000,4,0.7223510742,,,
39.7656250000,4,1.1107480526,,,
39.7812500000,4,1.3122559786,,,
39.7968750000,4,1.2202759981,,,
39.8125000000,4,0.8796386719,,,
39.8281250000,4,0.4451293945,,,
39.8437500000,4,0.0595092811,,,
39.8593750000,4,-0.2386475056,,,
39.8750000000,4,-0.5123596191,,,
39.8906250000,4,-0.8507996202,,,
39.9062500000,4,-1.2522579432,,,
39.9218750000,4,-1.6239620447,,,
39.9375000000,4,-1.8099980354,,,
39.9531250000,4,-1.7273559570,,,
39.9687500000,4,-1.4000550508,,,
39.9843750000,4,-0.9737548828,,,
40.0000000000,5,-0.6224365234,,,
40.0156250000,5,-0.4852904975,,,
40.0312500000,5,-0.5470581055,,,
40.0468750000,5,-0.6836547852,,,
40.0625000000,5,-0.7199401855,,,
40.0781250000,5,-0.5001220703,,,
40.0937500000,5,-0.0104980497,,,
40.1093750000,5,0.6405640244,,,
40.1250000000,5,1.2301030159,,,
40.1406250000,5,1.5426030159,,,
40.1562500000,5,1.4354859591,,,
40.1718750000,5,0.9598082900,,,
40.1875000000,5,0.2919921875,,,
40.2031250000,5,-0.3189086914,,,
40.2187500000,5,-0.6766356826,,,
40.2343750000,5,-0.7265015244,,,
40.2500000000,5,-0.5500488281,,,
40.2656250000,5,-0.3016357124,,,
40.2812500000,5,-0.1154175028,,,
40.2968750000,5,-0.0544738807,,,
40.3125000000,5,-0.1134949028,,,
40.3281250000,5,-0.2488403022,,,
40.3437500000,5,-0.4059143066,,,
40.3593750000,5,-0.5433654785,,,
40.3750000000,5,-0.6323242188,,,
40.3906250000,5,-0.6555786133,,,
40.4062500000,5,-0.6371459961,,,
40.4218750000,5,-0.6325684190,,,
40.4375000000,5,-0.7013549805,,,
40.4531250000,5,-0.8914185166,,,
40.4687500000,5,-1.1794430017,,,
40.4843750000,5,-1.4839479923,,,
40.5000000000,5,-1.6908260584,,,
40.5156250000,5,-1.7289730310,,,
40.5312500000,5,-1.6006469727,,,
40.5468750000,5,-1.3793640137,,,
40.5625000000,5,-1.1358640194,,,
40.5781250000,5,-0.8982849121,,,
40.5937500000,5,-0.6296386719,,,
40.6093750000,5,-0.2951354980,,,
40.6250000000,5,0.0909118727,,,
40.6406250000,5,0.4336242974,,,
40.6562500000,5,0.6135559082,,,
40.6718750000,5,0.5897521973,,,
40.6875000000,5,0.4166870117,,,
40.7031250000,5,0.2381896973,,,
40.7187500000,5,0.1878966987,,,
40.7343750000,5,0.3069762886,,,
40.7500000000,5,0.4953308105,,,
40.7656250000,5,0.5819396973,,,
40.7812500000,5,0.4337463081,,,
40.7968750000,5,0.0489807092,,,
40.8125000000,5,-0.4210815132,,,
40.8281250000,5,-0.7704772949,,,
40.8437500000,5,-0.8559569716,,,
40.8593750000,5,-0.6708374023,,,
40.8750000000,5,-0.3441162109,,,
40.8906250000,5,-0.0172424298,,,
40.9062500000,5,0.2225646973,,,
40.9218750000,5,0.3840332031,,,
40.9375000000,5,0.5222167969,,,
40.9531250000,5,0.6701964736,,,
40.9687500000,5,0.8074340820,,,
40.9843750000,5,0.8746032715,,,
41.0000000000,5,0.8500977159,,,
41.0156250000,5,0.7666625977,,,
41.0312500000,5,0.7101746202,,,
41.0468750000,5,0.7369384766,,,
41.0625000000,5,0.8349304199,,,
41.0781250000,5,0.8898314834,,,
41.0937500000,5,0.7594910264,,,
41.1093750000,5,0.3625487983,,,
41.1250000000,5,-0.2603760064,,,
41.1406250000,5,-0.9681395888,,,
41.1562500000,5,-1.5809329748,,,
41.1718750000,5,-1.9609069824,,,
41.1875000000,5,-2.0419309139,,,
41.2031250000,5,-1.8212280273,,,
41.2187500000,5,-1.3485109806,,,
41.2343750000,5,-0.7236632705,,,
41.2500000000,5,-0.0693054199,,,
41.2656250000,5,0.4701538086,,,
41.2812500000,5,0.7867736816,,,
41.2968750000,5,0.8263245225,,,
41.3125000000,5,0.6388854980,,,
41.3281250000,5,0.3206481934,,,
41.3437500000,5,0.0080871582,,,
41.3593750000,5,-0.1996154934,,,
41.3750000000,5,-0.2886962891,,,
41.3906250000,5,-0.3152770996,,,
41.4062500000,5,-0.3738403022,,,
41.4218750000,5,-0.5349730849,,,
41.4375000000,5,-0.8036804199,,,
41.4531250000,5,-1.0944819450,,,
41.4687500000,5,-1.2897640467,,,
41.4843750000,5,-1.2605589628,,,
41.5000000000,5,-0.9592285156,,,
41.5156250000,5,-0.4316101074,,,
41.5312500000,5,0.1683043987,,,
41.5468750000,5,0.6566162109,,,
41.5625000000,5,0.8910521865,,,
41.5781250000,5,0.8323975205,,,
41.5937500000,5,0.5777282715,,,
41.6093750000,5,0.2966003120,,,
41.6250000000,5,0.1592102051,,,
41.6406250000,5,0.2391356975,,,
41.6562500000,5,0.5028076172,,,
41.6718750000,5,0.8519592285,,,
41.6875000000,5,1.1545720100,,,
41.7031250000,5,1.3454899788,,,
41.7187500000,5,1.4319460392,,,
41.7343750000,5,1.4761350155,,,
41.7500000000,5,1.5336300135,,,
41.7656250000,5,1.6276550293,,,
41.7812500000,5,1.7112729549,,,
41.7968750000,5,1.7056579590,,,
41.8125000000,5,1.5529479980,,,
41.8281250000,5,1.2504580021,,,
41.8437500000,5,0.8841552734,,,
41.8593750000,5,0.6154479980,,,
41.8750000000,5,0.6057434082,,,
41.8906250000,5,0.9148864746,,,
41.9062500000,5,1.4743649960,,,
41.9218750000,5,2.0813291073,,,
41.9375000000,5,2.4874570370,,,
41.9531250000,5,2.5329899788,,,
41.9687500000,5,2.1875000000,,,
41.9843750000,5,1.5652159452,,,
42.0000000000,5,0.8316040039,,,
42.0156250000,5,0.1112366021,,,
42.0312500000,5,-0.5668640137,,,
42.0468750000,5,-1.2270510197,,,
42.0625000000,5,-1.8678590059,,,
42.0781250000,5,-2.4191589355,,,
42.0937500000,5,-2.7258911133,,,
42.1093750000,5,-2.6418759823,,,
42.1250000000,5,-2.1075739861,,,
42.1406250000,5,-1.2269899845,,,
42.1562500000,5,-0.2325133979,,,
42.1718750000,5,0.6233521104,,,
42.1875000000,5,1.1753230095,,,
42.2031250000,5,1.4013979435,,,
42.2187500000,5,1.4089970589,,,
42.2343750000,5,1.3555300236,,,
42.2500000000,5,1.3346250057,,,
42.2656250000,5,1.3606569767,,,
42.2812500000,5,1.3565369844,,,
42.2968750000,5,1.2243039608,,,
42.3125000000,5,0.9069213867,,,
42.3281250000,5,0.4047851861,,,
42.3437500000,5,-0.2337035984,,,
42.3593750000,5,-0.9329528809,,,
42.3750000000,5,-1.6195679903,,,
42.3906250000,5,-2.2174379826,,,
42.4062500000,5,-2.6517028809,,,
42.4218750000,5,-2.8340148926,,,
42.4375000000,5,-2.6610109806,,,
42.4531250000,5,-2.0537719727,,,
42.4687500000,5,-1.0189820528,,,
42.4843750000,5,0.3206787109,,,
42.5000000000,5,1.7326350212,,,
42.5156250000,5,2.9384770393,,,
42.5312500000,5,3.7232971191,,,
42.5468750000,5,3.9695129395,,,
42.5625000000,5,3.7126159668,,,
42.5781250000,5,3.0923459530,,,
42.5937500000,5,2.3272709846,,,
42.6093750000,5,1.6167910099,,,
42.6250000000,5,1.1360470057,,,
42.6406250000,5,0.9634094238,,,
42.6562500000,5,1.0436400175,,,
42.6718750000,5,1.2350460291,,,
42.6875000000,5,1.3473509550,,,
42.7031250000,5,1.2102359533,,,
42.7187500000,5,0.7646790147,,,
42.7343750000,5,0.0752258301,,,
42.7500000000,5,-0.6812438965,,,
42.7656250000,5,-1.3038640022,,,
42.7812500000,5,-1.6312259436,,,
42.7968750000,5,-1.5984499454,,,
42.8125000000,5,-1.2553709745,,,
42.8281250000,5,-0.7201538086,,,
42.8437500000,5,-0.1619873047,,,
42.8593750000,5,0.2551879883,,,
42.8750000000,5,0.3969115913,,,
42.8906250000,5,0.2238159031,,,
42.9062500000,5,-0.2226867974,,,
42.9218750000,5,-0.8195189834,,,
42.9375000000,5,-1.4154360294,,,
42.9531250000,5,-1.8931879997,,,
42.9687500000,5,-2.2108149529,,,
42.9843750000,5,-2.3733830452,,,
43.0000000000,5,-2.3977971077,,,
43.0156250000,5,-2.2867739201,,,
43.0312500000,5,-2.0353999138,,,
43.0468750000,5,-1.6780699492,,,
43.0625000000,5,-1.3121639490,,,
43.0781250000,5,-1.0704649687,,,
43.0937500000,5,-1.0438840389,,,
43.1093750000,5,-1.2093199492,,,
43.1250000000,5,-1.3980410099,,,
43.1406250000,5,-1.4017939568,,,
43.1562500000,5,-1.0798339844,,,
43.1718750000,5,-0.4699707031,,,
43.1875000000,5,0.2448730022,,,
43.2031250000,5,0.8269957900,,,
43.2187500000,5,1.1340939999,,,
43.2343750000,5,1.1767270565,,,
43.2500000000,5,1.0851140022,,,
43.2656250000,5,0.9882813096,,,
43.2812500000,5,0.9071350098,,,
43.2968750000,5,0.7672119141,,,
43.3125000000,5,0.4575805962,,,
43.3281250000,5,-0.0253601093,,,
43.3437500000,5,-0.5616760254,,,
43.3593750000,5,-0.9100646973,,,
43.3750000000,5,-0.8876953125,,,
43.3906250000,5,-0.4435119927,,,
43.4062500000,5,0.2638550103,,,
43.4218750000,5,0.9557189941,,,
43.4375000000,5,1.3916020393,,,
43.4531250000,5,1.4842530489,,,
43.4687500000,5,1.3190310001,,,
43.4843750000,5,1.0913699865,,,
43.5000000000,5,0.9545288086,,,
43.5156250000,5,0.9459229112,,,
43.5312500000,5,0.9465637207,,,
43.5468750000,5,0.8044127822,,,
43.5625000000,5,0.4213257134,,,
43.5781250000,5,-0.1510314941,,,
43.5937500000,5,-0.7507935166,,,
43.6093750000,5,-1.1898189783,,,
43.6250000000,5,-1.3720090389,,,
43.6406250000,5,-1.3332519531,,,
43.6562500000,5,-1.2248539925,,,
43.6718750000,5,-1.2106020451,,,
43.6875000000,5,-1.3590090275,,,
43.7031250000,5,-1.6338200569,,,
43.7187500000,5,-1.9149169922,,,
43.7343750000,5,-2.0883479118,,,
43.7500000000,5,-2.0934450626,,,
43.7656250000,5,-1.9667659998,,,
43.7812500000,5,-1.7775570154,,,
43.7968750000,5,-1.5863039494,,,
43.8125000000,5,-1.3894350529,,,
43.8281250000,5,-1.1450500488,,,
43.8437500000,5,-0.8190612793,,,
43.8593750000,5,-0.4234313965,,,
43.8750000000,5,-0.0421752892,,,
43.8906250000,5,0.2122803032,,,
43.9062500000,5,0.2478332967,,,
43.9218750000,5,0.0517883301,,,
43.9375000000,5,-0.2997437119,,,
43.9531250000,5,-0.6675109863,,,
43.9687500000,5,-0.9231873155,,,
43.9843750000,5,-0.9832152724,,,
44.0000000000,5,-0.8332520127,,,
44.0156250000,5,-0.5104064941,,,
44.0312500000,5,-0.0768127367,,,
44.0468750000,5,0.4078674018,,,
44.0625000000,5,0.8836669922,,,
44.0781250000,5,1.3076779842,,,
44.0937500000,5,1.6304930449,,,
44.1093750000,5,1.8472900391,,,
44.1250000000,5,1.9335629940,,,
44.1406250000,5,1.9063719511,,,
44.1562500000,5,1.7761230469,,,
44.1718750000,5,1.5694580078,,,
44.1875000000,5,1.3211059570,,,
44.2031250000,5,1.0863950253,,,
44.2187500000,5,0.9099121094,,,
44.2343750000,5,0.7900695801,,,
44.2500000000,5,0.6651917100,,,
44.2656250000,5,0.4334106147,,,
44.2812500000,5,0.0409545898,,,
44.2968750000,5,-0.4870299995,,,
44.3125000000,5,-1.0071719885,,,
44.3281250000,5,-1.3400570154,,,
44.3437500000,5,-1.3688659668,,,
44.3593750000,5,-1.1032710075,,,
44.3750000000,5,-0.6533203125,,,
44.3906250000,5,-0.1798401028,,,
44.4062500000,5,0.2160339057,,,
44.4218750000,5,0.5118408203,,,
44.4375000000,5,0.7272644043,,,
44.4531250000,5,0.8743895888,,,
44.4687500000,5,0.9369812012,,,
44.4843750000,5,0.8796386719,,,
44.5000000000,5,0.7193297744,,,
44.5156250000,5,0.5252379775,,,
44.5312500000,5,0.4109191895,,,
44.5468750000,5,0.4429320991,,,
44.5625000000,5,0.5853881836,,,
44.5781250000,5,0.6953125000,,,
44.5937500000,5,0.5935668945,,,
44.6093750000,5,0.2176818997,,,
44.6250000000,5,-0.3649596870,,,
44.6406250000,5,-0.9497374892,,,
44.6562500000,5,-1.3175660372,,,
44.6718750000,5,-1.3421629667,,,
44.6875000000,5,-1.0836490393,,,
44.7031250000,5,-0.7218933105,,,
44.7187500000,5,-0.4681395888,,,
44.7343750000,5,-0.4344482124,,,
44.7500000000,5,-0.6022338867,,,
44.7656250000,5,-0.8413391113,,,
44.7812500000,5,-1.0000309944,,,
44.7968750000,5,-0.9953917861,,,
44.8125000000,5,-0.8628540039,,,
44.8281250000,5,-0.6998596191,,,
44.8437500000,5,-0.5844116211,,,
44.8593750000,5,-0.5228270888,,,
44.8750000000,5,-0.4352416992,,,
44.8906250000,5,-0.2395935059,,,
44.9062500000,5,0.1344604045,,,
44.9218750000,5,0.6669312119,,,
44.9375000000,5,1.3157650232,,,
44.9531250000,5,2.0055239201,,,
44.9687500000,5,2.6603090763,,,
44.9843750000,5,3.2103579044,,,
45.0000000000,5,3.5923159122,,,
45.0156250000,5,3.7364199162,,,
45.0312500000,5,3.6048889160,,,
45.0468750000,5,3.2159729004,,,
45.0625000000,5,2.6598210335,,,
45.0781250000,5,2.0700380802,,,
45.0937500000,5,1.5891419649,,,
45.1093750000,5,1.2907099724,,,
45.1250000000,5,1.1435240507,,,
45.1406250000,5,1.0612790585,,,
45.1562500000,5,0.9141541123,,,
45.1718750000,5,0.6367797852,,,
45.1875000000,5,0.2299499959,,,
45.2031250000,5,-0.2381287068,,,
45.2187500000,5,-0.6845092773,,,
45.2343750000,5,-1.0137020350,,,
45.2500000000,5,-1.1783449650,,,
45.2656250000,5,-1.1586610079,,,
45.2812500000,5,-0.9868469238,,,
45.2968750000,5,-0.7020874023,,,
45.3125000000,5,-0.3949584961,,,
45.3281250000,5,-0.1356506050,,,
45.3437500000,5,-0.0145873995,,,
45.3593750000,5,-0.0840148926,,,
45.3750000000,5,-0.3527526855,,,
45.3906250000,5,-0.7845764160,,,
45.4062500000,5,-1.2850650549,,,
45.4218750000,5,-1.7370300293,,,
45.4375000000,5,-2.0102839470,,,
45.4531250000,5,-2.0240170956,,,
45.4687500000,5,-1.7621769905,,,
45.4843750000,5,-1.3077700138,,,
45.5000000000,5,-0.7989807129,,,
45.5156250000,5,-0.4014587104,,,
45.5312500000,5,-0.2048645020,,,
45.5468750000,5,-0.2244568020,,,
45.5625000000,5,-0.3930054009,,,
45.5781250000,5,-0.6063842773,,,
45.5937500000,5,-0.7373657227,,,
45.6093750000,5,-0.6821898818,,,
45.6250000000,5,-0.3735046089,,,
45.6406250000,5,0.2128905952,,,
45.6562500000,5,1.0060729980,,,
45.6718750000,5,1.8150629997,,,
45.6875000000,5,2.3914489746,,,
45.7031250000,5,2.4981379509,,,
45.7187500000,5,2.0286250114,,,
45.7343750000,5,1.0647579432,,,
45.7500000000,5,-0.1341858059,,,
45.7656250000,5,-1.2351989746,,,
45.7812500000,5,-1.9485470057,,,
45.7968750000,5,-2.1226201057,,,
45.8125000000,5,-1.7955019474,,,
45.8281250000,5,-1.1239930391,,,
45.8437500000,5,-0.3525084853,,,
45.8593750000,5,0.2956542969,,,
45.8750000000,5,0.6842957139,,,
45.8906250000,5,0.8040161133,,,
45.9062500000,5,0.7256165147,,,
45.9218750000,5,0.5791016221,,,
45.9375000000,5,0.4766541123,,,
45.9531250000,5,0.4383850098,,,
45.9687500000,5,0.4145202935,,,
45.9843750000,5,0.3544616997,,,
46.0000000000,5,0.2678528130,,,
46.0156250000,5,0.2330626994,,,
46.0312500000,5,0.3581542969,,,
46.0468750000,5,0.6923522949,,,
46.0625000000,5,1.1423950195,,,
46.0781250000,5,1.5224299431,,,
46.0937500000,5,1.6464229822,,,
46.1093750000,5,1.4741519690,,,
46.1250000000,5,1.1192020178,,,
46.1406250000,5,0.7634583116,,,
46.1562500000,5,0.5746154785,,,
46.1718750000,5,0.5930786133,,,
46.1875000000,5,0.7437438965,,,
46.2031250000,5,0.9074707031,,,
46.2187500000,5,1.0362550020,,,
46.2343750000,5,1.1268620491,,,
46.2500000000,5,1.2273249626,,,
46.2656250000,5,1.3314820528,,,
46.2812500000,5,1.3806760311,,,
46.2968750000,5,1.2730410099,,,
46.3125000000,5,0.9441223145,,,
46.3281250000,5,0.4150084853,,,
46.3437500000,5,-0.2042541951,,,
46.3593750000,5,-0.7843627930,,,
46.3750000000,5,-1.2471619844,,,
46.3906250000,5,-1.5692750216,,,
46.4062500000,5,-1.7935789824,,,
46.4218750000,5,-1.9638979435,,,
46.4375000000,5,-2.0557560921,,,
46.4531250000,5,-2.0182499886,,,
46.4687500000,5,-1.7752380371,,,
46.4843750000,5,-1.2999880314,,,
46.5000000000,5,-0.6211243272,,,
46.5156250000,5,0.1351318061,,,
46.5312500000,5,0.8222351074,,,
46.5468750000,5,1.3258359432,,,
46.5625000000,5,1.5834350586,,,
46.5781250000,5,1.6148380041,,,
46.5937500000,5,1.4574580193,,,
46.6093750000,5,1.1533809900,,,
46.6250000000,5,0.7319335938,,,
46.6406250000,5,0.2027893066,,,
46.6562500000,5,-0.4092406929,,,
46.6718750000,5,-1.0378420353,,,
46.6875000000,5,-1.6098630428,,,
46.7031250000,5,-2.0473330021,,,
46.7187500000,5,-2.3043520451,,,
46.7343750000,5,-2.3771669865,,,
46.7500000000,5,-2.2859799862,,,
46.7656250000,5,-2.0824580193,,,
46.7812500000,5,-1.7991640568,,,
46.7968750000,5,-1.4686280489,,,
46.8125000000,5,-1.1104129553,,,
46.8281250000,5,-0.7409973145,,,
46.8437500000,5,-0.3961791992,,,
46.8593750000,5,-0.1140746996,,,
46.8750000000,5,0.0763244629,,,
46.8906250000,5,0.1722106934,,,
46.9062500000,5,0.2210998982,,,
46.9218750000,5,0.2872008979,,,
46.9375000000,5,0.4244385064,,,
46.9531250000,5,0.6422119141,,,
46.9687500000,5,0.8873596191,,,
46.9843750000,5,1.0634460449,,,
47.0000000000,5,1.0877079964,,,
47.0156250000,5,0.9415587783,,,
47.0312500000,5,0.6681212783,,,
47.0468750000,5,0.3574219048,,,
47.0625000000,5,0.0889892578,,,
47.0781250000,5,-0.1260986030,,,
47.0937500000,5,-0.3277893066,,,
47.1093750000,5,-0.5851135254,,,
47.1250000000,5,-0.9393615723,,,
47.1406250000,5,-1.3754580021,,,
47.1562500000,5,-1.7891850471,,,
47.1718750000,5,-2.0371699333,,,
47.1875000000,5,-2.0087890625,,,
47.2031250000,5,-1.6672060490,,,
47.2187500000,5,-1.1320190430,,,
47.2343750000,5,-0.5995482802,,,
47.2500000000,5,-0.2722167969,,,
47.2656250000,5,-0.2565002143,,,
47.2812500000,5,-0.4869079888,,,
47.2968750000,5,-0.7833557129,,,
47.3125000000,5,-0.9479675293,,,
47.3281250000,5,-0.8929138184,,,
47.3437500000,5,-0.6889038086,,,
47.3593750000,5,-0.5009155273,,,
47.3750000000,5,-0.4866333008,,,
47.3906250000,5,-0.6926879883,,,
47.4062500000,5,-1.0343320370,,,
47.4218750000,5,-1.3625179529,,,
47.4375000000,5,-1.5429079533,,,
47.4531250000,5,-1.5348819494,,,
47.4687500000,5,-1.3576660156,,,
47.4843750000,5,-1.0679320097,,,
47.5000000000,5,-0.7152100205,,,
47.5156250000,5,-0.3245849907,,,
47.5312500000,5,0.0875549316,,,
47.5468750000,5,0.4946289063,,,
47.5625000000,5,0.8619995117,,,
47.5781250000,5,1.1581419706,,,
47.5937500000,5,1.3681639433,,,
47.6093750000,5,1.4763489962,,,
47.6250000000,5,1.4653320313,,,
47.6406250000,5,1.3043520451,,,
47.6562500000,5,0.9717711806,,,
47.6718750000,5,0.5044249892,,,
47.6875000000,5,0.0096130371,,,
47.7031250000,5,-0.3589478135,,,
47.7187500000,5,-0.4749450982,,,
47.7343750000,5,-0.2861633003,,,
47.7500000000,5,0.1529541016,,,
47.7656250000,5,0.7028809190,,,
47.7812500000,5,1.2001650333,,,
47.7968750000,5,1.5176700354,,,
47.8125000000,5,1.5925899744,,,
47.8281250000,5,1.4461359978,,,
47.8437500000,5,1.1495059729,,,
47.8593750000,5,0.7826538086,,,
47.8750000000,5,0.3958435059,,,
47.8906250000,5,0.0126342801,,,
47.9062500000,5,-0.3560180962,,,
47.9218750000,5,-0.6974182129,,,
47.9375000000,5,-0.9631041884,,,
47.9531250000,5,-1.0933229923,,,
47.9687500000,5,-1.0496829748,,,
47.9843750000,5,-0.8333740234,,,
48.0000000000,6,-0.5017395020,,,
48.0156250000,6,-0.1546325982,,,
48.0312500000,6,0.1292725056,,,
48.0468750000,6,0.3298949897,,,
48.0625000000,6,0.5018311143,,,
48.0781250000,6,0.7391356826,,,
48.0937500000,6,1.1168210506,,,
48.1093750000,6,1.6486819983,,,
48.1250000000,6,2.2701420784,,,
48.1406250000,6,2.8662109375,,,
48.1562500000,6,3.3021240234,,,
48.1718750000,6,3.4757390022,,,
48.1875000000,6,3.3311159611,,,
48.2031250000,6,2.8628230095,,,
48.2187500000,6,2.1235959530,,,
48.2343750000,6,1.2179570198,,,
48.2500000000,6,0.2859497070,,,
48.2656250000,6,-0.5478209853,,,
48.2812500000,6,-1.1759029627,,,
48.2968750000,6,-1.5501099825,,,
48.3125000000,6,-1.6773680449,,,
48.3281250000,6,-1.5989379883,,,
48.3437500000,6,-1.3753659725,,,
48.3593750000,6,-1.0633850098,,,
48.3750000000,6,-0.7480468750,,,
48.3906250000,6,-0.5197448730,,,
48.4062500000,6,-0.4518738091,,,
48.4218750000,6,-0.5553894043,,,
48.4375000000,6,-0.7286682129,,,
48.4531250000,6,-0.8035889268,,,
48.4687500000,6,-0.6414489746,,,
48.4843750000,6,-0.1856994927,,,
48.5000000000,6,0.4418030083,,,
48.5156250000,6,1.0319819450,,,
48.5312500000,6,1.3738709688,,,
48.5468750000,6,1.3796080351,,,
48.5625000000,6,1.1018069983,,,
48.5781250000,6,0.6976624131,,,
48.5937500000,6,0.3152466118,,,
48.6093750000,6,0.0107421903,,,
48.6250000000,6,-0.2401428074,,,
48.6406250000,6,-0.4944762886,,,
48.6562500000,6,-0.8139954209,,,
48.6718750000,6,-1.1817929745,,,
48.6875000000,6,-1.5523990393,,,
48.7031250000,6,-1.8567810059,,,
48.7187500000,6,-2.0198969841,,,
48.7343750000,6,-1.9785460234,,,
48.7500000000,6,-1.6656190157,,,
48.7656250000,6,-1.0781250000,,,
48.7812500000,6,-0.2711487114,,,
48.7968750000,6,0.6124572754,,,
48.8125000000,6,1.4172970057,,,
48.8281250000,6,1.9852290154,,,
48.8437500000,6,2.2469789982,,,
48.8593750000,6,2.2186579704,,,
48.8750000000,6,2.0110468864,,,
48.8906250000,6,1.7531739473,,,
48.9062500000,6,1.5559389591,,,
48.9218750000,6,1.4317929745,,,
48.9375000000,6,1.3247679472,,,
48.9531250000,6,1.1473389864,,,
48.9687500000,6,0.8323668838,,,
48.9843750000,6,0.4434204102,,,
49.0000000000,6,0.1268310994,,,
49.0156250000,6,0.0675964430,,,
49.0312500000,6,0.3385620117,,,
49.0468750000,6,0.8613585830,,,
49.0625000000,6,1.3891910315,,,
49.0781250000,6,1.6419069767,,,
49.0937500000,6,1.4851989746,,,
49.1093750000,6,0.9887694716,,,
49.1250000000,6,0.4349060059,,,
49.1406250000,6,0.1373901069,,,
49.1562500000,6,0.2564086914,,,
49.1718750000,6,0.7300720215,,,
49.1875000000,6,1.2917180061,,,
49.2031250000,6,1.6469730139,,,
49.2187500000,6,1.6335450411,,,
49.2343750000,6,1.2998050451,,,
49.2500000000,6,0.8160706162,,,
49.2656250000,6,0.3816223145,,,
49.2812500000,6,0.0912170410,,,
49.2968750000,6,-0.1109924018,,,
49.3125000000,6,-0.3629761040,,,
49.3281250000,6,-0.7889708877,,,
49.3437500000,6,-1.4078060389,,,
49.3593750000,6,-2.1082460880,,,
49.3750000000,6,-2.6935729980,,,
49.3906250000,6,-2.9924929142,,,
49.4062500000,6,-2.8949890137,,,
49.4218750000,6,-2.4465029240,,,
49.4375000000,6,-1.7725520134,,,
49.4531250000,6,-1.0689090490,,,
49.4687500000,6,-0.4904175103,,,
49.4843750000,6,-0.1347351074,,,
49.5000000000,6,0.0184326209,,,
49.5156250000,6,0.0545349084,,,
49.5312500000,6,0.0782470703,,,
49.5468750000,6,0.1862792969,,,
49.5625000000,6,0.4104309082,,,
49.5781250000,6,0.7191162109,,,
49.5937500000,6,1.0209350586,,,
49.6093750000,6,1.2011719942,,,
49.6250000000,6,1.1527709961,,,
49.6406250000,6,0.8639525771,,,
49.6562500000,6,0.4257202148,,,
49.6718750000,6,0.0317993201,,,
49.6875000000,6,-0.1270751953,,,
49.7031250000,6,0.0356140099,,,
49.7187500000,6,0.4572449028,,,
49.7343750000,6,0.9532775879,,,
49.7500000000,6,1.3119200468,,,
49.7656250000,6,1.4103089571,,,
49.7812500000,6,1.2898559570,,,
49.7968750000,6,1.0873110294,,,
49.8125000000,6,0.9427185059,,,
49.8281250000,6,0.9099730849,,,
49.8437500000,6,0.9130554199,,,
49.8593750000,6,0.8508911133,,,
49.8750000000,6,0.6853026748,,,
49.8906250000,6,0.4625244141,,,
49.9062500000,6,0.2576293945,,,
49.9218750000,6,0.1045532003,,,
49.9375000000,6,-0.0463867188,,,
49.9531250000,6,-0.3065795898,,,
49.9687500000,6,-0.7281188965,,,
49.9843750000,6,-1.2616579533,,,
50.0000000000,6,-1.7454220057,,,
50.0156250000,6,-1.9887700081,,,
50.0312500000,6,-1.8830870390,,,
50.0468750000,6,-1.4621579647,,,
50.0625000000,6,-0.9019470215,,,
50.0781250000,6,-0.4442749023,,,
50.0937500000,6,-0.2868958116,,,
50.1093750000,6,-0.4582214057,,,
50.1250000000,6,-0.8560181260,,,
50.1406250000,6,-1.2776180506,,,
50.1562500000,6,-1.5437619686,,,
50.1718750000,6,-1.5891109705,,,
50.1875000000,6,-1.4892879725,,,
50.2031250000,6,-1.4129329920,,,
50.2187500000,6,-1.4995119572,,,
50.2343750000,6,-1.7897030115,,,
50.2500000000,6,-2.1879580021,,,
50.2656250000,6,-2.5242309570,,,
50.2812500000,6,-2.6371769905,,,
50.2968750000,6,-2.5012819767,,,
50.3125000000,6,-2.1999208927,,,
50.3281250000,6,-1.8600460291,,,
50.3437500000,6,-1.5661009550,,,
50.3593750000,6,-1.2947690487,,,
50.3750000000,6,-0.9504699707,,,
50.3906250000,6,-0.4020996094,,,
50.4062500000,6,0.3836975098,,,
50.4218750000,6,1.3321839571,,,
50.4375000000,6,2.2358400822,,,
50.4531250000,6,2.8826289177,,,
50.4687500000,6,3.1144409180,,,
50.4843750000,6,2.9354250431,,,
50.5000000000,6,2.4900820255,,,
50.5156250000,6,1.9890749454,,,
50.5312500000,6,1.5799560547,,,
50.5468750000,6,1.2950739861,,,
50.5625000000,6,1.0210880041,,,
50.5781250000,6,0.6039428711,,,
50.5937500000,6,-0.0563354492,,,
50.6093750000,6,-0.9047241211,,,
50.6250000000,6,-1.7486269474,,,
50.6406250000,6,-2.3549799919,,,
50.6562500000,6,-2.5543520451,,,
50.6718750000,6,-2.2969059944,,,
50.6875000000,6,-1.6773380041,,,
50.7031250000,6,-0.8634337783,,,
50.7187500000,6,-0.0264282208,,,
50.7343750000,6,0.7022094727,,,
50.7500000000,6,1.2577819824,,,
50.7656250000,6,1.6123050451,,,
50.7812500000,6,1.7772829533,,,
50.7968750000,6,1.7637939453,,,
50.8125000000,6,1.5899959803,,,
50.8281250000,6,1.2688599825,,,
50.8437500000,6,0.8320313096,,,
50.8593750000,6,0.3513793945,,,
50.8750000000,6,-0.1047668010,,,
50.8906250000,6,-0.4759826958,,,
50.9062500000,6,-0.7390136719,,,
50.9218750000,6,-0.8874207139,,,
50.9375000000,6,-0.9428405762,,,
50.9531250000,6,-0.9115905762,,,
50.9687500000,6,-0.8150023818,,,
50.9843750000,6,-0.6703186035,,,
51.0000000000,6,-0.5096740723,,,
51.0156250000,6,-0.4025878906,,,
51.0312500000,6,-0.4124755859,,,
51.0468750000,6,-0.5641478896,,,
51.0625000000,6,-0.8123779297,,,
51.0781250000,6,-1.0293580294,,,
51.0937500000,6,-1.0948179960,,,
51.1093750000,6,-0.9452819824,,,
51.1250000000,6,-0.6064453125,,,
51.1406250000,6,-0.1817017049,,,
51.1562500000,6,0.1960753947,,,
51.1718750000,6,0.4387207031,,,
51.1875000000,6,0.4978027046,,,
51.2031250000,6,0.3592224121,,,
51.2187500000,6,0.0421447791,,,
51.2343750000,6,-0.3782958984,,,
51.2500000000,6,-0.7554625869,,,
51.2656250000,6,-0.9010314941,,,
51.2812500000,6,-0.6572266221,,,
51.2968750000,6,-0.0023498540,,,
51.3125000000,6,0.9069519043,,,
51.3281250000,6,1.7647089958,,,
51.3437500000,6,2.2524719238,,,
51.3593750000,6,2.1745300293,,,
51.3750000000,6,1.6129759550,,,
51.3906250000,6,0.8405150771,,,
51.4062500000,6,0.1888733059,,,
51.4218750000,6,-0.1343383938,,,
51.4375000000,6,-0.1525879055,,,
51.4531250000,6,-0.0526428185,,,
51.4687500000,6,-0.0793762207,,,
51.4843750000,6,-0.3458251953,,,
51.5000000000,6,-0.8030701280,,,
51.5156250000,6,-1.2633969784,,,
51.5312500000,6,-1.5389100313,,,
51.5468750000,6,-1.5320429802,,,
51.5625000000,6,-1.2815550566,,,
51.5781250000,6,-0.8991394043,,,
51.5937500000,6,-0.4820250869,,,
51.6093750000,6,-0.0485839806,,,
51.6250000000,6,0.4538879097,,,
51.6406250000,6,1.0774840117,,,
51.6562500000,6,1.7788089514,,,
51.6718750000,6,2.3789670467,,,
51.6875000000,6,2.6543879509,,,
51.7031250000,6,2.4698789120,,,
51.7187500000,6,1.8657230139,,,
51.7343750000,6,1.0784909725,,,
51.7500000000,6,0.3837279975,,,
51.7656250000,6,-0.0750122070,,,
51.7812500000,6,-0.3389892876,,,
51.7968750000,6,-0.5797728896,,,
51.8125000000,6,-0.9428710938,,,
51.8281250000,6,-1.3968199492,,,
51.8437500000,6,-1.7478330135,,,
51.8593750000,6,-1.8039549589,,,
51.8750000000,6,-1.4848940372,,,
51.8906250000,6,-0.9198914170,,,
51.9062500000,6,-0.3025512993,,,
51.9218750000,6,0.2077026069,,,
51.9375000000,6,0.6283875108,,,
51.9531250000,6,1.0496519804,,,
51.9687500000,6,1.5235600471,,,
51.9843750000,6,1.9592900276,,,
52.0000000000,6,2.1574399471,,,
52.0156250000,6,1.9824830294,,,
52.0312500000,6,1.4760739803,,,
52.0468750000,6,0.8891602159,,,
52.0625000000,6,0.5173035264,,,
52.0781250000,6,0.5228577256,,,
52.0937500000,6,0.8130493164,,,
52.1093750000,6,1.0911560059,,,
52.1250000000,6,1.0500789881,,,
52.1406250000,6,0.5572205186,,,
52.1562500000,6,-0.2353210002,,,
52.1718750000,6,-1.0110780001,,,
52.1875000000,6,-1.4406429529,,,
52.2031250000,6,-1.3651119471,,,
52.2187500000,6,-0.9108886719,,,
52.2343750000,6,-0.3770447075,,,
52.2500000000,6,-0.0821228027,,,
52.2656250000,6,-0.1670836955,,,
52.2812500000,6,-0.5296021104,,,
52.2968750000,6,-0.8916320801,,,
52.3125000000,6,-0.9839478135,,,
52.3281250000,6,-0.7106627822,,,
52.3437500000,6,-0.2064819038,,,
52.3593750000,6,0.2614746094,,,
52.3750000000,6,0.4784851074,,,
52.3906250000,6,0.4078978896,,,
52.4062500000,6,0.1994324028,,,
52.4218750000,6,0.0521850586,,,
52.4375000000,6,0.1064148024,,,
52.4531250000,6,0.3373717964,,,
52.4687500000,6,0.6090393066,,,
52.4843750000,6,0.7638549805,,,
52.5000000000,6,0.7156981826,,,
52.5156250000,6,0.4959106147,,,
52.5312500000,6,0.2275085002,,,
52.5468750000,6,0.0674743727,,,
52.5625000000,6,0.1225890964,,,
52.5781250000,6,0.4200133979,,,
52.5937500000,6,0.8887938857,,,
52.6093750000,6,1.3679499626,,,
52.6250000000,6,1.6582640409,,,
52.6406250000,6,1.5789489746,,,
52.6562500000,6,1.0756230354,,,
52.6718750000,6,0.2243652046,,,
52.6875000000,6,-0.7581787109,,,
52.7031250000,6,-1.6223449707,,,
52.7187500000,6,-2.1726069450,,,
52.7343750000,6,-2.3317260742,,,
52.7500000000,6,-2.1482849121,,,
52.7656250000,6,-1.7359310389,,,
52.7812500000,6,-1.2303769588,,,
52.7968750000,6,-0.7264708877,,,
52.8125000000,6,-0.2845763862,,,
52.8281250000,6,0.0799560472,,,
52.8437500000,6,0.3931885064,,,
52.8593750000,6,0.7111815810,,,
52.8750000000,6,1.0693659782,,,
52.8906250000,6,1.4752500057,,,
52.9062500000,6,1.8728029728,,,
52.9218750000,6,2.1680600643,,,
52.9375000000,6,2.2623291016,,,
52.9531250000,6,2.1282041073,,,
52.9687500000,6,1.8217469454,,,
52.9843750000,6,1.4604190588,,,
53.0000000000,6,1.1657710075,,,
53.0156250000,6,1.0079649687,,,
53.0312500000,6,0.9792479873,,,
53.0468750000,6,0.9928894043,,,
53.0625000000,6,0.9545593262,,,
53.0781250000,6,0.7979431152,,,
53.0937500000,6,0.5191040039,,,
53.1093750000,6,0.1856994927,,,
53.1250000000,6,-0.0935363770,,,
53.1406250000,6,-0.2343444973,,,
53.1562500000,6,-0.1918334961,,,
53.1718750000,6,0.0228271503,,,
53.1875000000,6,0.3565979004,,,
53.2031250000,6,0.7053833008,,,
53.2187500000,6,0.9620972276,,,
53.2343750000,6,1.0289920568,,,
53.2500000000,6,0.8578186035,,,
53.2656250000,6,0.4594115913,,,
53.2812500000,6,-0.0826721191,,,
53.2968750000,6,-0.6395568848,,,
53.3125000000,6,-1.0849909782,,,
53.3281250000,6,-1.3503110409,,,
53.3437500000,6,-1.4611819983,,,
53.3593750000,6,-1.5086979866,,,
53.3750000000,6,-1.5843509436,,,
53.3906250000,6,-1.7239990234,,,
53.4062500000,6,-1.8690799475,,,
53.4218750000,6,-1.9047240019,,,
53.4375000000,6,-1.7497249842,,,
53.4531250000,6,-1.3868099451,,,
53.4687500000,6,-0.8809204102,,,
53.4843750000,6,-0.3404845893,,,
53.5000000000,6,0.1223450005,,,
53.5156250000,6,0.4598999023,,,
53.5312500000,6,0.6508178711,,,
53.5468750000,6,0.7315673828,,,
53.5625000000,6,0.7629699707,,,
53.5781250000,6,0.8156127930,,,
53.5937500000,6,0.9525145888,,,
53.6093750000,6,1.1805109978,,,
53.6250000000,6,1.4217220545,,,
53.6406250000,6,1.5473330021,,,
53.6562500000,6,1.4158329964,,,
53.6718750000,6,0.9767150879,,,
53.6875000000,6,0.3286742866,,,
53.7031250000,6,-0.3144226074,,,
53.7187500000,6,-0.6987609863,,,
53.7343750000,6,-0.6745300293,,,
53.7500000000,6,-0.2556762993,,,
53.7656250000,6,0.3576050103,,,
53.7812500000,6,0.9021605849,,,
53.7968750000,6,1.1695560217,,,
53.8125000000,6,1.1174930334,,,
53.8281250000,6,0.8809509277,,,
53.8437500000,6,0.6762694716,,,
53.8593750000,6,0.6512755752,,,
53.8750000000,6,0.8067932129,,,
53.8906250000,6,0.9818115234,,,
53.9062500000,6,0.9641724229,,,
53.9218750000,6,0.6176453233,,,
53.9375000000,6,-0.0158691406,,,
53.9531250000,6,-0.7473754883,,,
53.9687500000,6,-1.3256230354,,,
53.9843750000,6,-1.5807800293,,,
54.0000000000,6,-1.5030820370,,,
54.0156250000,6,-1.2111209631,,,
54.0312500000,6,-0.8919373155,,,
54.0468750000,6,-0.6870421767,,,
54.0625000000,6,-0.6372374892,,,
54.0781250000,6,-0.6934813857,,,
54.0937500000,6,-0.7774658203,,,
54.1093750000,6,-0.7897644043,,,
54.1250000000,6,-0.6980590820,,,
54.1406250000,6,-0.5035399795,,,
54.1562500000,6,-0.2538146973,,,
54.1718750000,6,0.0195007306,,,
54.1875000000,6,0.2785033882,,,
54.2031250000,6,0.4542236030,,,
54.2187500000,6,0.4476624131,,,
54.2343750000,6,0.1416016072,,,
54.2500000000,6,-0.5124511719,,,
54.2656250000,6,-1.4463809729,,,
54.2812500000,6,-2.4460449219,,,
54.2968750000,6,-3.2392580509,,,
54.3125000000,6,-3.5945739746,,,
54.3281250000,6,-3.4601140022,,,
54.3437500000,6,-2.9562380314,,,
54.3593750000,6,-2.3206179142,,,
54.3750000000,6,-1.7454220057,,,
54.3906250000,6,-1.2919919491,,,
54.4062500000,6,-0.8936157227,,,
54.4218750000,6,-0.4832457900,,,
54.4375000000,6,-0.0661010668,,,
54.4531250000,6,0.2463074028,,,
54.4687500000,6,0.3291321099,,,
54.4843750000,6,0.1376647949,,,
54.5000000000,6,-0.1907958984,,,
54.5156250000,6,-0.4558104873,,,
54.5312500000,6,-0.4888611138,,,
54.5468750000,6,-0.2975463867,,,
54.5625000000,6,-0.0414428711,,,
54.5781250000,6,0.0574951209,,,
54.5937500000,6,-0.1444091946,,,
54.6093750000,6,-0.5794982910,,,
54.6250000000,6,-1.0062259436,,,
54.6406250000,6,-1.1387330294,,,
54.6562500000,6,-0.8173217773,,,
54.6718750000,6,-0.0951538086,,,
54.6875000000,6,0.7849426270,,,
54.7031250000,6,1.5465699434,,,
54.7187500000,6,2.0097959042,,,
54.7343750000,6,2.2044980526,,,
54.7500000000,6,2.2783811092,,,
54.7656250000,6,2.4212648869,,,
54.7812500000,6,2.6768488884,,,
54.7968750000,6,2.9303588867,,,
54.8125000000,6,3.0003969669,,,
54.8281250000,6,2.7539980412,,,
54.8437500000,6,2.2397160530,,,
54.8593750000,6,1.6305240393,,,
54.8750000000,6,1.1426390409,,,
54.8906250000,6,0.8621215820,,,
54.9062500000,6,0.7223510742,,,
54.9218750000,6,0.5352478027,,,
54.9375000000,6,0.1583251953,,,
54.9531250000,6,-0.4158630073,,,
54.9687500000,6,-1.0511469841,,,
54.9843750000,6,-1.5861819983,,,
55.0000000000,6,-1.9321899414,,,
55.0156250000,6,-2.1141660213,,,
55.0312500000,6,-2.2219240665,,,
55.0468750000,6,-2.2845458984,,,
55.0625000000,6,-2.2263789177,,,
55.0781250000,6,-1.9495240450,,,
55.0937500000,6,-1.4301450253,,,
55.1093750000,6,-0.7986754775,,,
55.1250000000,6,-0.2926636040,,,
55.1406250000,6,-0.1256714016,,,
55.1562500000,6,-0.3385010064,,,
55.1718750000,6,-0.7802124023,,,
55.1875000000,6,-1.1701049805,,,
55.2031250000,6,-1.2922669649,,,
55.2187500000,6,-1.1074219942,,,
55.2343750000,6,-0.7444458008,,,
55.2500000000,6,-0.4238586128,,,
55.2656250000,6,-0.2755126953,,,
55.2812500000,6,-0.2996825874,,,
55.2968750000,6,-0.3701781929,,,
55.3125000000,6,-0.3480834961,,,
55.3281250000,6,-0.1677855998,,,
55.3437500000,6,0.1187743992,,,
55.3593750000,6,0.3792419136,,,
55.3750000000,6,0.5109863281,,,
55.3906250000,6,0.5021361709,,,
55.4062500000,6,0.4508362114,,,
55.4218750000,6,0.4943847954,,,
55.4375000000,6,0.7572631836,,,
55.4531250000,6,1.2641600370,,,
55.4687500000,6,1.9166259766,,,
55.4843750000,6,2.5484011173,,,
55.5000000000,6,2.9888000488,,,
55.5156250000,6,3.1360468864,,,
55.5312500000,6,2.9653320313,,,
55.5468750000,6,2.4885249138,,,
55.5625000000,6,1.7714229822,,,
55.5781250000,6,0.9096375108,,,
55.5937500000,6,0.0409545898,,,
55.6093750000,6,-0.6689453125,,,
55.6250000000,6,-1.0932919979,,,
55.6406250000,6,-1.1943969727,,,
55.6562500000,6,-1.0545959473,,,
55.6718750000,6,-0.8485106826,,,
55.6875000000,6,-0.7406616211,,,
55.7031250000,6,-0.8222656250,,,
55.7187500000,6,-1.0438539982,,,
55.7343750000,6,-1.2476500273,,,
55.7500000000,6,-1.2635190487,,,
55.7656250000,6,-0.9692993164,,,
55.7812500000,6,-0.3763732910,,,
55.7968750000,6,0.3819884956,,,
55.8125000000,6,1.0950930119,,,
55.8281250000,6,1.5592349768,,,
55.8437500000,6,1.6374820471,,,
55.8593750000,6,1.3132630587,,,
55.8750000000,6,0.6716918945,,,
55.8906250000,6,-0.1335753947,,,
55.9062500000,6,-0.9350891113,,,
55.9218750000,6,-1.6520689726,,,
55.9375000000,6,-2.2308959961,,,
55.9531250000,6,-2.6447749138,,,
55.9687500000,6,-2.8197329044,,,
55.9843750000,6,-2.6559751034,,,
56.0000000000,7,-2.0751039982,,,
56.0156250000,7,-1.0877380371,,,
56.0312500000,7,0.1389770955,,,
56.0468750000,7,1.3513180017,,,
56.0625000000,7,2.2888789177,,,
56.0781250000,7,2.8164370060,,,
56.0937500000,7,2.9274289608,,,
56.1093750000,7,2.7269589901,,,
56.1250000000,7,2.3396909237,,,
56.1406250000,7,1.8562320471,,,
56.1562500000,7,1.3141169548,,,
56.1718750000,7,0.7273864746,,,
56.1875000000,7,0.1490173042,,,
56.2031250000,7,-0.3354797065,,,
56.2187500000,7,-0.6363220215,,,
