Time:64Hz,Epoch,Channel 1,Event Id,Event Date,Event Duration
0.0000000000,0,-0.7152823806,,,
0.0156250000,0,-0.5825881958,,,
0.0312500000,0,-0.4060592949,,,
0.0468750000,0,-0.2550067902,,,
0.0625000000,0,-0.1921672970,,,
0.0781250000,0,-0.2361145020,,,
0.0937500000,0,-0.3529014885,,,
0.1093750000,0,-0.4656657875,,,
0.1250000000,0,-0.4847984016,,,
0.1406250000,0,-0.3677425086,,,
0.1562500000,0,-0.1371898949,,,
0.1718750000,0,0.1202640980,,,
0.1875000000,0,0.3081798851,,,
0.2031250000,0,0.3649081886,,,
0.2187500000,0,0.2851620018,,,
0.2343750000,0,0.1290874034,,,
0.2500000000,0,-0.0261535607,,,
0.2656250000,0,-0.1288394928,,,
0.2812500000,0,-0.1658153981,,,
0.2968750000,0,-0.1507606953,,,
0.3125000000,0,-0.1225852966,,,
0.3281250000,0,-0.1077689976,,,
0.3437500000,0,-0.1146029979,,,
0.3593750000,0,-0.1689338982,,,
0.3750000000,0,-0.2779617012,,,
0.3906250000,0,-0.4409790039,,,
0.4062500000,0,-0.6177235246,,,
0.4218750000,0,-0.7454319000,,,
0.4375000000,0,-0.7516670227,,,
0.4531250000,0,-0.6112403870,,,
0.4687500000,0,-0.3745174110,,,
0.4843750000,0,-0.1561356038,,,
0.5000000000,0,-0.0989208221,,,
0.5156250000,0,-0.2900963128,,,
0.5312500000,0,-0.7223988175,,,
0.5468750000,0,-1.2874029875,,,
0.5625000000,0,-1.8354380131,,,
0.5781250000,0,-2.2442131042,,,
0.5937500000,0,-2.4810349941,,,
0.6093750000,0,-2.5803029537,,,
0.6250000000,0,-2.5760838985,,,
0.6406250000,0,-2.4795629978,,,
0.6562500000,0,-2.2597560883,,,
0.6718750000,0,-1.8986660242,,,
0.6875000000,0,-1.4628889561,,,
0.7031250000,0,-1.0765459538,,,
0.7187500000,0,-0.8948460221,,,
0.7343750000,0,-0.9937744141,,,
0.7500000000,0,-1.3280869722,,,
0.7656250000,0,-1.7470649481,,,
0.7812500000,0,-2.0734651089,,,
0.7968750000,0,-2.1756730080,,,
0.8125000000,0,-2.0341279507,,,
0.8281250000,0,-1.6994299889,,,
0.8437500000,0,-1.2334690094,,,
0.8593750000,0,-0.6822928786,,,
0.8750000000,0,-0.0592632294,,,
0.8906250000,0,0.6183490753,,,
0.9062500000,0,1.3172739744,,,
0.9218750000,0,1.9808770418,,,
0.9375000000,0,2.5714778900,,,
0.9531250000,0,3.0852999687,,,
0.9687500000,0,3.5611670017,,,
0.9843750000,0,4.0472979546,,,
1.0000000000,0,4.5691008568,,,
1.0156250000,0,5.1024298668,,,
1.0312500000,0,5.5670552254,,,
1.0468750000,0,5.8429107666,,,
1.0625000000,0,5.8135280609,,,
1.0781250000,0,5.4349441528,,,
1.0937500000,0,4.7629199028,,,
1.1093750000,0,3.9682500362,,,
1.1250000000,0,3.2925989628,,,
1.1406250000,0,2.9164450169,,,
1.1562500000,0,2.8800320625,,,
1.1718750000,0,3.0398159027,,,
1.1875000000,0,3.1089711189,,,
1.2031250000,0,2.8328819275,,,
1.2187500000,0,2.1032559872,,,
1.2343750000,0,1.0291229486,,,
1.2500000000,0,-0.1344432980,,,
1.2656250000,0,-1.1253700256,,,
1.2812500000,0,-1.8102209568,,,
1.2968750000,0,-2.2089159489,,,
1.3125000000,0,-2.4383339882,,,
1.3281250000,0,-2.5872540474,,,
1.3437500000,0,-2.6618020535,,,
1.3593750000,0,-2.5884718895,,,
1.3750000000,0,-2.3081340790,,,
1.3906250000,0,-1.8589669466,,,
1.4062500000,0,-1.3797279596,,,
1.4218750000,0,-1.0662980080,,,
1.4375000000,0,-1.0429060459,,,
1.4531250000,0,-1.2924059629,,,
1.4687500000,0,-1.6609729528,,,
1.4843750000,0,-1.9493410587,,,
1.5000000000,0,-2.0305600166,,,
1.5156250000,0,-1.9027789831,,,
1.5312500000,0,-1.6638089418,,,
1.5468750000,0,-1.4567760229,,,
1.5625000000,0,-1.3727799654,,,
1.5781250000,0,-1.3926980495,,,
1.5937500000,0,-1.4379390478,,,
1.6093750000,0,-1.4181480408,,,
1.6250000000,0,-1.3024640083,,,
1.6406250000,0,-1.1457329988,,,
1.6562500000,0,-1.0271240473,,,
1.6718750000,0,-0.9992371202,,,
1.6875000000,0,-1.0588860512,,,
1.7031250000,0,-1.1461319923,,,
1.7187500000,0,-1.1861569881,,,
1.7343750000,0,-1.1506899595,,,
1.7500000000,0,-1.0345100164,,,
1.7656250000,0,-0.8470211029,,,
1.7812500000,0,-0.5864601135,,,
1.7968750000,0,-0.2347507030,,,
1.8125000000,0,0.1937503964,,,
1.8281250000,0,0.6314697266,,,
1.8437500000,0,0.9363707900,,,
1.8593750000,0,0.9881706238,,,
1.8750000000,0,0.7325000763,,,
1.8906250000,0,0.2440491021,,,
1.9062500000,0,-0.2829608917,,,
1.9218750000,0,-0.6546726227,,,
1.9375000000,0,-0.7634639740,,,
1.9531250000,0,-0.6314011216,,,
1.9687500000,0,-0.3707905114,,,
1.9843750000,0,-0.1190280989,,,
2.0000000000,0,0.0406837501,,,
2.0156250000,0,0.1039695963,,,
2.0312500000,0,0.1312332004,,,
2.0468750000,0,0.1847324073,,,
2.0625000000,0,0.2835102081,,,
2.0781250000,0,0.3966408074,,,
2.0937500000,0,0.4476718903,,,
2.1093750000,0,0.3744907081,,,
2.1250000000,0,0.1489201039,,,
2.1406250000,0,-0.1997050941,,,
2.1562500000,0,-0.5950241089,,,
2.1718750000,0,-0.9336776733,,,
2.1875000000,0,-1.1322150230,,,
2.2031250000,0,-1.1663490534,,,
2.2187500000,0,-1.0726089478,,,
2.2343750000,0,-0.9328364730,,,
2.2500000000,0,-0.8107224107,,,
2.2656250000,0,-0.7113456726,,,
2.2812500000,0,-0.5863667130,,,
2.2968750000,0,-0.3698750138,,,
2.3125000000,0,-0.0406951904,,,
2.3281250000,0,0.3632831872,,,
2.3437500000,0,0.7372168899,,,
2.3593750000,0,1.0012489557,,,
2.3750000000,0,1.1114939451,,,
2.3906250000,0,1.0826050043,,,
2.4062500000,0,0.9848784804,,,
2.4218750000,0,0.8754367828,,,
2.4375000000,0,0.7739676833,,,
2.4531250000,0,0.6599692702,,,
2.4687500000,0,0.5198975205,,,
2.4843750000,0,0.3768787086,,,
2.5000000000,0,0.3200092018,,,
2.5156250000,0,0.4479331970,,,
2.5312500000,0,0.7937049866,,,
2.5468750000,0,1.2815610170,,,
2.5625000000,0,1.7342239618,,,
2.5781250000,0,1.9664649963,,,
2.5937500000,0,1.8652739525,,,
2.6093750000,0,1.4655109644,,,
2.6250000000,0,0.9202498794,,,
2.6406250000,0,0.4221572876,,,
2.6562500000,0,0.1061343998,,,
2.6718750000,0,0.0039386749,,,
2.6875000000,0,0.0558509789,,,
2.7031250000,0,0.1619891971,,,
2.7187500000,0,0.2251567990,,,
2.7343750000,0,0.1941318959,,,
2.7500000000,0,0.0539874993,,,
2.7656250000,0,-0.1664810032,,,
2.7812500000,0,-0.4071026146,,,
2.7968750000,0,-0.5907477736,,,
2.8125000000,0,-0.6621075273,,,
2.8281250000,0,-0.6088942885,,,
2.8437500000,0,-0.4856261909,,,
2.8593750000,0,-0.3786354065,,,
2.8750000000,0,-0.3575992882,,,
2.8906250000,0,-0.4331702888,,,
2.9062500000,0,-0.5344429016,,,
2.9218750000,0,-0.5732917786,,,
2.9375000000,0,-0.4841003120,,,
2.9531250000,0,-0.2713127136,,,
2.9687500000,0,0.0129833203,,,
2.9843750000,0,0.2953166962,,,
3.0000000000,0,0.5063571930,,,
3.0156250000,0,0.5834980011,,,
3.0312500000,0,0.4834899902,,,
3.0468750000,0,0.1921195984,,,
3.0625000000,0,-0.2550106049,,,
3.0781250000,0,-0.7545185089,,,
3.0937500000,0,-1.1814819574,,,
3.1093750000,0,-1.4484690428,,,
3.1250000000,0,-1.5443120003,,,
3.1406250000,0,-1.5349390507,,,
3.1562500000,0,-1.4931930304,,,
3.1718750000,0,-1.4387509823,,,
3.1875000000,0,-1.2991009951,,,
3.2031250000,0,-0.9681320190,,,
3.2187500000,0,-0.3926067054,,,
3.2343750000,0,0.3725833893,,,
3.2500000000,0,1.1428890228,,,
3.2656250000,0,1.7044219971,,,
3.2812500000,0,1.9260770082,,,
3.2968750000,0,1.8178100586,,,
3.3125000000,0,1.5114970207,,,
3.3281250000,0,1.1710970402,,,
3.3437500000,0,0.8981475830,,,
3.3593750000,0,0.7056102753,,,
3.3750000000,0,0.5448132157,,,
3.3906250000,0,0.3660908043,,,
3.4062500000,0,0.1719398052,,,
3.4218750000,0,0.0186691303,,,
3.4375000000,0,-0.0298805200,,,
3.4531250000,0,0.0503501892,,,
3.4687500000,0,0.2111663967,,,
3.4843750000,0,0.3470078111,,,
3.5000000000,0,0.3719559014,,,
3.5156250000,0,0.2497767955,,,
3.5312500000,0,0.0151443500,,,
3.5468750000,0,-0.2374629974,,,
3.5625000000,0,-0.4156093895,,,
3.5781250000,0,-0.4786396027,,,
3.5937500000,0,-0.4552460015,,,
3.6093750000,0,-0.4159336090,,,
3.6250000000,0,-0.4217242897,,,
3.6406250000,0,-0.4818134010,,,
3.6562500000,0,-0.5411148071,,,
3.6718750000,0,-0.5304297805,,,
3.6875000000,0,-0.4064579010,,,
3.7031250000,0,-0.2156219035,,,
3.7187500000,0,-0.0628376007,,,
3.7343750000,0,-0.0377616882,,,
3.7500000000,0,-0.1714001000,,,
3.7656250000,0,-0.3976630867,,,
3.7812500000,0,-0.5889778137,,,
3.7968750000,0,-0.6501216888,,,
3.8125000000,0,-0.5700396895,,,
3.8281250000,0,-0.4310264885,,,
3.8437500000,0,-0.3439331055,,,
3.8593750000,0,-0.3665943146,,,
3.8750000000,0,-0.4572162926,,,
3.8906250000,0,-0.5081253052,,,
3.9062500000,0,-0.4365749061,,,
3.9218750000,0,-0.2408217937,,,
3.9375000000,0,-0.0280571003,,,
3.9531250000,0,0.0911045074,,,
3.9687500000,0,0.0779438019,,,
3.9843750000,0,-0.0038871770,,,
4.0000000000,0,-0.0293388404,,,
4.0156250000,0,0.1163749993,,,
4.0312500000,0,0.4333668053,,,
4.0468750000,0,0.8237361908,,,
4.0625000000,0,1.1522519588,,,
4.0781250000,0,1.3100969791,,,
4.0937500000,0,1.2496190071,,,
4.1093750000,0,0.9864044189,,,
4.1250000000,0,0.5598297119,,,
4.1406250000,0,0.0122814197,,,
4.1562500000,0,-0.5870532990,,,
4.1718750000,0,-1.1384489536,,,
4.1875000000,0,-1.5103399754,,,
4.2031250000,0,-1.6079850197,,,
4.2187500000,0,-1.4269709587,,,
4.2343750000,0,-1.0612050295,,,
4.2500000000,0,-0.6791362762,,,
4.2656250000,0,-0.4297848046,,,
4.2812500000,0,-0.3815765083,,,
4.2968750000,0,-0.4929409027,,,
4.3125000000,0,-0.6592159271,,,
4.3281250000,0,-0.7662677765,,,
4.3437500000,0,-0.7309207916,,,
4.3593750000,0,-0.5423964858,,,
4.3750000000,0,-0.2372608036,,,
4.3906250000,0,0.0982570574,,,
4.4062500000,0,0.3790512085,,,
4.4218750000,0,0.5389595032,,,
4.4375000000,0,0.5503922105,,,
4.4531250000,0,0.4323005974,,,
4.4687500000,0,0.2222328037,,,
4.4843750000,0,-0.0158653297,,,
4.5000000000,0,-0.2368984073,,,
4.5156250000,0,-0.3835048974,,,
4.5312500000,0,-0.4133014977,,,
4.5468750000,0,-0.3060073853,,,
4.5625000000,0,-0.0786705017,,,
4.5781250000,0,0.2067164928,,,
4.5937500000,0,0.4551543891,,,
4.6093750000,0,0.5696945190,,,
4.6250000000,0,0.5058001876,,,
4.6406250000,0,0.2671679854,,,
4.6562500000,0,-0.0633373335,,,
4.6718750000,0,-0.3821487129,,,
4.6875000000,0,-0.5988559723,,,
4.7031250000,0,-0.6773663163,,,
4.7187500000,0,-0.6256217957,,,
4.7343750000,0,-0.4789009094,,,
4.7500000000,0,-0.2734318078,,,
4.7656250000,0,-0.0037708280,,,
4.7812500000,0,0.3516331017,,,
4.7968750000,0,0.8424702287,,,
4.8125000000,0,1.4693640471,,,
4.8281250000,0,2.1817989349,,,
4.8437500000,0,2.8517549038,,,
4.8593750000,0,3.3146080971,,,
4.8750000000,0,3.4601800442,,,
4.8906250000,0,3.2623078823,,,
4.9062500000,0,2.8063740730,,,
4.9218750000,0,2.2316129208,,,
4.9375000000,0,1.6603319645,,,
4.9531250000,0,1.1567230225,,,
4.9687500000,0,0.7125071883,,,
4.9843750000,0,0.3006077111,,,
5.0000000000,0,-0.0880908966,,,
5.0156250000,0,-0.4133186042,,,
5.0312500000,0,-0.6030272841,,,
5.0468750000,0,-0.6048241258,,,
5.0625000000,0,-0.4283427894,,,
5.0781250000,0,-0.1681251973,,,
5.0937500000,0,0.0657463074,,,
5.1093750000,0,0.2066002041,,,
5.1250000000,0,0.2849026024,,,
5.1406250000,0,0.3715153039,,,
5.1562500000,0,0.5324553847,,,
5.1718750000,0,0.7422829270,,,
5.1875000000,0,0.8960341811,,,
5.2031250000,0,0.8528938293,,,
5.2187500000,0,0.5304508209,,,
5.2343750000,0,-0.0269641895,,,
5.2500000000,0,-0.6805992126,,,
5.2656250000,0,-1.2461990118,,,
5.2812500000,0,-1.6105289459,,,
5.2968750000,0,-1.7528740168,,,
5.3125000000,0,-1.7569500208,,,
5.3281250000,0,-1.7065769434,,,
5.3437500000,0,-1.6414999962,,,
5.3593750000,0,-1.5630719662,,,
5.3750000000,0,-1.4529169798,,,
5.3906250000,0,-1.3044400215,,,
5.4062500000,0,-1.1398700476,,,
5.4218750000,0,-0.9771460891,,,
5.4375000000,0,-0.8401088715,,,
5.4531250000,0,-0.7630996704,,,
5.4687500000,0,-0.7953091264,,,
5.4843750000,0,-0.9856318831,,,
5.5000000000,0,-1.3317760229,,,
5.5156250000,0,-1.7470250130,,,
5.5312500000,0,-2.0727519989,,,
5.5468750000,0,-2.1532590389,,,
5.5625000000,0,-1.9113980532,,,
5.5781250000,0,-1.4012570381,,,
5.5937500000,0,-0.7931252122,,,
5.6093750000,0,-0.2711600959,,,
5.6250000000,0,0.0615062714,,,
5.6406250000,0,0.2283058017,,,
5.6562500000,0,0.3507728875,,,
5.6718750000,0,0.5485916138,,,
5.6875000000,0,0.8750134110,,,
5.7031250000,0,1.2919059992,,,
5.7187500000,0,1.7011619806,,,
5.7343750000,0,2.0094490051,,,
5.7500000000,0,2.1588339806,,,
5.7656250000,0,2.1384871006,,,
5.7812500000,0,1.9705580473,,,
5.7968750000,0,1.7108000517,,,
5.8125000000,0,1.4107060432,,,
5.8281250000,0,1.1169430017,,,
5.8437500000,0,0.8692378998,,,
5.8593750000,0,0.6846827865,,,
5.8750000000,0,0.5709800720,,,
5.8906250000,0,0.5357856750,,,
5.9062500000,0,0.5787373185,,,
5.9218750000,0,0.6921042800,,,
5.9375000000,0,0.8594130874,,,
5.9531250000,0,1.0483210087,,,
5.9687500000,0,1.2220100164,,,
5.9843750000,0,1.3426899910,,,
6.0000000000,0,1.3781739473,,,
6.0156250000,0,1.3119280338,,,
6.0312500000,0,1.1483919621,,,
6.0468750000,0,0.9217910767,,,
6.0625000000,0,0.6704998016,,,
6.0781250000,0,0.4528541863,,,
6.0937500000,0,0.3179588020,,,
6.1093750000,0,0.2814464867,,,
6.1250000000,0,0.3179436028,,,
6.1406250000,0,0.3745746911,,,
6.1562500000,0,0.3968200982,,,
6.1718750000,0,0.3482170105,,,
6.1875000000,0,0.2252541035,,,
6.2031250000,0,0.0450782813,,,
6.2187500000,0,-0.1869049072,,,
6.2343750000,0,-0.4692822099,,,
6.2500000000,0,-0.8051720262,,,
6.2656250000,0,-1.2011070251,,,
6.2812500000,0,-1.6434459686,,,
6.2968750000,0,-2.0887320042,,,
6.3125000000,0,-2.4855649471,,,
6.3281250000,0,-2.7747800350,,,
6.3437500000,0,-2.9101870060,,,
6.3593750000,0,-2.8873860836,,,
6.3750000000,0,-2.7175369263,,,
6.3906250000,0,-2.4302599430,,,
6.4062500000,0,-2.0570340157,,,
6.4218750000,0,-1.6505409479,,,
6.4375000000,0,-1.2700690031,,,
6.4531250000,0,-0.9843006134,,,
6.4687500000,0,-0.8438301086,,,
6.4843750000,0,-0.8550949097,,,
6.5000000000,0,-0.9711875916,,,
6.5156250000,0,-1.1113129854,,,
6.5312500000,0,-1.1957509518,,,
6.5468750000,0,-1.1606580019,,,
6.5625000000,0,-0.9872645736,,,
6.5781250000,0,-0.7018070221,,,
6.5937500000,0,-0.3287810981,,,
6.6093750000,0,0.1008644029,,,
6.6250000000,0,0.5599669814,,,
6.6406250000,0,1.0277819633,,,
6.6562500000,0,1.4666310549,,,
6.6718750000,0,1.8292030096,,,
6.6875000000,0,2.0847609043,,,
6.7031250000,0,2.2222459316,,,
6.7187500000,0,2.2334480286,,,
6.7343750000,0,2.1278929710,,,
6.7500000000,0,1.9226440191,,,
6.7656250000,0,1.6589909792,,,
6.7812500000,0,1.4081970453,,,
6.7968750000,0,1.2671760321,,,
6.8125000000,0,1.2946699858,,,
6.8281250000,0,1.4935779572,,,
6.8437500000,0,1.8006000519,,,
6.8593750000,0,2.1065790653,,,
6.8750000000,0,2.3199520111,,,
6.8906250000,0,2.3919510841,,,
6.9062500000,0,2.3330121040,,,
6.9218750000,0,2.1701369286,,,
6.9375000000,0,1.9313960075,,,
6.9531250000,0,1.6316009760,,,
6.9687500000,0,1.2854540348,,,
6.9843750000,0,0.9188460708,,,
7.0000000000,0,0.5761374831,,,
7.0156250000,0,0.2750968933,,,
7.0312500000,0,0.0007762909,,,
7.0468750000,0,-0.2956523895,,,
7.0625000000,0,-0.6614627838,,,
7.0781250000,0,-1.0979789495,,,
7.0937500000,0,-1.5255390406,,,
7.1093750000,0,-1.8359470367,,,
7.1250000000,0,-1.9568899870,,,
7.1406250000,0,-1.8911930323,,,
7.1562500000,0,-1.7290229797,,,
7.1718750000,0,-1.6040099859,,,
7.1875000000,0,-1.5882129669,,,
7.2031250000,0,-1.6770169735,,,
7.2187500000,0,-1.7766489983,,,
7.2343750000,0,-1.7867280245,,,
7.2500000000,0,-1.6672099829,,,
7.2656250000,0,-1.4732609987,,,
7.2812500000,0,-1.3261320591,,,
7.2968750000,0,-1.3212640285,,,
7.3125000000,0,-1.4676760435,,,
7.3281250000,0,-1.6643919945,,,
7.3437500000,0,-1.7732119560,,,
7.3593750000,0,-1.7016160488,,,
7.3750000000,0,-1.4521659613,,,
7.3906250000,0,-1.1119710207,,,
7.4062500000,0,-0.7907124162,,,
7.4218750000,0,-0.5520191193,,,
7.4375000000,0,-0.4054031074,,,
7.4531250000,0,-0.3117637932,,,
7.4687500000,0,-0.2273177952,,,
7.4843750000,0,-0.1398945004,,,
7.5000000000,0,-0.0621166192,,,
7.5156250000,0,-0.0322113000,,,
7.5312500000,0,-0.0658264235,,,
7.5468750000,0,-0.1330298930,,,
7.5625000000,0,-0.1742763966,,,
7.5781250000,0,-0.1364783943,,,
7.5937500000,0,0.0001449585,,,
7.6093750000,0,0.2096195072,,,
7.6250000000,0,0.4317454994,,,
7.6406250000,0,0.6208571792,,,
7.6562500000,0,0.7649478912,,,
7.6718750000,0,0.8716239929,,,
7.6875000000,0,0.9811993241,,,
7.7031250000,0,1.1079310179,,,
7.7187500000,0,1.2499140501,,,
7.7343750000,0,1.3659149408,,,
7.7500000000,0,1.4186840057,,,
7.7656250000,0,1.3759000301,,,
7.7812500000,0,1.2333830595,,,
7.7968750000,0,1.0211980343,,,
7.8125000000,0,0.7851219177,,,
7.8281250000,0,0.5598335266,,,
7.8437500000,0,0.3763161004,,,
7.8593750000,0,0.2436676025,,,
7.8750000000,0,0.1457519978,,,
7.8906250000,0,0.0541610718,,,
7.9062500000,0,-0.0678672791,,,
7.9218750000,0,-0.2334212959,,,
7.9375000000,0,-0.4197159111,,,
7.9531250000,0,-0.5737686157,,,
7.9687500000,0,-0.6401252747,,,
7.9843750000,0,-0.5989151001,,,
8.0000000000,1,-0.4768981934,,,
8.0156250000,1,-0.3456229866,,,
8.0312500000,1,-0.2920494080,,,
8.0468750000,1,-0.3730049133,,,
8.0625000000,1,-0.5755615234,,,
8.0781250000,1,-0.8346939087,,,
8.0937500000,1,-1.0381159782,,,
8.1093750000,1,-1.0681380033,,,
8.1250000000,1,-0.8584784865,,,
8.1406250000,1,-0.4280700982,,,
8.1562500000,1,0.1208344027,,,
8.1718750000,1,0.6137505174,,,
8.1875000000,1,0.8756980896,,,
8.2031250000,1,0.7913436890,,,
8.2187500000,1,0.3522301018,,,
8.2343750000,1,-0.3444099128,,,
8.2500000000,1,-1.1110759974,,,
8.2656250000,1,-1.7507900000,,,
8.2812500000,1,-2.1127090454,,,
8.2968750000,1,-2.1163790226,,,
8.3125000000,1,-1.7749559879,,,
8.3281250000,1,-1.1819529533,,,
8.3437500000,1,-0.4566231072,,,
8.3593750000,1,0.2927094102,,,
8.3750000000,1,0.9968718886,,,
8.3906250000,1,1.6323239803,,,
8.4062500000,1,2.2001109123,,,
8.4218750000,1,2.6851730347,,,
8.4375000000,1,3.0542950630,,,
8.4531250000,1,3.2379651070,,,
8.4687500000,1,3.1961779594,,,
8.4843750000,1,2.9398190975,,,
8.5000000000,1,2.5461919308,,,
8.5156250000,1,2.1336860657,,,
8.5312500000,1,1.7948379517,,,
8.5468750000,1,1.5542140007,,,
8.5625000000,1,1.3826520443,,,
8.5781250000,1,1.2174420357,,,
8.5937500000,1,0.9989089966,,,
8.6093750000,1,0.7220612168,,,
8.6250000000,1,0.4283829033,,,
8.6406250000,1,0.1655196995,,,
8.6562500000,1,-0.0193443298,,,
8.6718750000,1,-0.1087341011,,,
8.6875000000,1,-0.1158446968,,,
8.7031250000,1,-0.0596275292,,,
8.7187500000,1,0.0460739098,,,
8.7343750000,1,0.1805115044,,,
8.7500000000,1,0.3222542107,,,
8.7656250000,1,0.4315223992,,,
8.7812500000,1,0.4715690911,,,
8.7968750000,1,0.4415245056,,,
8.8125000000,1,0.3785933852,,,
8.8281250000,1,0.3452033997,,,
8.8437500000,1,0.3718375862,,,
8.8593750000,1,0.4349518120,,,
8.8750000000,1,0.4475784004,,,
8.8906250000,1,0.3181228936,,,
8.9062500000,1,0.0080833444,,,
8.9218750000,1,-0.4215508103,,,
8.9375000000,1,-0.8213120103,,,
8.9531250000,1,-1.0375980139,,,
8.9687500000,1,-0.9895095825,,,
8.9843750000,1,-0.7454357147,,,
9.0000000000,1,-0.4706420898,,,
9.0156250000,1,-0.3463898003,,,
9.0312500000,1,-0.4518241882,,,
9.0468750000,1,-0.7275351882,,,
9.0625000000,1,-1.0228350163,,,
9.0781250000,1,-1.1954710484,,,
9.0937500000,1,-1.2182869911,,,
9.1093750000,1,-1.1708769798,,,
9.1250000000,1,-1.1933330297,,,
9.1406250000,1,-1.3818860054,,,
9.1562500000,1,-1.7380520105,,,
9.1718750000,1,-2.1548418999,,,
9.1875000000,1,-2.4740369320,,,
9.2031250000,1,-2.5581860542,,,
9.2187500000,1,-2.3559970856,,,
9.2343750000,1,-1.9189829826,,,
9.2500000000,1,-1.3681130409,,,
9.2656250000,1,-0.8416233063,,,
9.2812500000,1,-0.4263438880,,,
9.2968750000,1,-0.1465034038,,,
9.3125000000,1,0.0391540490,,,
9.3281250000,1,0.1898345947,,,
9.3437500000,1,0.3284378052,,,
9.3593750000,1,0.4276142120,,,
9.3750000000,1,0.4233512878,,,
9.3906250000,1,0.2975139916,,,
9.4062500000,1,0.0967807770,,,
9.4218750000,1,-0.0454444885,,,
9.4375000000,1,-0.0110015897,,,
9.4531250000,1,0.2428206950,,,
9.4687500000,1,0.6505488753,,,
9.4843750000,1,1.0643539429,,,
9.5000000000,1,1.3689980507,,,
9.5156250000,1,1.5185359716,,,
9.5312500000,1,1.5389499664,,,
9.5468750000,1,1.4631249905,,,
9.5625000000,1,1.2934670448,,,
9.5781250000,1,1.0063149929,,,
9.5937500000,1,0.6131839752,,,
9.6093750000,1,0.2057247013,,,
9.6250000000,1,-0.0849342272,,,
9.6406250000,1,-0.1414089054,,,
9.6562500000,1,0.0332298316,,,
9.6718750000,1,0.3113613129,,,
9.6875000000,1,0.5126324296,,,
9.7031250000,1,0.5076293945,,,
9.7187500000,1,0.2778129876,,,
9.7343750000,1,-0.0820579529,,,
9.7500000000,1,-0.4585494995,,,
9.7656250000,1,-0.7840176225,,,
9.7812500000,1,-1.0433520079,,,
9.7968750000,1,-1.2567249537,,,
9.8125000000,1,-1.4230749607,,,
9.8281250000,1,-1.5057469606,,,
9.8437500000,1,-1.4492089748,,,
9.8593750000,1,-1.2260299921,,,
9.8750000000,1,-0.8568478227,,,
9.8906250000,1,-0.4088439941,,,
9.9062500000,1,0.0157356299,,,
9.9218750000,1,0.3242073059,,,
9.9375000000,1,0.4578857124,,,
9.9531250000,1,0.4257641137,,,
9.9687500000,1,0.3099879920,,,
9.9843750000,1,0.2463130951,,,
10.0000000000,1,0.3752765954,,,
10.0156250000,1,0.7702236176,,,
10.0312500000,1,1.3835790157,,,
10.0468750000,1,2.0579509735,,,
10.0625000000,1,2.5963819027,,,
10.0781250000,1,2.8589820862,,,
10.0937500000,1,2.8273301125,,,
10.1093750000,1,2.5891079903,,,
10.1250000000,1,2.2596590519,,,
10.1406250000,1,1.9203989506,,,
10.1562500000,1,1.5820980072,,,
10.1718750000,1,1.2303750515,,,
10.1875000000,1,0.8744335175,,,
10.2031250000,1,0.5533943176,,,
10.2187500000,1,0.3091908097,,,
10.2343750000,1,0.1454983056,,,
10.2500000000,1,0.0047817230,,,
10.2656250000,1,-0.1915493011,,,
10.2812500000,1,-0.4862728119,,,
10.2968750000,1,-0.8520317078,,,
10.3125000000,1,-1.1930079460,,,
10.3281250000,1,-1.4065550566,,,
10.3437500000,1,-1.4394659996,,,
10.3593750000,1,-1.3131430149,,,
10.3750000000,1,-1.0866509676,,,
10.3906250000,1,-0.8261299133,,,
10.4062500000,1,-0.5664405823,,,
10.4218750000,1,-0.3466682136,,,
10.4375000000,1,-0.2103863060,,,
10.4531250000,1,-0.2134875953,,,
10.4687500000,1,-0.3858222961,,,
10.4843750000,1,-0.6792048812,,,
10.5000000000,1,-0.9851512909,,,
10.5156250000,1,-1.1722179651,,,
10.5312500000,1,-1.1679229736,,,
10.5468750000,1,-1.0068969727,,,
10.5625000000,1,-0.7976608276,,,
10.5781250000,1,-0.6642932892,,,
10.5937500000,1,-0.6586285233,,,
10.6093750000,1,-0.7348765731,,,
10.6250000000,1,-0.8009777069,,,
10.6406250000,1,-0.7759724259,,,
10.6562500000,1,-0.6717910767,,,
10.6718750000,1,-0.5536174774,,,
10.6875000000,1,-0.5111960769,,,
10.7031250000,1,-0.5808848739,,,
10.7187500000,1,-0.7198963165,,,
10.7343750000,1,-0.8456764221,,,
10.7500000000,1,-0.9024695754,,,
10.7656250000,1,-0.8839625716,,,
10.7812500000,1,-0.8482933044,,,
10.7968750000,1,-0.8610954285,,,
10.8125000000,1,-0.9514865875,,,
10.8281250000,1,-1.0937459469,,,
10.8437500000,1,-1.2222019434,,,
10.8593750000,1,-1.2720259428,,,
10.8750000000,1,-1.2015609741,,,
10.8906250000,1,-1.0133379698,,,
10.9062500000,1,-0.7310047150,,,
10.9218750000,1,-0.4008044899,,,
10.9375000000,1,-0.0824108124,,,
10.9531250000,1,0.1698704064,,,
10.9687500000,1,0.3079853058,,,
10.9843750000,1,0.3189907074,,,
11.0000000000,1,0.2244682014,,,
11.0156250000,1,0.0875053406,,,
11.0312500000,1,-0.0142555200,,,
11.0468750000,1,-0.0255336799,,,
11.0625000000,1,0.0653743669,,,
11.0781250000,1,0.2072906047,,,
11.0937500000,1,0.3280087113,,,
11.1093750000,1,0.3666611016,,,
11.1250000000,1,0.2977370918,,,
11.1406250000,1,0.1558627933,,,
11.1562500000,1,-0.0112724304,,,
11.1718750000,1,-0.1478442997,,,
11.1875000000,1,-0.2301197052,,,
11.2031250000,1,-0.2737483978,,,
11.2187500000,1,-0.3070983887,,,
11.2343750000,1,-0.3512077034,,,
11.2500000000,1,-0.3886395097,,,
11.2656250000,1,-0.3733082116,,,
11.2812500000,1,-0.2655333877,,,
11.2968750000,1,-0.0662803575,,,
11.3125000000,1,0.1856728047,,,
11.3281250000,1,0.4030742943,,,
11.3437500000,1,0.5273951888,,,
11.3593750000,1,0.5368347168,,,
11.3750000000,1,0.4820747077,,,
11.3906250000,1,0.4621695876,,,
11.4062500000,1,0.5548077226,,,
11.4218750000,1,0.7847785950,,,
11.4375000000,1,1.0749440193,,,
11.4531250000,1,1.2861750126,,,
11.4687500000,1,1.2783470154,,,
11.4843750000,1,1.0163650513,,,
11.5000000000,1,0.5908164978,,,
11.5156250000,1,0.1825066060,,,
11.5312500000,1,-0.0463333093,,,
11.5468750000,1,-0.0387992896,,,
11.5625000000,1,0.1337967068,,,
11.5781250000,1,0.3245964050,,,
11.5937500000,1,0.4314804077,,,
11.6093750000,1,0.4520606995,,,
11.6250000000,1,0.4860534966,,,
11.6406250000,1,0.6404532790,,,
11.6562500000,1,0.9414634705,,,
11.6718750000,1,1.3013000488,,,
11.6875000000,1,1.5670809746,,,
11.7031250000,1,1.6188809872,,,
11.7187500000,1,1.4560010433,,,
11.7343750000,1,1.1723140478,,,
11.7500000000,1,0.8808708191,,,
11.7656250000,1,0.6482048035,,,
11.7812500000,1,0.4679146111,,,
11.7968750000,1,0.2769393921,,,
11.8125000000,1,0.0451316796,,,
11.8281250000,1,-0.2149123996,,,
11.8437500000,1,-0.4171752930,,,
11.8593750000,1,-0.4787560105,,,
11.8750000000,1,-0.3589744866,,,
11.8906250000,1,-0.0767898634,,,
11.9062500000,1,0.2696228027,,,
11.9218750000,1,0.5453720093,,,
11.9375000000,1,0.6250420213,,,
11.9531250000,1,0.4430274963,,,
11.9687500000,1,-0.0025825500,,,
11.9843750000,1,-0.6242179871,,,
12.0000000000,1,-1.2897380590,,,
12.0156250000,1,-1.8577229977,,,
12.0312500000,1,-2.2069740295,,,
12.0468750000,1,-2.2888450623,,,
12.0625000000,1,-2.1306500435,,,
12.0781250000,1,-1.8206210136,,,
12.0937500000,1,-1.4687119722,,,
12.1093750000,1,-1.1677089930,,,
12.1250000000,1,-0.9526175857,,,
12.1406250000,1,-0.8089675903,,,
12.1562500000,1,-0.6868668199,,,
12.1718750000,1,-0.5582733154,,,
12.1875000000,1,-0.4431801140,,,
12.2031250000,1,-0.4072456062,,,
12.2187500000,1,-0.5220680237,,,
12.2343750000,1,-0.7912560105,,,
12.2500000000,1,-1.1271970272,,,
12.2656250000,1,-1.3573490381,,,
12.2812500000,1,-1.2888220549,,,
12.2968750000,1,-0.8068810105,,,
12.3125000000,1,0.0652465820,,,
12.3281250000,1,1.1677019596,,,
12.3437500000,1,2.2643589973,,,
12.3593750000,1,3.1078341007,,,
12.3750000000,1,3.5211679935,,,
12.3906250000,1,3.4460909367,,,
12.4062500000,1,2.9613420963,,,
12.4218750000,1,2.2542688847,,,
12.4375000000,1,1.5557249784,,,
12.4531250000,1,1.0541919470,,,
12.4687500000,1,0.8348808289,,,
12.4843750000,1,0.8470649719,,,
12.5000000000,1,0.9618415833,,,
12.5156250000,1,1.0479090214,,,
12.5312500000,1,1.0516699553,,,
12.5468750000,1,1.0074230433,,,
12.5625000000,1,0.9915122986,,,
12.5781250000,1,1.0459289551,,,
12.5937500000,1,1.1269379854,,,
12.6093750000,1,1.1410599947,,,
12.6250000000,1,0.9929581285,,,
12.6406250000,1,0.6654549241,,,
12.6562500000,1,0.2388343960,,,
12.6718750000,1,-0.1441649944,,,
12.6875000000,1,-0.3682976067,,,
12.7031250000,1,-0.3840903938,,,
12.7187500000,1,-0.2291564941,,,
12.7343750000,1,-0.0036354060,,,
12.7500000000,1,0.2056847066,,,
12.7656250000,1,0.3314476013,,,
12.7812500000,1,0.3353576958,,,
12.7968750000,1,0.1851616055,,,
12.8125000000,1,-0.1425933987,,,
12.8281250000,1,-0.6460494995,,,
12.8437500000,1,-1.2640229464,,,
12.8593750000,1,-1.8659479618,,,
12.8750000000,1,-2.3002929688,,,
12.8906250000,1,-2.4401280880,,,
12.9062500000,1,-2.2493669987,,,
12.9218750000,1,-1.7976859808,,,
12.9375000000,1,-1.2323759794,,,
12.9531250000,1,-0.7091103196,,,
12.9687500000,1,-0.3274878860,,,
12.9843750000,1,-0.1276130974,,,
13.0000000000,1,-0.0792236328,,,
13.0156250000,1,-0.1306152046,,,
13.0312500000,1,-0.2229290009,,,
13.0468750000,1,-0.3074684143,,,
13.0625000000,1,-0.3337230980,,,
13.0781250000,1,-0.2612152100,,,
13.0937500000,1,-0.0878582001,,,
13.1093750000,1,0.1429100037,,,
13.1250000000,1,0.3563956916,,,
13.1406250000,1,0.4911194146,,,
13.1562500000,1,0.5074309707,,,
13.1718750000,1,0.4284115136,,,
13.1875000000,1,0.2806319892,,,
13.2031250000,1,0.0972881317,,,
13.2187500000,1,-0.0993843079,,,
13.2343750000,1,-0.3119086921,,,
13.2500000000,1,-0.5222073197,,,
13.2656250000,1,-0.6861038208,,,
13.2812500000,1,-0.7389373779,,,
13.2968750000,1,-0.6319808960,,,
13.3125000000,1,-0.3675385118,,,
13.3281250000,1,-0.0250740107,,,
13.3437500000,1,0.2585316002,,,
13.3593750000,1,0.3685894012,,,
13.3750000000,1,0.2376746982,,,
13.3906250000,1,-0.0916271210,,,
13.4062500000,1,-0.4999007881,,,
13.4218750000,1,-0.8448485732,,,
13.4375000000,1,-1.0327570438,,,
13.4531250000,1,-1.0522459745,,,
13.4687500000,1,-0.9568176270,,,
13.4843750000,1,-0.8295211792,,,
13.5000000000,1,-0.7197093964,,,
13.5156250000,1,-0.6392269135,,,
13.5312500000,1,-0.5610275269,,,
13.5468750000,1,-0.4842567146,,,
13.5625000000,1,-0.4375686944,,,
13.5781250000,1,-0.4653739929,,,
13.5937500000,1,-0.5837364197,,,
13.6093750000,1,-0.7457122803,,,
13.6250000000,1,-0.8544846177,,,
13.6406250000,1,-0.8065757751,,,
13.6562500000,1,-0.5867729187,,,
13.6718750000,1,-0.2529906929,,,
13.6875000000,1,0.0819816589,,,
13.7031250000,1,0.3153190911,,,
13.7187500000,1,0.4405708015,,,
13.7343750000,1,0.5224304199,,,
13.7500000000,1,0.6775665283,,,
13.7656250000,1,0.9721909165,,,
13.7812500000,1,1.3796310425,,,
13.7968750000,1,1.7955739498,,,
13.8125000000,1,2.1083409786,,,
13.8281250000,1,2.2724270821,,,
13.8437500000,1,2.3278660774,,,
13.8593750000,1,2.3597218990,,,
13.8750000000,1,2.4074330330,,,
13.8906250000,1,2.4282839298,,,
13.9062500000,1,2.3030850887,,,
13.9218750000,1,1.9179760218,,,
13.9375000000,1,1.2579380274,,,
13.9531250000,1,0.4424400032,,,
13.9687500000,1,-0.3132820129,,,
13.9843750000,1,-0.8043174744,,,
14.0000000000,1,-0.9237099290,,,
14.0156250000,1,-0.7028656006,,,
14.0312500000,1,-0.3020325005,,,
14.0468750000,1,0.0881309509,,,
14.0625000000,1,0.3241730034,,,
14.0781250000,1,0.3638153076,,,
14.0937500000,1,0.2432823032,,,
14.1093750000,1,0.0420112610,,,
14.1250000000,1,-0.1701698005,,,
14.1406250000,1,-0.3466129005,,,
14.1562500000,1,-0.4691658020,,,
14.1718750000,1,-0.5323371887,,,
14.1875000000,1,-0.5210800171,,,
14.2031250000,1,-0.4329605103,,,
14.2187500000,1,-0.2578487098,,,
14.2343750000,1,-0.0176506005,,,
14.2500000000,1,0.2572059929,,,
14.2656250000,1,0.5262547135,,,
14.2812500000,1,0.7571678162,,,
14.2968750000,1,0.9289721847,,,
14.3125000000,1,1.0386749506,,,
14.3281250000,1,1.0814529657,,,
14.3437500000,1,1.0676000118,,,
14.3593750000,1,1.0146330595,,,
14.3750000000,1,0.9418467879,,,
14.3906250000,1,0.8792439103,,,
14.4062500000,1,0.8289051056,,,
14.4218750000,1,0.7621861100,,,
14.4375000000,1,0.6151390076,,,
14.4531250000,1,0.3419398963,,,
14.4687500000,1,-0.0478725396,,,
14.4843750000,1,-0.4930514991,,,
14.5000000000,1,-0.9089469910,,,
14.5156250000,1,-1.2189979553,,,
14.5312500000,1,-1.4057040215,,,
14.5468750000,1,-1.4876960516,,,
14.5625000000,1,-1.5136619806,,,
14.5781250000,1,-1.4890650511,,,
14.5937500000,1,-1.3848880529,,,
14.6093750000,1,-1.1529029608,,,
14.6250000000,1,-0.7757092118,,,
14.6406250000,1,-0.2977694869,,,
14.6562500000,1,0.1780453026,,,
14.6718750000,1,0.5339965820,,,
14.6875000000,1,0.6994038224,,,
14.7031250000,1,0.6592711806,,,
14.7187500000,1,0.4606018066,,,
14.7343750000,1,0.1699848026,,,
14.7500000000,1,-0.1462974995,,,
14.7656250000,1,-0.4436073005,,,
14.7812500000,1,-0.6894760132,,,
14.7968750000,1,-0.8767375946,,,
14.8125000000,1,-1.0139290094,,,
14.8281250000,1,-1.1380020380,,,
14.8437500000,1,-1.2806340456,,,
14.8593750000,1,-1.4470620155,,,
14.8750000000,1,-1.6055220366,,,
14.8906250000,1,-1.6701389551,,,
14.9062500000,1,-1.5576250553,,,
14.9218750000,1,-1.2049520016,,,
14.9375000000,1,-0.6288356781,,,
14.9531250000,1,0.0764388964,,,
14.9687500000,1,0.7618045807,,,
14.9843750000,1,1.2643549442,,,
15.0000000000,1,1.4653700590,,,
15.0156250000,1,1.3236310482,,,
15.0312500000,1,0.9026679993,,,
15.0468750000,1,0.3321551979,,,
15.0625000000,1,-0.2289696038,,,
15.0781250000,1,-0.6360930800,,,
15.0937500000,1,-0.8101996779,,,
15.1093750000,1,-0.7432097793,,,
15.1250000000,1,-0.5107020736,,,
15.1406250000,1,-0.2234402001,,,
15.1562500000,1,-0.0048732762,,,
15.1718750000,1,0.0492839813,,,
15.1875000000,1,-0.0928058624,,,
15.2031250000,1,-0.3857516944,,,
15.2187500000,1,-0.7362251282,,,
15.2343750000,1,-1.0412119627,,,
15.2500000000,1,-1.2409039736,,,
15.2656250000,1,-1.3423939943,,,
15.2812500000,1,-1.3813359737,,,
15.2968750000,1,-1.3955550194,,,
15.3125000000,1,-1.3750309944,,,
15.3281250000,1,-1.2822109461,,,
15.3437500000,1,-1.0804879665,,,
15.3593750000,1,-0.7768363953,,,
15.3750000000,1,-0.4414482117,,,
15.3906250000,1,-0.1496390998,,,
15.4062500000,1,0.0436496697,,,
15.4218750000,1,0.1628132015,,,
15.4375000000,1,0.2827053070,,,
15.4531250000,1,0.4910315871,,,
15.4687500000,1,0.8256474137,,,
15.4843750000,1,1.2478330135,,,
15.5000000000,1,1.6469290257,,,
15.5156250000,1,1.8839379549,,,
15.5312500000,1,1.8704359531,,,
15.5468750000,1,1.5781350136,,,
15.5625000000,1,1.0749399662,,,
15.5781250000,1,0.4867706001,,,
15.5937500000,1,-0.0411148109,,,
15.6093750000,1,-0.4036254883,,,
15.6250000000,1,-0.5761700273,,,
15.6406250000,1,-0.6126555800,,,
15.6562500000,1,-0.6183186173,,,
15.6718750000,1,-0.6664906144,,,
15.6875000000,1,-0.7662314773,,,
15.7031250000,1,-0.8551940918,,,
15.7187500000,1,-0.8528537750,,,
15.7343750000,1,-0.7107753754,,,
15.7500000000,1,-0.4473190010,,,
15.7656250000,1,-0.1420879066,,,
15.7812500000,1,0.1131877974,,,
15.7968750000,1,0.2425193936,,,
15.8125000000,1,0.2401466072,,,
15.8281250000,1,0.1329098046,,,
15.8437500000,1,-0.0126171103,,,
15.8593750000,1,-0.1276206970,,,
15.8750000000,1,-0.1637592018,,,
15.8906250000,1,-0.0953922272,,,
15.9062500000,1,0.0712718964,,,
15.9218750000,1,0.3108806908,,,
15.9375000000,1,0.5781651139,,,
15.9531250000,1,0.8385409713,,,
15.9687500000,1,1.0506629944,,,
15.9843750000,1,1.1784930229,,,
16.0000000000,2,1.1810679436,,,
16.0156250000,2,1.0203930140,,,
16.0312500000,2,0.6897984147,,,
16.0468750000,2,0.2243480980,,,
16.0625000000,2,-0.2547894120,,,
16.0781250000,2,-0.5945910811,,,
16.0937500000,2,-0.6624146104,,,
16.1093750000,2,-0.4370422065,,,
16.1250000000,2,-0.0248203296,,,
16.1406250000,2,0.3761959076,,,
16.1562500000,2,0.5613173842,,,
16.1718750000,2,0.4407100976,,,
16.1875000000,2,0.0589103699,,,
16.2031250000,2,-0.4056395888,,,
16.2187500000,2,-0.7540398240,,,
16.2343750000,2,-0.8607615829,,,
16.2500000000,2,-0.6916865706,,,
16.2656250000,2,-0.3058071136,,,
16.2812500000,2,0.2208748013,,,
16.2968750000,2,0.8003292084,,,
16.3125000000,2,1.3786790371,,,
16.3281250000,2,1.8538130522,,,
16.3437500000,2,2.1265809536,,,
16.3593750000,2,2.0958309174,,,
16.3750000000,2,1.7382049561,,,
16.3906250000,2,1.1384639740,,,
16.4062500000,2,0.4749489129,,,
16.4218750000,2,-0.0603828393,,,
16.4375000000,2,-0.3632678986,,,
16.4531250000,2,-0.4421597123,,,
16.4687500000,2,-0.4285278022,,,
16.4843750000,2,-0.4567432106,,,
16.5000000000,2,-0.5891838074,,,
16.5156250000,2,-0.7934741974,,,
16.5312500000,2,-0.9661006927,,,
16.5468750000,2,-1.0178339481,,,
16.5625000000,2,-0.9105319977,,,
16.5781250000,2,-0.6690235138,,,
16.5937500000,2,-0.3565005958,,,
16.6093750000,2,-0.0351428986,,,
16.6250000000,2,0.2351932973,,,
16.6406250000,2,0.4070147872,,,
16.6562500000,2,0.4303016961,,,
16.6718750000,2,0.3027476966,,,
16.6875000000,2,0.0456180610,,,
16.7031250000,2,-0.2582168877,,,
16.7187500000,2,-0.5074825287,,,
16.7343750000,2,-0.6358603835,,,
16.7500000000,2,-0.6301364899,,,
16.7656250000,2,-0.5322247148,,,
16.7812500000,2,-0.3901939094,,,
16.7968750000,2,-0.2461891025,,,
16.8125000000,2,-0.0866432190,,,
16.8281250000,2,0.0812931135,,,
16.8437500000,2,0.2193316966,,,
16.8593750000,2,0.2306327969,,,
16.8750000000,2,0.0227889996,,,
16.8906250000,2,-0.4184361100,,,
16.9062500000,2,-0.9964447021,,,
16.9218750000,2,-1.5349409580,,,
16.9375000000,2,-1.8739240170,,,
16.9531250000,2,-1.9315660000,,,
16.9687500000,2,-1.7591990232,,,
16.9843750000,2,-1.4760379791,,,
17.0000000000,2,-1.1825560331,,,
17.0156250000,2,-0.9216880798,,,
17.0312500000,2,-0.6749516129,,,
17.0468750000,2,-0.4034424126,,,
17.0625000000,2,-0.1020184010,,,
17.0781250000,2,0.1927337945,,,
17.0937500000,2,0.4267253876,,,
17.1093750000,2,0.5735645294,,,
17.1250000000,2,0.6477984786,,,
17.1406250000,2,0.7024325728,,,
17.1562500000,2,0.7616004944,,,
17.1718750000,2,0.8309897780,,,
17.1875000000,2,0.8737754822,,,
17.2031250000,2,0.8714256287,,,
17.2187500000,2,0.8275908828,,,
17.2343750000,2,0.7889862061,,,
17.2500000000,2,0.8030356765,,,
17.2656250000,2,0.9045506120,,,
17.2812500000,2,1.0852530003,,,
17.2968750000,2,1.2921370268,,,
17.3125000000,2,1.4639739990,,,
17.3281250000,2,1.5473250151,,,
17.3437500000,2,1.5258450508,,,
17.3593750000,2,1.4136199951,,,
17.3750000000,2,1.2441749573,,,
17.3906250000,2,1.0633410215,,,
17.4062500000,2,0.9020537734,,,
17.4218750000,2,0.7792282104,,,
17.4375000000,2,0.6779041290,,,
17.4531250000,2,0.5745316148,,,
17.4687500000,2,0.4331130981,,,
17.4843750000,2,0.2482872009,,,
17.5000000000,2,0.0598182715,,,
17.5156250000,2,-0.0421752892,,,
17.5312500000,2,0.0322532691,,,
17.5468750000,2,0.3039894104,,,
17.5625000000,2,0.7014579773,,,
17.5781250000,2,1.0545790195,,,
17.5937500000,2,1.1850149632,,,
17.6093750000,2,0.9864922166,,,
17.6250000000,2,0.5057296753,,,
17.6406250000,2,-0.0842056274,,,
17.6562500000,2,-0.5714740753,,,
17.6718750000,2,-0.8156356812,,,
17.6875000000,2,-0.8403149247,,,
17.7031250000,2,-0.7999439240,,,
17.7187500000,2,-0.8859940171,,,
17.7343750000,2,-1.2018339634,,,
17.7500000000,2,-1.7120250463,,,
17.7656250000,2,-2.2427670956,,,
17.7812500000,2,-2.5967750549,,,
17.7968750000,2,-2.6560840607,,,
17.8125000000,2,-2.4244959354,,,
17.8281250000,2,-2.0109651089,,,
17.8437500000,2,-1.5531749725,,,
17.8593750000,2,-1.1232299805,,,
17.8750000000,2,-0.7281913757,,,
17.8906250000,2,-0.3282394111,,,
17.9062500000,2,0.1061668023,,,
17.9218750000,2,0.5576304793,,,
17.9375000000,2,0.9507027268,,,
17.9531250000,2,1.2322059870,,,
17.9687500000,2,1.3822250366,,,
17.9843750000,2,1.4173389673,,,
18.0000000000,2,1.3532910347,,,
18.0156250000,2,1.1832849979,,,
18.0312500000,2,0.8828238845,,,
18.0468750000,2,0.4611968994,,,
18.0625000000,2,0.0014934540,,,
18.0781250000,2,-0.3700313866,,,
18.0937500000,2,-0.5249233246,,,
18.1093750000,2,-0.4215449989,,,
18.1250000000,2,-0.1286296993,,,
18.1406250000,2,0.1860312968,,,
18.1562500000,2,0.3649235070,,,
18.1718750000,2,0.3300591111,,,
18.1875000000,2,0.1337433010,,,
18.2031250000,2,-0.0852737427,,,
18.2187500000,2,-0.1885146946,,,
18.2343750000,2,-0.1134051979,,,
18.2500000000,2,0.0860614777,,,
18.2656250000,2,0.2758922875,,,
18.2812500000,2,0.3449554145,,,
18.2968750000,2,0.2495231926,,,
18.3125000000,2,0.0496292114,,,
18.3281250000,2,-0.1352366954,,,
18.3437500000,2,-0.2326660007,,,
18.3593750000,2,-0.2352657020,,,
18.3750000000,2,-0.2363701016,,,
18.3906250000,2,-0.3479424119,,,
18.4062500000,2,-0.6152648926,,,
18.4218750000,2,-0.9720286727,,,
18.4375000000,2,-1.2830539942,,,
18.4531250000,2,-1.4112609625,,,
18.4687500000,2,-1.3046469688,,,
18.4843750000,2,-1.0148739815,,,
18.5000000000,2,-0.6645355225,,,
18.5156250000,2,-0.3600139916,,,
18.5312500000,2,-0.1497821957,,,
18.5468750000,2,-0.0109672500,,,
18.5625000000,2,0.1056422964,,,
18.5781250000,2,0.2193946987,,,
18.5937500000,2,0.3093967140,,,
18.6093750000,2,0.3290863037,,,
18.6250000000,2,0.2689628899,,,
18.6406250000,2,0.1498374939,,,
18.6562500000,2,0.0390834808,,,
18.6718750000,2,0.0126361800,,,
18.6875000000,2,0.1134471968,,,
18.7031250000,2,0.3542861938,,,
18.7187500000,2,0.6926308274,,,
18.7343750000,2,1.0591809750,,,
18.7500000000,2,1.3862400055,,,
18.7656250000,2,1.6085909605,,,
18.7812500000,2,1.7294540405,,,
18.7968750000,2,1.7974450588,,,
18.8125000000,2,1.9062670469,,,
18.8281250000,2,2.1305480003,,,
18.8437500000,2,2.4650120735,,,
18.8593750000,2,2.8257639408,,,
18.8750000000,2,3.0667719841,,,
18.8906250000,2,3.0628829002,,,
18.9062500000,2,2.7790949345,,,
18.9218750000,2,2.2812180519,,,
18.9375000000,2,1.6875150204,,,
18.9531250000,2,1.1013979912,,,
18.9687500000,2,0.5624980927,,,
18.9843750000,2,0.0538539886,,,
19.0000000000,2,-0.4507141113,,,
19.0156250000,2,-0.9430999756,,,
19.0312500000,2,-1.3607389927,,,
19.0468750000,2,-1.6301230192,,,
19.0625000000,2,-1.6970959902,,,
19.0781250000,2,-1.5671370029,,,
19.0937500000,2,-1.3031140566,,,
19.1093750000,2,-1.0061210394,,,
19.1250000000,2,-0.7753067017,,,
19.1406250000,2,-0.6837615967,,,
19.1562500000,2,-0.7533835769,,,
19.1718750000,2,-0.9324378967,,,
19.1875000000,2,-1.1193640232,,,
19.2031250000,2,-1.1931879520,,,
19.2187500000,2,-1.0912419558,,,
19.2343750000,2,-0.8366870880,,,
19.2500000000,2,-0.5344619751,,,
19.2656250000,2,-0.3320254982,,,
19.2812500000,2,-0.3002968132,,,
19.2968750000,2,-0.4133053124,,,
19.3125000000,2,-0.5682181716,,,
19.3281250000,2,-0.6503257751,,,
19.3437500000,2,-0.6107081771,,,
19.3593750000,2,-0.4789828956,,,
19.3750000000,2,-0.3291664124,,,
19.3906250000,2,-0.2247314006,,,
19.4062500000,2,-0.1842059940,,,
19.4218750000,2,-0.1721381992,,,
19.4375000000,2,-0.1550312042,,,
19.4531250000,2,-0.1259288937,,,
19.4687500000,2,-0.0990753174,,,
19.4843750000,2,-0.1080399007,,,
19.5000000000,2,-0.1520424038,,,
19.5156250000,2,-0.2268180996,,,
19.5312500000,2,-0.3282603920,,,
19.5468750000,2,-0.4811649024,,,
19.5625000000,2,-0.7155323029,,,
19.5781250000,2,-1.0392570496,,,
19.5937500000,2,-1.3964879513,,,
19.6093750000,2,-1.6741119623,,,
19.6250000000,2,-1.7616690397,,,
19.6406250000,2,-1.5916080475,,,
19.6562500000,2,-1.1875760555,,,
19.6718750000,2,-0.6518592834,,,
19.6875000000,2,-0.1192817986,,,
19.7031250000,2,0.2874203026,,,
19.7187500000,2,0.4863243103,,,
19.7343750000,2,0.4662131965,,,
19.7500000000,2,0.2880134881,,,
19.7656250000,2,0.0426292382,,,
19.7812500000,2,-0.1714477986,,,
19.7968750000,2,-0.2832545936,,,
19.8125000000,2,-0.2774981856,,,
19.8281250000,2,-0.1922512054,,,
19.8437500000,2,-0.0945835114,,,
19.8593750000,2,-0.0384502411,,,
19.8750000000,2,-0.0478458405,,,
19.8906250000,2,-0.0964412689,,,
19.9062500000,2,-0.1428070068,,,
19.9218750000,2,-0.1379871070,,,
19.9375000000,2,-0.0606346093,,,
19.9531250000,2,0.0785331726,,,
19.9687500000,2,0.2458591014,,,
19.9843750000,2,0.3912276924,,,
20.0000000000,2,0.4869194031,,,
20.0156250000,2,0.5260220170,,,
20.0312500000,2,0.5185871124,,,
20.0468750000,2,0.4863604903,,,
20.0625000000,2,0.4598254859,,,
20.0781250000,2,0.4460963905,,,
20.0937500000,2,0.4503231049,,,
20.1093750000,2,0.4538460076,,,
20.1250000000,2,0.4301643074,,,
20.1406250000,2,0.3538360894,,,
20.1562500000,2,0.2152480930,,,
20.1718750000,2,0.0255889893,,,
20.1875000000,2,-0.1791018993,,,
20.2031250000,2,-0.3313026130,,,
20.2187500000,2,-0.3743056953,,,
20.2343750000,2,-0.2764453888,,,
20.2500000000,2,-0.0618820190,,,
20.2656250000,2,0.1993674934,,,
20.2812500000,2,0.4050559998,,,
20.2968750000,2,0.4606761932,,,
20.3125000000,2,0.3414000869,,,
20.3281250000,2,0.0632038116,,,
20.3437500000,2,-0.3151626885,,,
20.3593750000,2,-0.7184277177,,,
20.3750000000,2,-1.0659350157,,,
20.3906250000,2,-1.2906930447,,,
20.4062500000,2,-1.3398970366,,,
20.4218750000,2,-1.1911350489,,,
20.4375000000,2,-0.8689079285,,,
20.4531250000,2,-0.4322375953,,,
20.4687500000,2,0.0303306598,,,
20.4843750000,2,0.4568825066,,,
20.5000000000,2,0.8208103180,,,
20.5156250000,2,1.1429959536,,,
20.5312500000,2,1.4237289429,,,
20.5468750000,2,1.6312390566,,,
20.5625000000,2,1.7121030092,,,
20.5781250000,2,1.6056480408,,,
20.5937500000,2,1.3265719414,,,
20.6093750000,2,0.9456881881,,,
20.6250000000,2,0.5783501267,,,
20.6406250000,2,0.3251475990,,,
20.6562500000,2,0.2251739949,,,
20.6718750000,2,0.2556324005,,,
20.6875000000,2,0.3493709862,,,
20.7031250000,2,0.4291382134,,,
20.7187500000,2,0.4345721900,,,
20.7343750000,2,0.3302631080,,,
20.7500000000,2,0.1221084967,,,
20.7656250000,2,-0.1228599995,,,
20.7812500000,2,-0.2903747857,,,
20.7968750000,2,-0.2688674927,,,
20.8125000000,2,0.0086536407,,,
20.8281250000,2,0.4934749901,,,
20.8437500000,2,1.0238209963,,,
20.8593750000,2,1.3793909550,,,
20.8750000000,2,1.4237710238,,,
20.8906250000,2,1.1523610353,,,
20.9062500000,2,0.7149220109,,,
20.9218750000,2,0.3247050941,,,
20.9375000000,2,0.1481170952,,,
20.9531250000,2,0.2160052955,,,
20.9687500000,2,0.4128361046,,,
20.9843750000,2,0.5544909835,,,
21.0000000000,2,0.4622153938,,,
21.0156250000,2,0.0855712891,,,
21.0312500000,2,-0.5116043091,,,
21.0468750000,2,-1.1585079432,,,
21.0625000000,2,-1.6624850035,,,
21.0781250000,2,-1.9067230225,,,
21.0937500000,2,-1.8916820288,,,
21.1093750000,2,-1.7327179909,,,
21.1250000000,2,-1.5927200317,,,
21.1406250000,2,-1.5690419674,,,
21.1562500000,2,-1.6442790031,,,
21.1718750000,2,-1.7088509798,,,
21.1875000000,2,-1.6281720400,,,
21.2031250000,2,-1.3672519922,,,
21.2187500000,2,-1.0010219812,,,
21.2343750000,2,-0.6933193207,,,
21.2500000000,2,-0.5675163269,,,
21.2656250000,2,-0.6146697998,,,
21.2812500000,2,-0.6934223175,,,
21.2968750000,2,-0.5993729234,,,
21.3125000000,2,-0.2024441063,,,
21.3281250000,2,0.4812507927,,,
21.3437500000,2,1.2780079842,,,
21.3593750000,2,1.9407709837,,,
21.3750000000,2,2.2763040066,,,
21.3906250000,2,2.2092630863,,,
21.4062500000,2,1.8016799688,,,
21.4218750000,2,1.1964739561,,,
21.4375000000,2,0.5690689087,,,
21.4531250000,2,0.0636730194,,,
21.4687500000,2,-0.2318993062,,,
21.4843750000,2,-0.2886314094,,,
21.5000000000,2,-0.1369915009,,,
21.5156250000,2,0.1468620002,,,
21.5312500000,2,0.4502238929,,,
21.5468750000,2,0.6672821045,,,
21.5625000000,2,0.7329730988,,,
21.5781250000,2,0.6519470215,,,
21.5937500000,2,0.4710217118,,,
21.6093750000,2,0.2585257888,,,
21.6250000000,2,0.0521240197,,,
21.6406250000,2,-0.1458168030,,,
21.6562500000,2,-0.3486613929,,,
21.6718750000,2,-0.5521736145,,,
21.6875000000,2,-0.7098960876,,,
21.7031250000,2,-0.7741851807,,,
21.7187500000,2,-0.7093886733,,,
21.7343750000,2,-0.5531197190,,,
21.7500000000,2,-0.3978366852,,,
21.7656250000,2,-0.3298453987,,,
21.7812500000,2,-0.3723526001,,,
21.7968750000,2,-0.4523563087,,,
21.8125000000,2,-0.4579448998,,,
21.8281250000,2,-0.3168925941,,,
21.8437500000,2,-0.0716094971,,,
21.8593750000,2,0.1373959035,,,
21.8750000000,2,0.1488818973,,,
21.8906250000,2,-0.1162300035,,,
21.9062500000,2,-0.5941410065,,,
21.9218750000,2,-1.1207239628,,,
21.9375000000,2,-1.5070550442,,,
21.9531250000,2,-1.6314810514,,,
21.9687500000,2,-1.4749300480,,,
21.9843750000,2,-1.1249120235,,,
22.0000000000,2,-0.7051429749,,,
22.0156250000,2,-0.3224296868,,,
22.0312500000,2,-0.0237255096,,,
22.0468750000,2,0.2162743062,,,
22.0625000000,2,0.4514445961,,,
22.0781250000,2,0.7299385071,,,
22.0937500000,2,1.0523829460,,,
22.1093750000,2,1.3630080223,,,
22.1250000000,2,1.5728449821,,,
22.1406250000,2,1.6156899929,,,
22.1562500000,2,1.4830069542,,,
22.1718750000,2,1.2259459496,,,
22.1875000000,2,0.9512463212,,,
22.2031250000,2,0.7254695892,,,
22.2187500000,2,0.5697327256,,,
22.2343750000,2,0.4567013085,,,
22.2500000000,2,0.3529433906,,,
22.2656250000,2,0.2417469025,,,
22.2812500000,2,0.1343079060,,,
22.2968750000,2,0.0460300408,,,
22.3125000000,2,-0.0251731891,,,
22.3281250000,2,-0.0960998535,,,
22.3437500000,2,-0.1745529026,,,
22.3593750000,2,-0.2283591926,,,
22.3750000000,2,-0.2058791965,,,
22.3906250000,2,-0.0718688965,,,
22.4062500000,2,0.1525440067,,,
22.4218750000,2,0.3738650978,,,
22.4375000000,2,0.4850654900,,,
22.4531250000,2,0.4093436897,,,
22.4687500000,2,0.1632499993,,,
22.4843750000,2,-0.1574707031,,,
22.5000000000,2,-0.4161053002,,,
22.5156250000,2,-0.5103741288,,,
22.5312500000,2,-0.4137974083,,,
22.5468750000,2,-0.1745567024,,,
22.5625000000,2,0.1180592030,,,
22.5781250000,2,0.3874301910,,,
22.5937500000,2,0.5916575789,,,
22.6093750000,2,0.7256298065,,,
22.6250000000,2,0.7830200195,,,
22.6406250000,2,0.7572802901,,,
22.6562500000,2,0.6425896287,,,
22.6718750000,2,0.4344100952,,,
22.6875000000,2,0.1728229970,,,
22.7031250000,2,-0.0930461884,,,
22.7187500000,2,-0.3180370033,,,
22.7343750000,2,-0.5027446747,,,
22.7500000000,2,-0.6697083116,,,
22.7656250000,2,-0.8537024856,,,
22.7812500000,2,-1.0577319860,,,
22.7968750000,2,-1.2536430359,,,
22.8125000000,2,-1.4095250368,,,
22.8281250000,2,-1.5183010101,,,
22.8437500000,2,-1.5944000483,,,
22.8593750000,2,-1.6557979584,,,
22.8750000000,2,-1.6923639774,,,
22.8906250000,2,-1.6546080112,,,
22.9062500000,2,-1.4965629578,,,
22.9218750000,2,-1.2151219845,,,
22.9375000000,2,-0.8536015153,,,
22.9531250000,2,-0.4746780097,,,
22.9687500000,2,-0.1125793010,,,
22.9843750000,2,0.2507668138,,,
23.0000000000,2,0.6675148010,,,
23.0156250000,2,1.1431659460,,,
23.0312500000,2,1.6146279573,,,
23.0468750000,2,1.9482979774,,,
23.0625000000,2,2.0033280849,,,
23.0781250000,2,1.7312029600,,,
23.0937500000,2,1.2038170099,,,
23.1093750000,2,0.5995541215,,,
23.1250000000,2,0.1044865027,,,
23.1406250000,2,-0.1575451046,,,
23.1562500000,2,-0.1736564934,,,
23.1718750000,2,-0.0150489798,,,
23.1875000000,2,0.2217846066,,,
23.2031250000,2,0.4586162865,,,
23.2187500000,2,0.6647357941,,,
23.2343750000,2,0.8315430284,,,
23.2500000000,2,0.9665756226,,,
23.2656250000,2,1.0553020239,,,
23.2812500000,2,1.0642830133,,,
23.2968750000,2,0.9653053284,,,
23.3125000000,2,0.7448616028,,,
23.3281250000,2,0.4380435944,,,
23.3437500000,2,0.1104106978,,,
23.3593750000,2,-0.1498623043,,,
23.3750000000,2,-0.2892475128,,,
23.3906250000,2,-0.3024387062,,,
23.4062500000,2,-0.2623730004,,,
23.4218750000,2,-0.2674979866,,,
23.4375000000,2,-0.3935546875,,,
23.4531250000,2,-0.6372910142,,,
23.4687500000,2,-0.9096375108,,,
23.4843750000,2,-1.0954949856,,,
23.5000000000,2,-1.1062870026,,,
23.5156250000,2,-0.9611186981,,,
23.5312500000,2,-0.7508869171,,,
23.5468750000,2,-0.5884590149,,,
23.5625000000,2,-0.5331553817,,,
23.5781250000,2,-0.5571250916,,,
23.5937500000,2,-0.5930613875,,,
23.6093750000,2,-0.6082457900,,,
23.6250000000,2,-0.6472855210,,,
23.6406250000,2,-0.8027362823,,,
23.6562500000,2,-1.1458359957,,,
23.6718750000,2,-1.6224019527,,,
23.6875000000,2,-2.0456540585,,,
23.7031250000,2,-2.1759150028,,,
23.7187500000,2,-1.8411250114,,,
23.7343750000,2,-1.0481719971,,,
23.7500000000,2,0.0039558411,,,
23.7656250000,2,1.0015530586,,,
23.7812500000,2,1.6527919769,,,
23.7968750000,2,1.8251880407,,,
23.8125000000,2,1.5652070045,,,
23.8281250000,2,1.0774970055,,,
23.8437500000,2,0.5916500092,,,
23.8593750000,2,0.2932262123,,,
23.8750000000,2,0.2286625057,,,
23.8906250000,2,0.3331984878,,,
23.9062500000,2,0.4725188911,,,
23.9218750000,2,0.5148487091,,,
23.9375000000,2,0.3892117143,,,
23.9531250000,2,0.0986309126,,,
23.9687500000,2,-0.2725639045,,,
23.9843750000,2,-0.6204453111,,,
24.0000000000,3,-0.8316879272,,,
24.0156250000,3,-0.8328896165,,,
24.0312500000,3,-0.5983142853,,,
24.0468750000,3,-0.1731358021,,,
24.0625000000,3,0.3371315002,,,
24.0781250000,3,0.7961903214,,,
24.0937500000,3,1.0825350285,,,
24.1093750000,3,1.1294560432,,,
24.1250000000,3,0.9494419098,,,
24.1406250000,3,0.6303195953,,,
24.1562500000,3,0.2929858863,,,
24.1718750000,3,0.0348644294,,,
24.1875000000,3,-0.0912780836,,,
24.2031250000,3,-0.0913562775,,,
24.2187500000,3,-0.0193099994,,,
24.2343750000,3,0.0676708221,,,
24.2500000000,3,0.1303023994,,,
24.2656250000,3,0.1524429023,,,
24.2812500000,3,0.1362247020,,,
24.2968750000,3,0.0961647034,,,
24.3125000000,3,0.0382995605,,,
24.3281250000,3,-0.0268821698,,,
24.3437500000,3,-0.0916671827,,,
24.3593750000,3,-0.1473522037,,,
24.3750000000,3,-0.1953697056,,,
24.3906250000,3,-0.2446175069,,,
24.4062500000,3,-0.3270835876,,,
24.4218750000,3,-0.4593333900,,,
24.4375000000,3,-0.6424025893,,,
24.4531250000,3,-0.8449745178,,,
24.4687500000,3,-0.9810009003,,,
24.4843750000,3,-0.9556292892,,,
24.5000000000,3,-0.7070693970,,,
24.5156250000,3,-0.2419528961,,,
24.5312500000,3,0.3486537933,,,
24.5468750000,3,0.9063969254,,,
24.5625000000,3,1.2802619934,,,
24.5781250000,3,1.3880840540,,,
24.5937500000,3,1.2565879822,,,
24.6093750000,3,1.0106929541,,,
24.6250000000,3,0.8040866852,,,
24.6406250000,3,0.7486228943,,,
24.6562500000,3,0.8625584245,,,
24.6718750000,3,1.0547579527,,,
24.6875000000,3,1.1903779507,,,
24.7031250000,3,1.1459770203,,,
24.7187500000,3,0.8802298903,,,
24.7343750000,3,0.4551276863,,,
24.7500000000,3,0.0154533396,,,
24.7656250000,3,-0.2933388054,,,
24.7812500000,3,-0.3829669952,,,
24.7968750000,3,-0.2575798035,,,
24.8125000000,3,-0.0140609704,,,
24.8281250000,3,0.2113742977,,,
24.8437500000,3,0.3140696883,,,
24.8593750000,3,0.2512015998,,,
24.8750000000,3,0.0621185303,,,
24.8906250000,3,-0.1591988057,,,
24.9062500000,3,-0.3340548873,,,
24.9218750000,3,-0.4255523980,,,
24.9375000000,3,-0.4548949897,,,
24.9531250000,3,-0.4793700874,,,
24.9687500000,3,-0.5245438218,,,
24.9843750000,3,-0.5680255890,,,
25.0000000000,3,-0.5592613220,,,
25.0156250000,3,-0.4600696862,,,
25.0312500000,3,-0.2745055854,,,
25.0468750000,3,-0.0719070435,,,
25.0625000000,3,0.0679798126,,,
25.0781250000,3,0.1070460975,,,
25.0937500000,3,0.0730762482,,,
25.1093750000,3,0.0532169305,,,
25.1250000000,3,0.1232014000,,,
25.1406250000,3,0.3141135871,,,
25.1562500000,3,0.5649796128,,,
25.1718750000,3,0.7622489929,,,
25.1875000000,3,0.7974739075,,,
25.2031250000,3,0.6109275818,,,
25.2187500000,3,0.2196121067,,,
25.2343750000,3,-0.3087787926,,,
25.2500000000,3,-0.8668518066,,,
25.2656250000,3,-1.3418500423,,,
25.2812500000,3,-1.6274809837,,,
25.2968750000,3,-1.6465640068,,,
25.3125000000,3,-1.3613929749,,,
25.3281250000,3,-0.8112010956,,,
25.3437500000,3,-0.1018275991,,,
25.3593750000,3,0.6248093247,,,
25.3750000000,3,1.2388230562,,,
25.3906250000,3,1.6566050053,,,
25.4062500000,3,1.8774780035,,,
25.4218750000,3,1.9451119900,,,
25.4375000000,3,1.9270479679,,,
25.4531250000,3,1.8558709621,,,
25.4687500000,3,1.7347259521,,,
25.4843750000,3,1.5397909880,,,
25.5000000000,3,1.2600710392,,,
25.5156250000,3,0.9018021226,,,
25.5312500000,3,0.5131912231,,,
25.5468750000,3,0.1639481038,,,
25.5625000000,3,-0.0907268524,,,
25.5781250000,3,-0.2181148976,,,
25.5937500000,3,-0.2285422981,,,
25.6093750000,3,-0.1473045051,,,
25.6250000000,3,-0.0163593292,,,
25.6406250000,3,0.1453265995,,,
25.6562500000,3,0.3220100105,,,
25.6718750000,3,0.5020676255,,,
25.6875000000,3,0.6554756165,,,
25.7031250000,3,0.7406578064,,,
25.7187500000,3,0.7120379806,,,
25.7343750000,3,0.5431079865,,,
25.7500000000,3,0.2466887981,,,
25.7656250000,3,-0.1179198995,,,
25.7812500000,3,-0.4640311897,,,
25.7968750000,3,-0.7113780975,,,
25.8125000000,3,-0.8341922760,,,
25.8281250000,3,-0.8663750291,,,
25.8437500000,3,-0.9027327895,,,
25.8593750000,3,-1.0342659950,,,
25.8750000000,3,-1.2857340574,,,
25.8906250000,3,-1.5933799744,,,
25.9062500000,3,-1.8300759792,,,
25.9218750000,3,-1.8738559484,,,
25.9375000000,3,-1.6796699762,,,
25.9531250000,3,-1.3094960451,,,
25.9687500000,3,-0.8980370164,,,
25.9843750000,3,-0.5783463120,,,
26.0000000000,3,-0.4101105034,,,
26.0156250000,3,-0.3802719116,,,
26.0312500000,3,-0.4375286102,,,
26.0468750000,3,-0.5527362823,,,
26.0625000000,3,-0.7339611053,,,
26.0781250000,3,-1.0075360537,,,
26.0937500000,3,-1.3505740166,,,
26.1093750000,3,-1.6422979832,,,
26.1250000000,3,-1.7012419701,,,
26.1406250000,3,-1.3788679838,,,
26.1562500000,3,-0.6567649841,,,
26.1718750000,3,0.3099097908,,,
26.1875000000,3,1.2430039644,,,
26.2031250000,3,1.8702529669,,,
26.2187500000,3,2.0545880795,,,
26.2343750000,3,1.8502769470,,,
26.2500000000,3,1.4421999454,,,
26.2656250000,3,1.0504759550,,,
26.2812500000,3,0.8010634780,,,
26.2968750000,3,0.7055072784,,,
26.3125000000,3,0.6612663269,,,
26.3281250000,3,0.5509892106,,,
26.3437500000,3,0.3109264076,,,
26.3593750000,3,-0.0396270789,,,
26.3750000000,3,-0.4287852943,,,
26.3906250000,3,-0.7599182129,,,
26.4062500000,3,-0.9593296051,,,
26.4218750000,3,-0.9715136886,,,
26.4375000000,3,-0.7790089250,,,
26.4531250000,3,-0.4016017914,,,
26.4687500000,3,0.0856800079,,,
26.4843750000,3,0.5660895705,,,
26.5000000000,3,0.9257258773,,,
26.5156250000,3,1.0861320496,,,
26.5312500000,3,1.0606060028,,,
26.5468750000,3,0.9089146256,,,
26.5625000000,3,0.7189865112,,,
26.5781250000,3,0.5433387756,,,
26.5937500000,3,0.3802318871,,,
26.6093750000,3,0.2051753998,,,
26.6250000000,3,0.0058612819,,,
26.6406250000,3,-0.1931667030,,,
26.6562500000,3,-0.3387604058,,,
26.6718750000,3,-0.3702735901,,,
26.6875000000,3,-0.2406253964,,,
26.7031250000,3,0.0519714393,,,
26.7187500000,3,0.4626578987,,,
26.7343750000,3,0.9160594940,,,
26.7500000000,3,1.3054239750,,,
26.7656250000,3,1.5332950354,,,
26.7812500000,3,1.5413420200,,,
26.7968750000,3,1.3353860378,,,
26.8125000000,3,0.9937552810,,,
26.8281250000,3,0.6190013885,,,
26.8437500000,3,0.2928219140,,,
26.8593750000,3,0.0378074609,,,
26.8750000000,3,-0.1687489003,,,
26.8906250000,3,-0.3590373993,,,
26.9062500000,3,-0.5451697707,,,
26.9218750000,3,-0.6904335022,,,
26.9375000000,3,-0.7543982863,,,
26.9531250000,3,-0.7185801864,,,
26.9687500000,3,-0.6238098145,,,
26.9843750000,3,-0.5492095947,,,
27.0000000000,3,-0.5698317885,,,
27.0156250000,3,-0.7204514146,,,
27.0312500000,3,-0.9505196214,,,
27.0468750000,3,-1.1551460028,,,
27.0625000000,3,-1.2093980312,,,
27.0781250000,3,-1.0114649534,,,
27.0937500000,3,-0.5511016846,,,
27.1093750000,3,0.1085376963,,,
27.1250000000,3,0.8275166154,,,
27.1406250000,3,1.4648439884,,,
27.1562500000,3,1.8997629881,,,
27.1718750000,3,2.0736010075,,,
27.1875000000,3,1.9799519777,,,
27.2031250000,3,1.6563470364,,,
27.2187500000,3,1.1756019592,,,
27.2343750000,3,0.6151791215,,,
27.2500000000,3,0.0452899896,,,
27.2656250000,3,-0.4948214889,,,
27.2812500000,3,-0.9840012193,,,
27.2968750000,3,-1.4093110561,,,
27.3125000000,3,-1.7274359465,,,
27.3281250000,3,-1.8792949915,,,
27.3437500000,3,-1.7911609411,,,
27.3593750000,3,-1.4414600134,,,
27.3750000000,3,-0.8909416199,,,
27.3906250000,3,-0.2611446083,,,
27.4062500000,3,0.2910727859,,,
27.4218750000,3,0.6557713151,,,
27.4375000000,3,0.8019772172,,,
27.4531250000,3,0.7676677704,,,
27.4687500000,3,0.6104735732,,,
27.4843750000,3,0.3781242073,,,
27.5000000000,3,0.0918445587,,,
27.5156250000,3,-0.2263336033,,,
27.5312500000,3,-0.5116329193,,,
27.5468750000,3,-0.6964263916,,,
27.5625000000,3,-0.7352523804,,,
27.5781250000,3,-0.6440163255,,,
27.5937500000,3,-0.5170288086,,,
27.6093750000,3,-0.4433974922,,,
27.6250000000,3,-0.4639892876,,,
27.6406250000,3,-0.5283278823,,,
27.6562500000,3,-0.5659027100,,,
27.6718750000,3,-0.5166358948,,,
27.6875000000,3,-0.3934916854,,,
27.7031250000,3,-0.2717666924,,,
27.7187500000,3,-0.2199783027,,,
27.7343750000,3,-0.2615585029,,,
27.7500000000,3,-0.3548527062,,,
27.7656250000,3,-0.4276905060,,,
27.7812500000,3,-0.4436550140,,,
27.7968750000,3,-0.4254971147,,,
27.8125000000,3,-0.4329453111,,,
27.8281250000,3,-0.5145893097,,,
27.8437500000,3,-0.6507015228,,,
27.8593750000,3,-0.7643908858,,,
27.8750000000,3,-0.7846413255,,,
27.8906250000,3,-0.6986274719,,,
27.9062500000,3,-0.5801696777,,,
27.9218750000,3,-0.5479984283,,,
27.9375000000,3,-0.6714324951,,,
27.9531250000,3,-0.9071388245,,,
27.9687500000,3,-1.1149560213,,,
27.9843750000,3,-1.1175589561,,,
28.0000000000,3,-0.8119506836,,,
28.0156250000,3,-0.2187976986,,,
28.0312500000,3,0.5326957703,,,
28.0468750000,3,1.2552779913,,,
28.0625000000,3,1.7977620363,,,
28.0781250000,3,2.0842380524,,,
28.0937500000,3,2.1182610989,,,
28.1093750000,3,1.9479409456,,,
28.1250000000,3,1.6338100433,,,
28.1406250000,3,1.2456320524,,,
28.1562500000,3,0.8457965851,,,
28.1718750000,3,0.4990100861,,,
28.1875000000,3,0.2637729943,,,
28.2031250000,3,0.1741504967,,,
28.2187500000,3,0.2171096951,,,
28.2343750000,3,0.3502998054,,,
28.2500000000,3,0.5155715942,,,
28.2656250000,3,0.6828002930,,,
28.2812500000,3,0.8340054154,,,
28.2968750000,3,0.9867916107,,,
28.3125000000,3,1.1708389521,,,
28.3281250000,3,1.4039520025,,,
28.3437500000,3,1.6785769463,,,
28.3593750000,3,1.9231009483,,,
28.3750000000,3,2.0406820774,,,
28.3906250000,3,1.9586809874,,,
28.4062500000,3,1.6862599850,,,
28.4218750000,3,1.3450510502,,,
28.4375000000,3,1.1014900208,,,
28.4531250000,3,1.0762410164,,,
28.4687500000,3,1.2461299896,,,
28.4843750000,3,1.4464230537,,,
28.5000000000,3,1.4367239475,,,
28.5156250000,3,1.0579869747,,,
28.5312500000,3,0.3312073052,,,
28.5468750000,3,-0.5339488983,,,
28.5625000000,3,-1.2460880280,,,
28.5781250000,3,-1.5639359951,,,
28.5937500000,3,-1.3982870579,,,
28.6093750000,3,-0.8183460236,,,
28.6250000000,3,0.0208148994,,,
28.6406250000,3,0.9600716233,,,
28.6562500000,3,1.8586670160,,,
28.6718750000,3,2.5850329399,,,
28.6875000000,3,2.9849929810,,,
28.7031250000,3,2.9171490669,,,
28.7187500000,3,2.3120350838,,,
28.7343750000,3,1.2283630371,,,
28.7500000000,3,-0.1264857948,,,
28.7656250000,3,-1.4332710505,,,
28.7812500000,3,-2.3899779320,,,
28.7968750000,3,-2.7973079681,,,
28.8125000000,3,-2.6377959251,,,
28.8281250000,3,-2.0746190548,,,
28.8437500000,3,-1.3687670231,,,
28.8593750000,3,-0.8035526276,,,
28.8750000000,3,-0.5777072906,,,
28.8906250000,3,-0.7589188218,,,
28.9062500000,3,-1.2787109613,,,
28.9218750000,3,-1.9666500092,,,
28.9375000000,3,-2.6356220245,,,
28.9531250000,3,-3.1505129337,,,
28.9687500000,3,-3.4739279747,,,
28.9843750000,3,-3.6322119236,,,
29.0000000000,3,-3.6746311188,,,
29.0156250000,3,-3.6050000191,,,
29.0312500000,3,-3.3689100742,,,
29.0468750000,3,-2.8861680031,,,
29.0625000000,3,-2.1539750099,,,
29.0781250000,3,-1.2794909477,,,
29.0937500000,3,-0.4830074012,,,
29.1093750000,3,0.0129699698,,,
29.1250000000,3,0.0990486071,,,
29.1406250000,3,-0.1500435024,,,
29.1562500000,3,-0.5166168213,,,
29.1718750000,3,-0.7408791184,,,
29.1875000000,3,-0.6806641221,,,
29.2031250000,3,-0.3740845025,,,
29.2187500000,3,-0.0128326397,,,
29.2343750000,3,0.1763954014,,,
29.2500000000,3,0.0724182129,,,
29.2656250000,3,-0.2553558052,,,
29.2812500000,3,-0.6091175079,,,
29.2968750000,3,-0.7766209245,,,
29.3125000000,3,-0.6544361115,,,
29.3281250000,3,-0.3154430091,,,
29.3437500000,3,0.0630798265,,,
29.3593750000,3,0.3002682030,,,
29.3750000000,3,0.3133792877,,,
29.3906250000,3,0.1358298957,,,
29.4062500000,3,-0.1365527958,,,
29.4218750000,3,-0.4341965020,,,
29.4375000000,3,-0.7453784943,,,
29.4531250000,3,-1.0958189964,,,
29.4687500000,3,-1.4893840551,,,
29.4843750000,3,-1.8347320557,,,
29.5000000000,3,-1.9643100500,,,
29.5156250000,3,-1.7107089758,,,
29.5312500000,3,-1.0218369961,,,
29.5468750000,3,-0.0231685601,,,
29.5625000000,3,1.0115870237,,,
29.5781250000,3,1.7729150057,,,
29.5937500000,3,2.0405271053,,,
29.6093750000,3,1.7787530422,,,
29.6250000000,3,1.1408809423,,,
29.6406250000,3,0.4164619148,,,
29.6562500000,3,-0.1152954027,,,
29.6718750000,3,-0.2833518982,,,
29.6875000000,3,-0.1109561995,,,
29.7031250000,3,0.2316703945,,,
29.7187500000,3,0.5110263824,,,
29.7343750000,3,0.5690917969,,,
29.7500000000,3,0.4026851952,,,
29.7656250000,3,0.1604443043,,,
29.7812500000,3,0.0516548194,,,
29.7968750000,3,0.2092857063,,,
29.8125000000,3,0.6144866943,,,
29.8281250000,3,1.0997179747,,,
29.8437500000,3,1.4570770264,,,
29.8593750000,3,1.5528049469,,,
29.8750000000,3,1.3963409662,,,
29.8906250000,3,1.1342329979,,,
29.9062500000,3,0.9387112260,,,
29.9218750000,3,0.8983020782,,,
29.9375000000,3,0.9832611084,,,
29.9531250000,3,1.0826029778,,,
29.9687500000,3,1.1001969576,,,
29.9843750000,3,1.0208319426,,,
30.0000000000,3,0.8907260895,,,
30.0156250000,3,0.7697010040,,,
30.0312500000,3,0.6811618805,,,
30.0468750000,3,0.5797882080,,,
30.0625000000,3,0.4196529090,,,
30.0781250000,3,0.1947689056,,,
30.0937500000,3,-0.0393238105,,,
30.1093750000,3,-0.2036246955,,,
30.1250000000,3,-0.2784442902,,,
30.1406250000,3,-0.3026446998,,,
30.1562500000,3,-0.3555164039,,,
30.1718750000,3,-0.4803904891,,,
30.1875000000,3,-0.6573638916,,,
30.2031250000,3,-0.7906761169,,,
30.2187500000,3,-0.7939968109,,,
30.2343750000,3,-0.6413918138,,,
30.2500000000,3,-0.3780994117,,,
30.2656250000,3,-0.1041736975,,,
30.2812500000,3,0.0960845873,,,
30.2968750000,3,0.1867713928,,,
30.3125000000,3,0.1772480011,,,
30.3281250000,3,0.1007004008,,,
30.3437500000,3,-0.0150184603,,,
30.3593750000,3,-0.1588954926,,,
30.3750000000,3,-0.3404712975,,,
30.3906250000,3,-0.5756778717,,,
30.4062500000,3,-0.8747559190,,,
30.4218750000,3,-1.2204589844,,,
30.4375000000,3,-1.5598720312,,,
30.4531250000,3,-1.8158650398,,,
30.4687500000,3,-1.9131430387,,,
30.4843750000,3,-1.8226590157,,,
30.5000000000,3,-1.5835950375,,,
30.5156250000,3,-1.2922650576,,,
30.5312500000,3,-1.0347839594,,,
30.5468750000,3,-0.8508052826,,,
30.5625000000,3,-0.7123259902,,,
30.5781250000,3,-0.5779858232,,,
30.5937500000,3,-0.4529857934,,,
30.6093750000,3,-0.3947905898,,,
30.6250000000,3,-0.4881916046,,,
30.6406250000,3,-0.7728214264,,,
30.6562500000,3,-1.1897280216,,,
30.6718750000,3,-1.6300220490,,,
30.6875000000,3,-2.0171449184,,,
30.7031250000,3,-2.3415970802,,,
30.7187500000,3,-2.6859550476,,,
30.7343750000,3,-3.1390190125,,,
30.7500000000,3,-3.7057719231,,,
30.7656250000,3,-4.2823638916,,,
30.7812500000,3,-4.7209591866,,,
30.7968750000,3,-4.9095249176,,,
30.8125000000,3,-4.8585591316,,,
30.8281250000,3,-4.6754841805,,,
30.8437500000,3,-4.5009732246,,,
30.8593750000,3,-4.4090538025,,,
30.8750000000,3,-4.3506340981,,,
30.8906250000,3,-4.1734709740,,,
30.9062500000,3,-3.7041239738,,,
30.9218750000,3,-2.8361508846,,,
30.9375000000,3,-1.5783309937,,,
30.9531250000,3,-0.0468406714,,,
30.9687500000,3,1.5882949829,,,
30.9843750000,3,3.1578938961,,,
31.0000000000,3,4.5372810364,,,
31.0156250000,3,5.6457881927,,,
31.0312500000,3,6.4332618713,,,
31.0468750000,3,6.8777141571,,,
31.0625000000,3,6.9910697937,,,
31.0781250000,3,6.8587279320,,,
31.0937500000,3,6.6212038994,,,
31.1093750000,3,6.4665579796,,,
31.1250000000,3,6.5517311096,,,
31.1406250000,3,6.9337539673,,,
31.1562500000,3,7.5486769676,,,
31.1718750000,3,8.2377738953,,,
31.1875000000,3,8.8126010895,,,
31.2031250000,3,9.1379890442,,,
31.2187500000,3,9.1704654694,,,
31.2343750000,3,8.9233036041,,,
31.2500000000,3,8.4311122894,,,
31.2656250000,3,7.7294368744,,,
31.2812500000,3,6.8482551575,,,
31.2968750000,3,5.8306617737,,,
31.3125000000,3,4.7169589996,,,
31.3281250000,3,3.5572779179,,,
31.3437500000,3,2.3702139854,,,
31.3593750000,3,1.1632790565,,,
31.3750000000,3,-0.0404033698,,,
31.3906250000,3,-1.1843489408,,,
31.4062500000,3,-2.1695499420,,,
31.4218750000,3,-2.9123270512,,,
31.4375000000,3,-3.4013819695,,,
31.4531250000,3,-3.7099039555,,,
31.4687500000,3,-3.9611759186,,,
31.4843750000,3,-4.2548432350,,,
31.5000000000,3,-4.5775132179,,,
31.5156250000,3,-4.8208899498,,,
31.5312500000,3,-4.8671021461,,,
31.5468750000,3,-4.6731448174,,,
31.5625000000,3,-4.3393192291,,,
31.5781250000,3,-4.0296421051,,,
31.5937500000,3,-3.8867659569,,,
31.6093750000,3,-3.9153161049,,,
31.6250000000,3,-4.0024638176,,,
31.6406250000,3,-3.9900889397,,,
31.6562500000,3,-3.7811360359,,,
31.6718750000,3,-3.3908729553,,,
31.6875000000,3,-2.9157409668,,,
31.7031250000,3,-2.4656810760,,,
31.7187500000,3,-2.0884339809,,,
31.7343750000,3,-1.7422100306,,,
31.7500000000,3,-1.3348579407,,,
31.7656250000,3,-0.8050842285,,,
31.7812500000,3,-0.1404915005,,,
31.7968750000,3,0.5943030715,,,
31.8125000000,3,1.2629280090,,,
31.8281250000,3,1.7354639769,,,
31.8437500000,3,1.9006079435,,,
31.8593750000,3,1.7280449867,,,
31.8750000000,3,1.2879849672,,,
31.8906250000,3,0.7465000153,,,
31.9062500000,3,0.2949734032,,,
31.9218750000,3,0.0644512177,,,
31.9375000000,3,0.0549011193,,,
31.9531250000,3,0.1254882962,,,
31.9687500000,3,0.1120337993,,,
31.9843750000,3,-0.0988769531,,,
32.0000000000,4,-0.4579792023,,,
32.0156250000,4,-0.8159657121,,,
32.0312500000,4,-1.0246939659,,,
32.0468750000,4,-1.0150510073,,,
32.0625000000,4,-0.8328437805,,,
32.0781250000,4,-0.5650349259,,,
32.0937500000,4,-0.2857285142,,,
32.1093750000,4,-0.0177230798,,,
32.1250000000,4,0.2428531945,,,
32.1406250000,4,0.4774647057,,,
32.1562500000,4,0.6126595140,,,
32.1718750000,4,0.5634480119,,,
32.1875000000,4,0.2985095978,,,
32.2031250000,4,-0.1021137014,,,
32.2187500000,4,-0.4936923981,,,
32.2343750000,4,-0.7454966903,,,
32.2500000000,4,-0.7908629775,,,
32.2656250000,4,-0.6970862746,,,
32.2812500000,4,-0.5761032104,,,
32.2968750000,4,-0.5055121779,,,
32.3125000000,4,-0.4948196113,,,
32.3281250000,4,-0.4798583984,,,
32.3437500000,4,-0.4027462006,,,
32.3593750000,4,-0.2520618141,,,
32.3750000000,4,-0.0822467804,,,
32.3906250000,4,0.0474338494,,,
32.4062500000,4,0.1031742021,,,
32.4218750000,4,0.0956458971,,,
32.4375000000,4,0.0731449127,,,
32.4531250000,4,0.0642318726,,,
32.4687500000,4,0.0815525129,,,
32.4843750000,4,0.0721855164,,,
32.5000000000,4,-0.0272045098,,,
32.5156250000,4,-0.2707976997,,,
32.5312500000,4,-0.6576384902,,,
32.5468750000,4,-1.1070859432,,,
32.5625000000,4,-1.4797480106,,,
32.5781250000,4,-1.6076619625,,,
32.5937500000,4,-1.3849159479,,,
32.6093750000,4,-0.8154202104,,,
32.6250000000,4,-0.0339164697,,,
32.6406250000,4,0.7658194900,,,
32.6562500000,4,1.4049190283,,,
32.6718750000,4,1.8054410219,,,
32.6875000000,4,2.0085110664,,,
32.7031250000,4,2.1354660988,,,
32.7187500000,4,2.2815480232,,,
32.7343750000,4,2.4404470921,,,
32.7500000000,4,2.5245249271,,,
32.7656250000,4,2.4161820412,,,
32.7812500000,4,2.0651319027,,,
32.7968750000,4,1.5415949821,,,
32.8125000000,4,0.9958571792,,,
32.8281250000,4,0.5604153275,,,
32.8437500000,4,0.2806319892,,,
32.8593750000,4,0.1012459025,,,
32.8750000000,4,-0.0688400269,,,
32.8906250000,4,-0.2731724083,,,
32.9062500000,4,-0.4641112983,,,
32.9218750000,4,-0.5261706710,,,
32.9375000000,4,-0.3660582900,,,
32.9531250000,4,0.0105514498,,,
32.9687500000,4,0.4926146865,,,
32.9843750000,4,0.9093456268,,,
33.0000000000,4,1.1314580441,,,
33.0156250000,4,1.1274529696,,,
33.0312500000,4,0.9511929154,,,
33.0468750000,4,0.6928387284,,,
33.0625000000,4,0.4299145043,,,
33.0781250000,4,0.2086620033,,,
33.0937500000,4,0.0563068390,,,
33.1093750000,4,0.0166416205,,,
33.1250000000,4,0.1105061024,,,
33.1406250000,4,0.3206329048,,,
33.1562500000,4,0.5415096283,,,
33.1718750000,4,0.6204795837,,,
33.1875000000,4,0.4402217865,,,
33.2031250000,4,0.0114288302,,,
33.2187500000,4,-0.5249785781,,,
33.2343750000,4,-0.9552841187,,,
33.2500000000,4,-1.1119819880,,,
33.2656250000,4,-0.9629917145,,,
33.2812500000,4,-0.6233654022,,,
33.2968750000,4,-0.2826958001,,,
33.3125000000,4,-0.0866680071,,,
33.3281250000,4,-0.0864124298,,,
33.3437500000,4,-0.2364597023,,,
33.3593750000,4,-0.4616603851,,,
33.3750000000,4,-0.7074527740,,,
33.3906250000,4,-0.9657402039,,,
33.4062500000,4,-1.2516059875,,,
33.4218750000,4,-1.5457320213,,,
33.4375000000,4,-1.7773020267,,,
33.4531250000,4,-1.8441410065,,,
33.4687500000,4,-1.6570219994,,,
33.4843750000,4,-1.2116789818,,,
33.5000000000,4,-0.5955181122,,,
33.5156250000,4,0.0353546105,,,
33.5312500000,4,0.5323752761,,,
33.5468750000,4,0.8073921204,,,
33.5625000000,4,0.8982697129,,,
33.5781250000,4,0.9240493774,,,
33.5937500000,4,1.0126210451,,,
33.6093750000,4,1.2173180580,,,
33.6250000000,4,1.4665720463,,,
33.6406250000,4,1.6330800056,,,
33.6562500000,4,1.6049900055,,,
33.6718750000,4,1.3661650419,,,
33.6875000000,4,0.9982604980,,,
33.7031250000,4,0.6382771134,,,
33.7187500000,4,0.3642463982,,,
33.7343750000,4,0.1522693932,,,
33.7500000000,4,-0.1097354963,,,
33.7656250000,4,-0.5253009796,,,
33.7812500000,4,-1.1213090420,,,
33.7968750000,4,-1.8157750368,,,
33.8125000000,4,-2.4279189110,,,
33.8281250000,4,-2.7642960548,,,
33.8437500000,4,-2.7023088932,,,
33.8593750000,4,-2.2334249020,,,
33.8750000000,4,-1.4755460024,,,
33.8906250000,4,-0.6276264191,,,
33.9062500000,4,0.0903453827,,,
33.9218750000,4,0.5215548873,,,
33.9375000000,4,0.6149234772,,,
33.9531250000,4,0.4359206855,,,
33.9687500000,4,0.1247844994,,,
33.9843750000,4,-0.1757317036,,,
34.0000000000,4,-0.3671551049,,,
34.0156250000,4,-0.4241276085,,,
34.0312500000,4,-0.3527717888,,,
34.0468750000,4,-0.1851540059,,,
34.0625000000,4,0.0426063500,,,
34.0781250000,4,0.2852897942,,,
34.0937500000,4,0.4855881035,,,
34.1093750000,4,0.5865364075,,,
34.1250000000,4,0.5488796234,,,
34.1406250000,4,0.3879280090,,,
34.1562500000,4,0.1733188927,,,
34.1718750000,4,-0.0107135801,,,
34.1875000000,4,-0.1098517999,,,
34.2031250000,4,-0.1255798042,,,
34.2187500000,4,-0.1028918996,,,
34.2343750000,4,-0.0893936232,,,
34.2500000000,4,-0.1118983999,,,
34.2656250000,4,-0.1400261074,,,
34.2812500000,4,-0.1399593055,,,
34.2968750000,4,-0.0888233185,,,
34.3125000000,4,0.0162925702,,,
34.3281250000,4,0.1673907936,,,
34.3437500000,4,0.3564949036,,,
34.3593750000,4,0.5913314819,,,
34.3750000000,4,0.8617858887,,,
34.3906250000,4,1.1353529692,,,
34.4062500000,4,1.3467459679,,,
34.4218750000,4,1.4254059792,,,
34.4375000000,4,1.3041900396,,,
34.4531250000,4,0.9693927765,,,
34.4687500000,4,0.4797249138,,,
34.4843750000,4,-0.0571041107,,,
34.5000000000,4,-0.5126991272,,,
34.5156250000,4,-0.7993412018,,,
34.5312500000,4,-0.8957787156,,,
34.5468750000,4,-0.8468112946,,,
34.5625000000,4,-0.7363204956,,,
34.5781250000,4,-0.6361160278,,,
34.5937500000,4,-0.5731316209,,,
34.6093750000,4,-0.5347977281,,,
34.6250000000,4,-0.4716129005,,,
34.6406250000,4,-0.3369903862,,,
34.6562500000,4,-0.1051959991,,,
34.6718750000,4,0.1848506927,,,
34.6875000000,4,0.4723205864,,,
34.7031250000,4,0.6739407182,,,
34.7187500000,4,0.7413445115,,,
34.7343750000,4,0.6629447937,,,
34.7500000000,4,0.4699515998,,,
34.7656250000,4,0.2384833992,,,
34.7812500000,4,0.0504570007,,,
34.7968750000,4,-0.0383453406,,,
34.8125000000,4,-0.0176467896,,,
34.8281250000,4,0.0548534393,,,
34.8437500000,4,0.0941333771,,,
34.8593750000,4,0.0428085290,,,
34.8750000000,4,-0.0990428925,,,
34.8906250000,4,-0.2563132942,,,
34.9062500000,4,-0.3404712975,,,
34.9218750000,4,-0.2928504944,,,
34.9375000000,4,-0.1255626976,,,
34.9531250000,4,0.0976257324,,,
34.9687500000,4,0.2929267883,,,
34.9843750000,4,0.4030762017,,,
35.0000000000,4,0.4091891944,,,
35.0156250000,4,0.3222293854,,,
35.0312500000,4,0.1577147990,,,
35.0468750000,4,-0.0669288635,,,
35.0625000000,4,-0.3094997108,,,
35.0781250000,4,-0.4891872108,,,
35.0937500000,4,-0.4895781875,,,
35.1093750000,4,-0.2185458988,,,
35.1250000000,4,0.3306655884,,,
35.1406250000,4,1.0245529413,,,
35.1562500000,4,1.6544040442,,,
35.1718750000,4,2.0025310516,,,
35.1875000000,4,1.9660550356,,,
35.2031250000,4,1.5850830078,,,
35.2187500000,4,1.0219689608,,,
35.2343750000,4,0.4646129906,,,
35.2500000000,4,0.0502643585,,,
35.2656250000,4,-0.1951179951,,,
35.2812500000,4,-0.3139762878,,,
35.2968750000,4,-0.3726826012,,,
35.3125000000,4,-0.3960075080,,,
35.3281250000,4,-0.3605442047,,,
35.3437500000,4,-0.2306004018,,,
35.3593750000,4,-0.0072402949,,,
35.3750000000,4,0.2494678050,,,
35.3906250000,4,0.4417343140,,,
35.4062500000,4,0.4785651863,,,
35.4218750000,4,0.3209362030,,,
35.4375000000,4,-0.0065650940,,,
35.4531250000,4,-0.4189529121,,,
35.4687500000,4,-0.8374118805,,,
35.4843750000,4,-1.1989970207,,,
35.5000000000,4,-1.4775120020,,,
35.5156250000,4,-1.6654609442,,,
35.5312500000,4,-1.7405190468,,,
35.5468750000,4,-1.6665730476,,,
35.5625000000,4,-1.4188350439,,,
35.5781250000,4,-1.0121610165,,,
35.5937500000,4,-0.5382003784,,,
35.6093750000,4,-0.1385821998,,,
35.6250000000,4,0.0587406196,,,
35.6406250000,4,0.0019912720,,,
35.6562500000,4,-0.2551231086,,,
35.6718750000,4,-0.5843449235,,,
35.6875000000,4,-0.8480988145,,,
35.7031250000,4,-0.9565638900,,,
35.7187500000,4,-0.9097614288,,,
35.7343750000,4,-0.7792587280,,,
35.7500000000,4,-0.6505203247,,,
35.7656250000,4,-0.5786399841,,,
35.7812500000,4,-0.5825042725,,,
35.7968750000,4,-0.6440219879,,,
35.8125000000,4,-0.7338275909,,,
35.8281250000,4,-0.8271998763,,,
35.8437500000,4,-0.8874930739,,,
35.8593750000,4,-0.8674582839,,,
35.8750000000,4,-0.6976184845,,,
35.8906250000,4,-0.3186073005,,,
35.9062500000,4,0.2684746087,,,
35.9218750000,4,0.9743958116,,,
35.9375000000,4,1.6344150305,,,
35.9531250000,4,2.0548629761,,,
35.9687500000,4,2.1057679653,,,
35.9843750000,4,1.7636129856,,,
36.0000000000,4,1.1202679873,,,
36.0156250000,4,0.3517341912,,,
36.0312500000,4,-0.3417606056,,,
36.0468750000,4,-0.8008480072,,,
36.0625000000,4,-0.9486579895,,,
36.0781250000,4,-0.7915287018,,,
36.0937500000,4,-0.4099578857,,,
36.1093750000,4,0.0657195970,,,
36.1250000000,4,0.4806576073,,,
36.1406250000,4,0.7145481110,,,
36.1562500000,4,0.7081279755,,,
36.1718750000,4,0.5026493073,,,
36.1875000000,4,0.2103995979,,,
36.2031250000,4,-0.0160102807,,,
36.2187500000,4,-0.0653114319,,,
36.2343750000,4,0.0673866272,,,
36.2500000000,4,0.2597236931,,,
36.2656250000,4,0.3465842903,,,
36.2812500000,4,0.1914100945,,,
36.2968750000,4,-0.2106246948,,,
36.3125000000,4,-0.7193335891,,,
36.3281250000,4,-1.1123770475,,,
36.3437500000,4,-1.2070920467,,,
36.3593750000,4,-0.9653090835,,,
36.3750000000,4,-0.5258789063,,,
36.3906250000,4,-0.1257075965,,,
36.4062500000,4,0.0310802497,,,
36.4218750000,4,-0.1210364997,,,
36.4375000000,4,-0.4902667999,,,
36.4531250000,4,-0.9134635925,,,
36.4687500000,4,-1.2526589632,,,
36.4843750000,4,-1.4672640562,,,
36.5000000000,4,-1.6033879519,,,
36.5156250000,4,-1.7216680050,,,
36.5312500000,4,-1.8243099451,,,
36.5468750000,4,-1.8441009521,,,
36.5625000000,4,-1.6977460384,,,
36.5781250000,4,-1.3527389765,,,
36.5937500000,4,-0.8550128937,,,
36.6093750000,4,-0.2977370918,,,
36.6250000000,4,0.2223872989,,,
36.6406250000,4,0.6609401703,,,
36.6562500000,4,1.0146100521,,,
36.6718750000,4,1.3014969826,,,
36.6875000000,4,1.5259399414,,,
36.7031250000,4,1.6733679771,,,
36.7187500000,4,1.7290329933,,,
36.7343750000,4,1.7186050415,,,
36.7500000000,4,1.6885110140,,,
36.7656250000,4,1.6815739870,,,
36.7812500000,4,1.7014729977,,,
36.7968750000,4,1.6872040033,,,
36.8125000000,4,1.5345610380,,,
36.8281250000,4,1.1785180569,,,
36.8437500000,4,0.6392040253,,,
36.8593750000,4,0.0615806617,,,
36.8750000000,4,-0.3449135125,,,
36.8906250000,4,-0.4108504951,,,
36.9062500000,4,-0.1236438975,,,
36.9218750000,4,0.3633174896,,,
36.9375000000,4,0.7999668121,,,
36.9531250000,4,0.9609165192,,,
36.9687500000,4,0.7665882111,,,
36.9843750000,4,0.3130263984,,,
37.0000000000,4,-0.1884192973,,,
37.0156250000,4,-0.5382422805,,,
37.0312500000,4,-0.6400948167,,,
37.0468750000,4,-0.5321236253,,,
37.0625000000,4,-0.3401336968,,,
37.0781250000,4,-0.1897774041,,,
37.0937500000,4,-0.1487274021,,,
37.1093750000,4,-0.2163029015,,,
37.1250000000,4,-0.3389396966,,,
37.1406250000,4,-0.4358806908,,,
37.1562500000,4,-0.4312458038,,,
37.1718750000,4,-0.2699565887,,,
37.1875000000,4,0.0531902313,,,
37.2031250000,4,0.4911785126,,,
37.2187500000,4,0.9394187927,,,
37.2343750000,4,1.2793999910,,,
37.2500000000,4,1.4360680580,,,
37.2656250000,4,1.3915979862,,,
37.2812500000,4,1.1951450109,,,
37.2968750000,4,0.9123095870,,,
37.3125000000,4,0.6069297791,,,
37.3281250000,4,0.3344460130,,,
37.3437500000,4,0.1434497982,,,
37.3593750000,4,0.0740737915,,,
37.3750000000,4,0.1548995972,,,
37.3906250000,4,0.3749141991,,,
37.4062500000,4,0.6460781097,,,
37.4218750000,4,0.8373432159,,,
37.4375000000,4,0.8166884780,,,
37.4531250000,4,0.5278244019,,,
37.4687500000,4,0.0191879291,,,
37.4843750000,4,-0.5726910233,,,
37.5000000000,4,-1.0793249607,,,
37.5156250000,4,-1.3879469633,,,
37.5312500000,4,-1.4821549654,,,
37.5468750000,4,-1.4327579737,,,
37.5625000000,4,-1.3436009884,,,
37.5781250000,4,-1.2926219702,,,
37.5937500000,4,-1.2724020481,,,
37.6093750000,4,-1.2148820162,,,
37.6250000000,4,-1.0145850182,,,
37.6406250000,4,-0.6145591736,,,
37.6562500000,4,-0.0472049713,,,
37.6718750000,4,0.5745257735,,,
37.6875000000,4,1.1015069485,,,
37.7031250000,4,1.4210720062,,,
37.7187500000,4,1.5016189814,,,
37.7343750000,4,1.3739700317,,,
37.7500000000,4,1.1003669500,,,
37.7656250000,4,0.7232512832,,,
37.7812500000,4,0.2698153853,,,
37.7968750000,4,-0.2277489007,,,
37.8125000000,4,-0.7112122178,,,
37.8281250000,4,-1.0919510126,,,
37.8437500000,4,-1.2983720303,,,
37.8593750000,4,-1.3149969578,,,
37.8750000000,4,-1.1868499517,,,
37.8906250000,4,-0.9860324860,,,
37.9062500000,4,-0.7794017792,,,
37.9218750000,4,-0.5993366241,,,
37.9375000000,4,-0.4775600135,,,
37.9531250000,4,-0.4446659088,,,
37.9687500000,4,-0.5366744995,,,
37.9843750000,4,-0.7691153884,,,
38.0000000000,4,-1.0876239538,,,
38.0156250000,4,-1.3670040369,,,
38.0312500000,4,-1.4814950228,,,
38.0468750000,4,-1.3589839935,,,
38.0625000000,4,-1.0235099792,,,
38.0781250000,4,-0.5672531128,,,
38.0937500000,4,-0.0845508575,,,
38.1093750000,4,0.3703041077,,,
38.1250000000,4,0.7940902710,,,
38.1406250000,4,1.1773589849,,,
38.1562500000,4,1.4685920477,,,
38.1718750000,4,1.5756700039,,,
38.1875000000,4,1.4118189812,,,
38.2031250000,4,0.9955883026,,,
38.2187500000,4,0.4587306976,,,
38.2343750000,4,0.0063800812,,,
38.2500000000,4,-0.1940422058,,,
38.2656250000,4,-0.0978584290,,,
38.2812500000,4,0.1954555959,,,
38.2968750000,4,0.5179100037,,,
38.3125000000,4,0.7287846208,,,
38.3281250000,4,0.7945004106,,,
38.3437500000,4,0.7790297866,,,
38.3593750000,4,0.7836760879,,,
38.3750000000,4,0.8584194183,,,
38.3906250000,4,0.9773941040,,,
38.4062500000,4,1.0498830080,,,
38.4218750000,4,0.9969921112,,,
38.4375000000,4,0.7934932709,,,
38.4531250000,4,0.4886283875,,,
38.4687500000,4,0.1586132050,,,
38.4843750000,4,-0.1370068043,,,
38.5000000000,4,-0.3928185105,,,
38.5156250000,4,-0.6285839081,,,
38.5312500000,4,-0.8613911271,,,
38.5468750000,4,-1.0628679991,,,
38.5625000000,4,-1.1764489412,,,
38.5781250000,4,-1.1611690521,,,
38.5937500000,4,-1.0128649473,,,
38.6093750000,4,-0.7766131759,,,
38.6250000000,4,-0.5159931183,,,
38.6406250000,4,-0.2820377052,,,
38.6562500000,4,-0.0917949677,,,
38.6718750000,4,0.0607967414,,,
38.6875000000,4,0.1464062035,,,
38.7031250000,4,0.1332015991,,,
38.7187500000,4,-0.0236110706,,,
38.7343750000,4,-0.3183746040,,,
38.7500000000,4,-0.6969565749,,,
38.7656250000,4,-1.0435240269,,,
38.7812500000,4,-1.2525019646,,,
38.7968750000,4,-1.2581540346,,,
38.8125000000,4,-1.0672340393,,,
38.8281250000,4,-0.7535933852,,,
38.8437500000,4,-0.3928337097,,,
38.8593750000,4,-0.0500755310,,,
38.8750000000,4,0.2585583031,,,
38.8906250000,4,0.5256081223,,,
38.9062500000,4,0.7265530229,,,
38.9218750000,4,0.8155537248,,,
38.9375000000,4,0.7530003190,,,
38.9531250000,4,0.5612850189,,,
38.9687500000,4,0.3111628890,,,
38.9843750000,4,0.1143397987,,,
39.0000000000,4,0.0565948486,,,
39.0156250000,4,0.1446475983,,,
39.0312500000,4,0.2988300025,,,
39.0468750000,4,0.4090614021,,,
39.0625000000,4,0.4030112922,,,
39.0781250000,4,0.2878741920,,,
39.0937500000,4,0.1620827019,,,
39.1093750000,4,0.1151676029,,,
39.1250000000,4,0.1694145054,,,
39.1406250000,4,0.2397384942,,,
39.1562500000,4,0.1979351044,,,
39.1718750000,4,-0.0507450104,,,
39.1875000000,4,-0.4861279130,,,
39.2031250000,4,-0.9719905853,,,
39.2187500000,4,-1.3232519627,,,
39.2343750000,4,-1.4031029940,,,
39.2500000000,4,-1.1998349428,,,
39.2656250000,4,-0.8314018250,,,
39.2812500000,4,-0.4954243004,,,
39.2968750000,4,-0.3830471039,,,
39.3125000000,4,-0.5784397125,,,
39.3281250000,4,-1.0223410130,,,
39.3437500000,4,-1.5229740143,,,
39.3593750000,4,-1.8565520048,,,
39.3750000000,4,-1.8358989954,,,
39.3906250000,4,-1.3892329931,,,
39.4062500000,4,-0.5817183852,,,
39.4218750000,4,0.4189186096,,,
39.4375000000,4,1.4047490358,,,
39.4531250000,4,2.1926119328,,,
39.4687500000,4,2.6833269596,,,
39.4843750000,4,2.8621370792,,,
39.5000000000,4,2.8028430939,,,
39.5156250000,4,2.6134409904,,,
39.5312500000,4,2.3828999996,,,
39.5468750000,4,2.1741540432,,,
39.5625000000,4,1.9990429878,,,
39.5781250000,4,1.8286080360,,,
39.5937500000,4,1.6544779539,,,
39.6093750000,4,1.4841380119,,,
39.6250000000,4,1.3261909485,,,
39.6406250000,4,1.1816840172,,,
39.6562500000,4,1.0231109858,,,
39.6718750000,4,0.8094139099,,,
39.6875000000,4,0.5279198289,,,
39.7031250000,4,0.2031154931,,,
39.7187500000,4,-0.0884380266,,,
39.7343750000,4,-0.2701835930,,,
39.7500000000,4,-0.3152790070,,,
39.7656250000,4,-0.2945899963,,,
39.7812500000,4,-0.3097935021,,,
39.7968750000,4,-0.4573250115,,,
39.8125000000,4,-0.7554091811,,,
39.8281250000,4,-1.1450860500,,,
39.8437500000,4,-1.5304180384,,,
39.8593750000,4,-1.8358210325,,,
39.8750000000,4,-2.0191900730,,,
39.8906250000,4,-2.0632860661,,,
39.9062500000,4,-1.9543859959,,,
39.9218750000,4,-1.6901530027,,,
39.9375000000,4,-1.2955720425,,,
39.9531250000,4,-0.8582115173,,,
39.9687500000,4,-0.5078697205,,,
39.9843750000,4,-0.3677119911,,,
40.0000000000,5,-0.4726772010,,,
40.0156250000,5,-0.7512835860,,,
40.0312500000,5,-1.0542999506,,,
40.0468750000,5,-1.2265739441,,,
40.0625000000,5,-1.1794279814,,,
40.0781250000,5,-0.9337748885,,,
40.0937500000,5,-0.5712565780,,,
40.1093750000,5,-0.1754817963,,,
40.1250000000,5,0.2134075016,,,
40.1406250000,5,0.6061115265,,,
40.1562500000,5,0.9950637817,,,
40.1718750000,5,1.3529319763,,,
40.1875000000,5,1.6015319824,,,
40.2031250000,5,1.6755559444,,,
40.2187500000,5,1.5699019432,,,
40.2343750000,5,1.3585449457,,,
40.2500000000,5,1.1643810272,,,
40.2656250000,5,1.0883059502,,,
40.2812500000,5,1.1619590521,,,
40.2968750000,5,1.3137450218,,,
40.3125000000,5,1.4280300140,,,
40.3281250000,5,1.4042429924,,,
40.3437500000,5,1.2251210213,,,
40.3593750000,5,0.9631710052,,,
40.3750000000,5,0.7313460708,,,
40.3906250000,5,0.5997257233,,,
40.4062500000,5,0.5651969910,,,
40.4218750000,5,0.5392283797,,,
40.4375000000,5,0.4101409912,,,
40.4531250000,5,0.1373997033,,,
40.4687500000,5,-0.2298965007,,,
40.4843750000,5,-0.5669537187,,,
40.5000000000,5,-0.7398452759,,,
40.5156250000,5,-0.6796627045,,,
40.5312500000,5,-0.4158782959,,,
40.5468750000,5,-0.0636768267,,,
40.5625000000,5,0.2371921986,,,
40.5781250000,5,0.3773060143,,,
40.5937500000,5,0.3352946937,,,
40.6093750000,5,0.1614913940,,,
40.6250000000,5,-0.0479869805,,,
40.6406250000,5,-0.2046165019,,,
40.6562500000,5,-0.2837505043,,,
40.6718750000,5,-0.3097915947,,,
40.6875000000,5,-0.3517875969,,,
40.7031250000,5,-0.4830875099,,,
40.7187500000,5,-0.7239571214,,,
40.7343750000,5,-1.0344120264,,,
40.7500000000,5,-1.3464720249,,,
40.7656250000,5,-1.5907779932,,,
40.7812500000,5,-1.7334380150,,,
40.7968750000,5,-1.8103560209,,,
40.8125000000,5,-1.8593709469,,,
40.8281250000,5,-1.8990139961,,,
40.8437500000,5,-1.8970069885,,,
40.8593750000,5,-1.7788619995,,,
40.8750000000,5,-1.4901429415,,,
40.8906250000,5,-1.0571670532,,,
40.9062500000,5,-0.5949897766,,,
40.9218750000,5,-0.2647171021,,,
40.9375000000,5,-0.1951560974,,,
40.9531250000,5,-0.3947143853,,,
40.9687500000,5,-0.7517052293,,,
40.9843750000,5,-1.0878599882,,,
41.0000000000,5,-1.2334840298,,,
41.0156250000,5,-1.1145269871,,,
41.0312500000,5,-0.7687491775,,,
41.0468750000,5,-0.3158760071,,,
41.0625000000,5,0.1104583964,,,
41.0781250000,5,0.4284476936,,,
41.0937500000,5,0.6301478744,,,
41.1093750000,5,0.7674694061,,,
41.1250000000,5,0.9070683122,,,
41.1406250000,5,1.0981750488,,,
41.1562500000,5,1.3495310545,,,
41.1718750000,5,1.6079219580,,,
41.1875000000,5,1.8018820286,,,
41.2031250000,5,1.8253289461,,,
41.2187500000,5,1.6150890589,,,
41.2343750000,5,1.1818699837,,,
41.2500000000,5,0.6264380813,,,
41.2656250000,5,0.1075953990,,,
41.2812500000,5,-0.2198543996,,,
41.2968750000,5,-0.3029860854,,,
41.3125000000,5,-0.2059803009,,,
41.3281250000,5,-0.0640640333,,,
41.3437500000,5,-0.0132656097,,,
41.3593750000,5,-0.0925693512,,,
41.3750000000,5,-0.2461833954,,,
41.3906250000,5,-0.3677291870,,,
41.4062500000,5,-0.3835430145,,,
41.4218750000,5,-0.2995338142,,,
41.4375000000,5,-0.1810112000,,,
41.4531250000,5,-0.1094093025,,,
41.4687500000,5,-0.1031017005,,,
41.4843750000,5,-0.1250648052,,,
41.5000000000,5,-0.1027698964,,,
41.5156250000,5,-0.0143451700,,,
41.5312500000,5,0.1140575036,,,
41.5468750000,5,0.2081833035,,,
41.5625000000,5,0.2102108002,,,
41.5781250000,5,0.1373367012,,,
41.5937500000,5,0.0683269501,,,
41.6093750000,5,0.1055603027,,,
41.6250000000,5,0.3013972938,,,
41.6406250000,5,0.6249142289,,,
41.6562500000,5,0.9589099884,,,
41.6718750000,5,1.1495339870,,,
41.6875000000,5,1.0722060204,,,
41.7031250000,5,0.6936951280,,,
41.7187500000,5,0.0960235596,,,
41.7343750000,5,-0.5707911849,,,
41.7500000000,5,-1.1360720396,,,
41.7656250000,5,-1.4953579903,,,
41.7812500000,5,-1.6249159575,,,
41.7968750000,5,-1.5633599758,,,
41.8125000000,5,-1.3629720211,,,
41.8281250000,5,-1.0430619717,,,
41.8437500000,5,-0.6092110276,,,
41.8593750000,5,-0.0771636963,,,
41.8750000000,5,0.4911479950,,,
41.8906250000,5,0.9816703796,,,
41.9062500000,5,1.2669999599,,,
41.9218750000,5,1.2720780373,,,
41.9375000000,5,1.0400890112,,,
41.9531250000,5,0.6970462799,,,
41.9687500000,5,0.4178580940,,,
41.9843750000,5,0.3113842010,,,
42.0000000000,5,0.3728733063,,,
42.0156250000,5,0.4915848076,,,
42.0312500000,5,0.5438709259,,,
42.0468750000,5,0.4428673089,,,
42.0625000000,5,0.2104835957,,,
42.0781250000,5,-0.0634536669,,,
42.0937500000,5,-0.2649250031,,,
42.1093750000,5,-0.3172664940,,,
42.1250000000,5,-0.2196598053,,,
42.1406250000,5,-0.0322418213,,,
42.1562500000,5,0.1538543999,,,
42.1718750000,5,0.2893714905,,,
42.1875000000,5,0.3581944108,,,
42.2031250000,5,0.4061965942,,,
42.2187500000,5,0.4860743880,,,
42.2343750000,5,0.6172981262,,,
42.2500000000,5,0.7857151031,,,
42.2656250000,5,0.9456996918,,,
42.2812500000,5,1.0487420559,,,
42.2968750000,5,1.0637470484,,,
42.3125000000,5,0.9937419891,,,
42.3281250000,5,0.8675116897,,,
42.3437500000,5,0.7178344727,,,
42.3593750000,5,0.5557250977,,,
42.3750000000,5,0.3775177002,,,
42.3906250000,5,0.1592196971,,,
42.4062500000,5,-0.1190681010,,,
42.4218750000,5,-0.4657458961,,,
42.4375000000,5,-0.8494244218,,,
42.4531250000,5,-1.2192590237,,,
42.4687500000,5,-1.5054229498,,,
42.4843750000,5,-1.6470530033,,,
42.5000000000,5,-1.6108399630,,,
42.5156250000,5,-1.3950790167,,,
42.5312500000,5,-1.0231909752,,,
42.5468750000,5,-0.5607013702,,,
42.5625000000,5,-0.0603694916,,,
42.5781250000,5,0.4049664140,,,
42.5937500000,5,0.7780647278,,,
42.6093750000,5,1.0071430206,,,
42.6250000000,5,1.0698800087,,,
42.6406250000,5,0.9614772797,,,
42.6562500000,5,0.7180386186,,,
42.6718750000,5,0.3828372955,,,
42.6875000000,5,-0.0009498596,,,
42.7031250000,5,-0.3829556108,,,
42.7187500000,5,-0.7173042297,,,
42.7343750000,5,-0.9347342849,,,
42.7500000000,5,-0.9585285187,,,
42.7656250000,5,-0.7216929793,,,
42.7812500000,5,-0.2376746982,,,
42.7968750000,5,0.3663006127,,,
42.8125000000,5,0.8817520142,,,
42.8281250000,5,1.1256680489,,,
42.8437500000,5,1.0424100161,,,
42.8593750000,5,0.7450237274,,,
42.8750000000,5,0.4599742889,,,
42.8906250000,5,0.3792324066,,,
42.9062500000,5,0.5512524247,,,
42.9218750000,5,0.8399410248,,,
42.9375000000,5,1.0134010315,,,
42.9531250000,5,0.8898677826,,,
42.9687500000,5,0.4428310096,,,
42.9843750000,5,-0.1816692054,,,
43.0000000000,5,-0.7486094832,,,
43.0156250000,5,-1.0680749416,,,
43.0312500000,5,-1.0789129734,,,
43.0468750000,5,-0.8507422805,,,
43.0625000000,5,-0.5226994157,,,
43.0781250000,5,-0.2265758961,,,
43.0937500000,5,-0.0360584296,,,
43.1093750000,5,0.0281162299,,,
43.1250000000,5,-0.0110359201,,,
43.1406250000,5,-0.1254597008,,,
43.1562500000,5,-0.2610054016,,,
43.1718750000,5,-0.3883380890,,,
43.1875000000,5,-0.4817047119,,,
43.2031250000,5,-0.5542355180,,,
43.2187500000,5,-0.6317120194,,,
43.2343750000,5,-0.7342091203,,,
43.2500000000,5,-0.8527507782,,,
43.2656250000,5,-0.9473648071,,,
43.2812500000,5,-0.9773539901,,,
43.2968750000,5,-0.9152240753,,,
43.3125000000,5,-0.7812423706,,,
43.3281250000,5,-0.6121768951,,,
43.3437500000,5,-0.4539299011,,,
43.3593750000,5,-0.3304901123,,,
43.3750000000,5,-0.2197436988,,,
43.3906250000,5,-0.0756607130,,,
43.4062500000,5,0.1387958974,,,
43.4218750000,5,0.4112128913,,,
43.4375000000,5,0.6874408722,,,
43.4531250000,5,0.8683720231,,,
43.4687500000,5,0.8870105743,,,
43.4843750000,5,0.7328433990,,,
43.5000000000,5,0.4887753129,,,
43.5156250000,5,0.3005237877,,,
43.5312500000,5,0.2921467125,,,
43.5468750000,5,0.5107402802,,,
43.5625000000,5,0.8775253296,,,
43.5781250000,5,1.2433149815,,,
43.5937500000,5,1.4558730125,,,
43.6093750000,5,1.4497319460,,,
43.6250000000,5,1.2625060081,,,
43.6406250000,5,0.9917430878,,,
43.6562500000,5,0.7302569747,,,
43.6718750000,5,0.5166816711,,,
43.6875000000,5,0.3512553871,,,
43.7031250000,5,0.2095547020,,,
43.7187500000,5,0.0890273973,,,
43.7343750000,5,0.0029735570,,,
43.7500000000,5,-0.0356159210,,,
43.7656250000,5,-0.0313014984,,,
43.7812500000,5,-0.0138454400,,,
43.7968750000,5,-0.0191860199,,,
43.8125000000,5,-0.0652942732,,,
43.8281250000,5,-0.1370296031,,,
43.8437500000,5,-0.1947402954,,,
43.8593750000,5,-0.2106743008,,,
43.8750000000,5,-0.1687068939,,,
43.8906250000,5,-0.0755386427,,,
43.9062500000,5,0.0436039008,,,
43.9218750000,5,0.1552066952,,,
43.9375000000,5,0.2149048001,,,
43.9531250000,5,0.1773986965,,,
43.9687500000,5,0.0313110389,,,
43.9843750000,5,-0.1898746043,,,
44.0000000000,5,-0.4154700935,,,
44.0156250000,5,-0.5706862807,,,
44.0312500000,5,-0.6192111969,,,
44.0468750000,5,-0.5675125122,,,
44.0625000000,5,-0.4565925896,,,
44.0781250000,5,-0.3261032104,,,
44.0937500000,5,-0.1834812015,,,
44.1093750000,5,-0.0187587701,,,
44.1250000000,5,0.1668509990,,,
44.1406250000,5,0.3453559875,,,
44.1562500000,5,0.4641875923,,,
44.1718750000,5,0.4951286018,,,
44.1875000000,5,0.4666270912,,,
44.2031250000,5,0.4738770127,,,
44.2187500000,5,0.6248664856,,,
44.2343750000,5,0.9749984741,,,
44.2500000000,5,1.4680750370,,,
44.2656250000,5,1.9524689913,,,
44.2812500000,5,2.2421019077,,,
44.2968750000,5,2.2062261105,,,
44.3125000000,5,1.8134690523,,,
44.3281250000,5,1.1282830238,,,
44.3437500000,5,0.2715435028,,,
44.3593750000,5,-0.6258143783,,,
44.3750000000,5,-1.4342000484,,,
44.3906250000,5,-2.0413169861,,,
44.4062500000,5,-2.3808989525,,,
44.4218750000,5,-2.4006769657,,,
44.4375000000,5,-2.1293330193,,,
44.4531250000,5,-1.6514489651,,,
44.4687500000,5,-1.0852680206,,,
44.4843750000,5,-0.5626639724,,,
44.5000000000,5,-0.1710758060,,,
44.5156250000,5,0.0324649811,,,
44.5312500000,5,0.0391807593,,,
44.5468750000,5,-0.1341094971,,,
44.5625000000,5,-0.4256592095,,,
44.5781250000,5,-0.7493553162,,,
44.5937500000,5,-1.0024189949,,,
44.6093750000,5,-1.0847970247,,,
44.6250000000,5,-0.9492970109,,,
44.6406250000,5,-0.6305046082,,,
44.6562500000,5,-0.2294483036,,,
44.6718750000,5,0.1275177002,,,
44.6875000000,5,0.3294525146,,,
44.7031250000,5,0.3468590081,,,
44.7187500000,5,0.2186831981,,,
44.7343750000,5,0.0355606116,,,
44.7500000000,5,-0.1140881032,,,
44.7656250000,5,-0.1801318973,,,
44.7812500000,5,-0.1757126004,,,
44.7968750000,5,-0.1489848942,,,
44.8125000000,5,-0.1597023010,,,
44.8281250000,5,-0.2400265038,,,
44.8437500000,5,-0.3686161041,,,
44.8593750000,5,-0.4735755920,,,
44.8750000000,5,-0.4702740014,,,
44.8906250000,5,-0.3002052009,,,
44.9062500000,5,-0.0011539460,,,
44.9218750000,5,0.3190574944,,,
44.9375000000,5,0.5184268951,,,
44.9531250000,5,0.4789982140,,,
44.9687500000,5,0.1880549937,,,
44.9843750000,5,-0.2858943939,,,
45.0000000000,5,-0.8029479980,,,
45.0156250000,5,-1.2302509546,,,
45.0312500000,5,-1.4511799812,,,
45.0468750000,5,-1.4178960323,,,
45.0625000000,5,-1.1426010132,,,
45.0781250000,5,-0.6874560714,,,
45.0937500000,5,-0.1696338952,,,
45.1093750000,5,0.2938461006,,,
45.1250000000,5,0.6152954102,,,
45.1406250000,5,0.7725028992,,,
45.1562500000,5,0.8034400940,,,
45.1718750000,5,0.7813320160,,,
45.1875000000,5,0.7443199158,,,
45.2031250000,5,0.6764584184,,,
45.2187500000,5,0.5285511017,,,
45.2343750000,5,0.2708739936,,,
45.2500000000,5,-0.0549202003,,,
45.2656250000,5,-0.3376274109,,,
45.2812500000,5,-0.4517306983,,,
45.2968750000,5,-0.3396224976,,,
45.3125000000,5,-0.0468750000,,,
45.3281250000,5,0.2935161889,,,
45.3437500000,5,0.5282192230,,,
45.3593750000,5,0.5835114121,,,
45.3750000000,5,0.4662857056,,,
45.3906250000,5,0.2641677856,,,
45.4062500000,5,0.0950679779,,,
45.4218750000,5,0.0415172614,,,
45.4375000000,5,0.1394786984,,,
45.4531250000,5,0.3656750023,,,
45.4687500000,5,0.6519299150,,,
45.4843750000,5,0.9108008742,,,
45.5000000000,5,1.0569759607,,,
45.5156250000,5,1.0260720253,,,
45.5312500000,5,0.7898349762,,,
45.5468750000,5,0.3878422081,,,
45.5625000000,5,-0.0896625519,,,
45.5781250000,5,-0.5160769820,,,
45.5937500000,5,-0.7865962982,,,
45.6093750000,5,-0.8512992859,,,
45.6250000000,5,-0.7445030212,,,
45.6406250000,5,-0.5583705902,,,
45.6562500000,5,-0.4055882096,,,
45.6718750000,5,-0.3610877991,,,
45.6875000000,5,-0.4271678925,,,
45.7031250000,5,-0.5613822937,,,
45.7187500000,5,-0.7057762146,,,
45.7343750000,5,-0.8272532821,,,
45.7500000000,5,-0.9401226044,,,
45.7656250000,5,-1.0701639652,,,
45.7812500000,5,-1.2211530209,,,
45.7968750000,5,-1.3456150293,,,
45.8125000000,5,-1.3532700539,,,
45.8281250000,5,-1.1500450373,,,
45.8437500000,5,-0.7051640153,,,
45.8593750000,5,-0.0650920868,,,
45.8750000000,5,0.6356697083,,,
45.8906250000,5,1.2231450081,,,
45.9062500000,5,1.5596430302,,,
45.9218750000,5,1.5851039886,,,
45.9375000000,5,1.3546470404,,,
45.9531250000,5,1.0007230043,,,
45.9687500000,5,0.6635360718,,,
45.9843750000,5,0.4164885879,,,
46.0000000000,5,0.2532558143,,,
46.0156250000,5,0.1220759973,,,
46.0312500000,5,-0.0276336707,,,
46.0468750000,5,-0.1838493049,,,
46.0625000000,5,-0.2815723121,,,
46.0781250000,5,-0.2551516891,,,
46.0937500000,5,-0.0873546600,,,
46.1093750000,5,0.1737823039,,,
46.1250000000,5,0.4217930138,,,
46.1406250000,5,0.5754184723,,,
46.1562500000,5,0.6102219224,,,
46.1718750000,5,0.5699024200,,,
46.1875000000,5,0.5242443085,,,
46.2031250000,5,0.5108947754,,,
46.2187500000,5,0.5026093125,,,
46.2343750000,5,0.4503250122,,,
46.2500000000,5,0.3096542060,,,
46.2656250000,5,0.0968017578,,,
46.2812500000,5,-0.1093636006,,,
46.2968750000,5,-0.2190762013,,,
46.3125000000,5,-0.1829929054,,,
46.3281250000,5,-0.0283985101,,,
46.3437500000,5,0.1626873016,,,
46.3593750000,5,0.2942428887,,,
46.3750000000,5,0.3111076057,,,
46.3906250000,5,0.2197342068,,,
46.4062500000,5,0.0730857775,,,
46.4218750000,5,-0.0814323425,,,
46.4375000000,5,-0.2252216041,,,
46.4531250000,5,-0.3867931068,,,
46.4687500000,5,-0.5979518890,,,
46.4843750000,5,-0.8688297272,,,
46.5000000000,5,-1.1305979490,,,
46.5156250000,5,-1.2877080441,,,
46.5312500000,5,-1.2422050238,,,
46.5468750000,5,-0.9641532898,,,
46.5625000000,5,-0.4883098900,,,
46.5781250000,5,0.0701808929,,,
46.5937500000,5,0.5652065277,,,
46.6093750000,5,0.8766974807,,,
46.6250000000,5,0.9410458207,,,
46.6406250000,5,0.7871760726,,,
46.6562500000,5,0.5074654222,,,
46.6718750000,5,0.2224655002,,,
46.6875000000,5,0.0271720905,,,
46.7031250000,5,-0.0323562585,,,
46.7187500000,5,0.0094909668,,,
46.7343750000,5,0.0974292830,,,
46.7500000000,5,0.1752528995,,,
46.7656250000,5,0.2101573944,,,
46.7812500000,5,0.1896362007,,,
46.7968750000,5,0.1238688976,,,
46.8125000000,5,0.0383358002,,,
46.8281250000,5,-0.0356960297,,,
46.8437500000,5,-0.0645809174,,,
46.8593750000,5,-0.0261344891,,,
46.8750000000,5,0.0632724836,,,
46.8906250000,5,0.1492138058,,,
46.9062500000,5,0.1673583984,,,
46.9218750000,5,0.0672359467,,,
46.9375000000,5,-0.1309127957,,,
46.9531250000,5,-0.3518429101,,,
46.9687500000,5,-0.4903030097,,,
46.9843750000,5,-0.4940452874,,,
47.0000000000,5,-0.3641262054,,,
47.0156250000,5,-0.1792812049,,,
47.0312500000,5,-0.0250968896,,,
47.0468750000,5,0.0405235291,,,
47.0625000000,5,0.0199756604,,,
47.0781250000,5,-0.0483207703,,,
47.0937500000,5,-0.0912704468,,,
47.1093750000,5,-0.0670604706,,,
47.1250000000,5,0.0306320209,,,
47.1406250000,5,0.1755256951,,,
47.1562500000,5,0.3136805892,,,
47.1718750000,5,0.3872374892,,,
47.1875000000,5,0.3438816071,,,
47.2031250000,5,0.1822490990,,,
47.2187500000,5,-0.0557117499,,,
47.2343750000,5,-0.2903118134,,,
47.2500000000,5,-0.4525775909,,,
47.2656250000,5,-0.5031775832,,,
47.2812500000,5,-0.4695396125,,,
47.2968750000,5,-0.4036236107,,,
47.3125000000,5,-0.3318538964,,,
47.3281250000,5,-0.2354983985,,,
47.3437500000,5,-0.0753002167,,,
47.3593750000,5,0.1677341014,,,
47.3750000000,5,0.4480781853,,,
47.3906250000,5,0.6593894958,,,
47.4062500000,5,0.6965274811,,,
47.4218750000,5,0.4964560866,,,
47.4375000000,5,0.0989189073,,,
47.4531250000,5,-0.3916969001,,,
47.4687500000,5,-0.8460559845,,,
47.4843750000,5,-1.1832699776,,,
47.5000000000,5,-1.3774549961,,,
47.5156250000,5,-1.4449460506,,,
47.5312500000,5,-1.4124300480,,,
47.5468750000,5,-1.2802540064,,,
47.5625000000,5,-1.0592670441,,,
47.5781250000,5,-0.7803382874,,,
47.5937500000,5,-0.4899693131,,,
47.6093750000,5,-0.2252978981,,,
47.6250000000,5,0.0030059810,,,
47.6406250000,5,0.2202854007,,,
47.6562500000,5,0.4585705101,,,
47.6718750000,5,0.7203196883,,,
47.6875000000,5,0.9673138261,,,
47.7031250000,5,1.1346650124,,,
47.7187500000,5,1.1722300053,,,
47.7343750000,5,1.0819610357,,,
47.7500000000,5,0.9046649933,,,
47.7656250000,5,0.7168406844,,,
47.7812500000,5,0.5768585205,,,
47.7968750000,5,0.4991131127,,,
47.8125000000,5,0.4578075111,,,
47.8281250000,5,0.4193438888,,,
47.8437500000,5,0.3708096147,,,
47.8593750000,5,0.3344860077,,,
47.8750000000,5,0.3554764092,,,
47.8906250000,5,0.4580974877,,,
47.9062500000,5,0.6252269745,,,
47.9218750000,5,0.7891159058,,,
47.9375000000,5,0.8604106903,,,
47.9531250000,5,0.7717571259,,,
47.9687500000,5,0.5178031921,,,
47.9843750000,5,0.1567364037,,,
48.0000000000,6,-0.2192153931,,,
48.0156250000,6,-0.5342999101,,,
48.0312500000,6,-0.7444419861,,,
48.0468750000,6,-0.8328133225,,,
48.0625000000,6,-0.7954617143,,,
48.0781250000,6,-0.6083641052,,,
48.0937500000,6,-0.2549610138,,,
48.1093750000,6,0.2516823113,,,
48.1250000000,6,0.8427733779,,,
48.1406250000,6,1.3980770111,,,
48.1562500000,6,1.7682700157,,,
48.1718750000,6,1.8698960543,,,
48.1875000000,6,1.6972869635,,,
48.2031250000,6,1.3361660242,,,
48.2187500000,6,0.8968315125,,,
48.2343750000,6,0.4719448090,,,
48.2500000000,6,0.0847148895,,,
48.2656250000,6,-0.2803134918,,,
48.2812500000,6,-0.6533489227,,,
48.2968750000,6,-1.0337699652,,,
48.3125000000,6,-1.3615419865,,,
48.3281250000,6,-1.5502760410,,,
48.3437500000,6,-1.5299489498,,,
48.3593750000,6,-1.3076729774,,,
48.3750000000,6,-0.9838333130,,,
48.3906250000,6,-0.7149658203,,,
48.4062500000,6,-0.6355381012,,,
48.4218750000,6,-0.7759646773,,,
48.4375000000,6,-1.0594559908,,,
48.4531250000,6,-1.3343509436,,,
48.4687500000,6,-1.4663809538,,,
48.4843750000,6,-1.3940910101,,,
48.5000000000,6,-1.1337909698,,,
48.5156250000,6,-0.7589911819,,,
48.5312500000,6,-0.3440628052,,,
48.5468750000,6,0.0533542596,,,
48.5625000000,6,0.4064998925,,,
48.5781250000,6,0.6934605241,,,
48.5937500000,6,0.8957766891,,,
48.6093750000,6,0.9835147858,,,
48.6250000000,6,0.9487686157,,,
48.6406250000,6,0.8134632111,,,
48.6562500000,6,0.6109256744,,,
48.6718750000,6,0.3894900978,,,
48.6875000000,6,0.1795119941,,,
48.7031250000,6,0.0026035309,,,
48.7187500000,6,-0.1278495938,,,
48.7343750000,6,-0.1982975006,,,
48.7500000000,6,-0.1849364936,,,
48.7656250000,6,-0.0712966919,,,
48.7812500000,6,0.1562328041,,,
48.7968750000,6,0.4881820977,,,
48.8125000000,6,0.8747292161,,,
48.8281250000,6,1.2178039551,,,
48.8437500000,6,1.3841630220,,,
48.8593750000,6,1.2713530064,,,
48.8750000000,6,0.8579558730,,,
48.8906250000,6,0.2668170929,,,
48.9062500000,6,-0.2752952874,,,
48.9218750000,6,-0.5162867904,,,
48.9375000000,6,-0.3214187920,,,
48.9531250000,6,0.2525233924,,,
48.9687500000,6,0.9765244126,,,
48.9843750000,6,1.5548989773,,,
49.0000000000,6,1.7786459923,,,
49.0156250000,6,1.6062699556,,,
49.0312500000,6,1.1668740511,,,
49.0468750000,6,0.6415768266,,,
49.0625000000,6,0.1728496999,,,
49.0781250000,6,-0.1882496029,,,
49.0937500000,6,-0.4760493934,,,
49.1093750000,6,-0.7272396088,,,
49.1250000000,6,-0.9308701158,,,
49.1406250000,6,-1.0320930481,,,
49.1562500000,6,-0.9570655823,,,
49.1718750000,6,-0.6787186265,,,
49.1875000000,6,-0.2444572002,,,
49.2031250000,6,0.2402859032,,,
49.2187500000,6,0.6578330994,,,
49.2343750000,6,0.9090918899,,,
49.2500000000,6,0.9722614288,,,
49.2656250000,6,0.8771610260,,,
49.2812500000,6,0.7013987899,,,
49.2968750000,6,0.5299072266,,,
49.3125000000,6,0.4173107147,,,
49.3281250000,6,0.3541297913,,,
49.3437500000,6,0.2687225044,,,
49.3593750000,6,0.0676136017,,,
49.3750000000,6,-0.3058147132,,,
49.3906250000,6,-0.7999839783,,,
49.4062500000,6,-1.2762299776,,,
49.4218750000,6,-1.5579379797,,,
49.4375000000,6,-1.5359950066,,,
49.4531250000,6,-1.2277029753,,,
49.4687500000,6,-0.7761191726,,,
49.4843750000,6,-0.3661690056,,,
49.5000000000,6,-0.1434040070,,,
49.5156250000,6,-0.1534729004,,,
49.5312500000,6,-0.3186320961,,,
49.5468750000,6,-0.4934386909,,,
49.5625000000,6,-0.5408535004,,,
49.5781250000,6,-0.3948917091,,,
49.5937500000,6,-0.1034336016,,,
49.6093750000,6,0.2103462070,,,
49.6250000000,6,0.4049625099,,,
49.6406250000,6,0.3754920959,,,
49.6562500000,6,0.1020411998,,,
49.6718750000,6,-0.3532752991,,,
49.6875000000,6,-0.8792057037,,,
49.7031250000,6,-1.3700449467,,,
49.7187500000,6,-1.7525839806,,,
49.7343750000,6,-1.9973889589,,,
49.7500000000,6,-2.1100220680,,,
49.7656250000,6,-2.0919361115,,,
49.7812500000,6,-1.9271219969,,,
49.7968750000,6,-1.5993880033,,,
49.8125000000,6,-1.1093850136,,,
49.8281250000,6,-0.5039405823,,,
49.8437500000,6,0.1403103024,,,
49.8593750000,6,0.7304211259,,,
49.8750000000,6,1.1899260283,,,
49.8906250000,6,1.4669649601,,,
49.9062500000,6,1.5496519804,,,
49.9218750000,6,1.4460239410,,,
49.9375000000,6,1.1977210045,,,
49.9531250000,6,0.8716220856,,,
49.9687500000,6,0.5266190171,,,
49.9843750000,6,0.2221602947,,,
50.0000000000,6,0.0057430272,,,
50.0156250000,6,-0.0954627991,,,
50.0312500000,6,-0.0655841827,,,
50.0468750000,6,0.0940742493,,,
50.0625000000,6,0.3518294990,,,
50.0781250000,6,0.6486588120,,,
50.0937500000,6,0.8915976882,,,
50.1093750000,6,0.9891415238,,,
50.1250000000,6,0.8887463212,,,
50.1406250000,6,0.5957354903,,,
50.1562500000,6,0.1742209941,,,
50.1718750000,6,-0.2749423981,,,
50.1875000000,6,-0.6455975175,,,
50.2031250000,6,-0.8564491272,,,
50.2187500000,6,-0.8656291962,,,
50.2343750000,6,-0.6577625275,,,
50.2500000000,6,-0.2668418884,,,
50.2656250000,6,0.2329006046,,,
50.2812500000,6,0.7381020188,,,
50.2968750000,6,1.1202659607,,,
50.3125000000,6,1.2888369560,,,
50.3281250000,6,1.2006440163,,,
50.3437500000,6,0.8844910264,,,
50.3593750000,6,0.4190940857,,,
50.3750000000,6,-0.1092434004,,,
50.3906250000,6,-0.6168900132,,,
50.4062500000,6,-1.0372829437,,,
50.4218750000,6,-1.3184969425,,,
50.4375000000,6,-1.4156550169,,,
50.4531250000,6,-1.3055609465,,,
50.4687500000,6,-1.0047630072,,,
50.4843750000,6,-0.5948925018,,,
50.5000000000,6,-0.1879082024,,,
50.5156250000,6,0.0697383881,,,
50.5312500000,6,0.0808677673,,,
50.5468750000,6,-0.1723385006,,,
50.5625000000,6,-0.6175404191,,,
50.5781250000,6,-1.0928059816,,,
50.5937500000,6,-1.4089759588,,,
50.6093750000,6,-1.4104210138,,,
50.6250000000,6,-1.0303649902,,,
50.6406250000,6,-0.3173427880,,,
50.6562500000,6,0.5651931763,,,
50.6718750000,6,1.4159090519,,,
50.6875000000,6,2.0534400940,,,
50.7031250000,6,2.3626520634,,,
50.7187500000,6,2.3230481148,,,
50.7343750000,6,1.9933849573,,,
50.7500000000,6,1.4673819542,,,
50.7656250000,6,0.8622112274,,,
50.7812500000,6,0.3106536865,,,
50.7968750000,6,-0.0768566132,,,
50.8125000000,6,-0.2207928002,,,
50.8281250000,6,-0.1382866055,,,
50.8437500000,6,0.0668678284,,,
50.8593750000,6,0.2422218025,,,
50.8750000000,6,0.2497958988,,,
50.8906250000,6,0.0523738898,,,
50.9062500000,6,-0.2855109870,,,
50.9218750000,6,-0.6265563965,,,
50.9375000000,6,-0.8357105255,,,
50.9531250000,6,-0.8532562256,,,
50.9687500000,6,-0.7073078156,,,
50.9843750000,6,-0.4978905022,,,
51.0000000000,6,-0.3272342980,,,
51.0156250000,6,-0.2760601044,,,
51.0312500000,6,-0.3537291884,,,
51.0468750000,6,-0.4926013947,,,
51.0625000000,6,-0.5965328217,,,
51.0781250000,6,-0.5740699768,,,
51.0937500000,6,-0.4037227929,,,
51.1093750000,6,-0.1439667046,,,
51.1250000000,6,0.0645084381,,,
51.1406250000,6,0.0932903290,,,
51.1562500000,6,-0.1196461022,,,
51.1718750000,6,-0.5219383240,,,
51.1875000000,6,-0.9723529816,,,
51.2031250000,6,-1.3304729462,,,
51.2187500000,6,-1.5136489868,,,
51.2343750000,6,-1.5373460054,,,
51.2500000000,6,-1.4502600431,,,
51.2656250000,6,-1.2899420261,,,
51.2812500000,6,-1.0477310419,,,
51.2968750000,6,-0.7093905807,,,
51.3125000000,6,-0.3116703033,,,
51.3281250000,6,0.0276374798,,,
51.3437500000,6,0.1547145993,,,
51.3593750000,6,-0.0163288098,,,
51.3750000000,6,-0.4278487861,,,
51.3906250000,6,-0.8835468292,,,
51.4062500000,6,-1.1579020023,,,
51.4218750000,6,-1.1225719452,,,
51.4375000000,6,-0.8216114044,,,
51.4531250000,6,-0.4231376946,,,
51.4687500000,6,-0.1020317003,,,
51.4843750000,6,0.0927238464,,,
51.5000000000,6,0.2583656013,,,
51.5156250000,6,0.5537776947,,,
51.5312500000,6,1.0562150478,,,
51.5468750000,6,1.6875499487,,,
51.5625000000,6,2.2321720123,,,
51.5781250000,6,2.4581429958,,,
51.5937500000,6,2.2765660286,,,
51.6093750000,6,1.8037049770,,,
51.6250000000,6,1.2619630098,,,
51.6406250000,6,0.8795642853,,,
51.6562500000,6,0.7475814819,,,
51.6718750000,6,0.8130664825,,,
51.6875000000,6,0.9374961853,,,
51.7031250000,6,1.0078330040,,,
51.7187500000,6,0.9936066270,,,
51.7343750000,6,0.9101505280,,,
51.7500000000,6,0.7802562714,,,
51.7656250000,6,0.6000080109,,,
51.7812500000,6,0.3382568061,,,
51.7968750000,6,-0.0117454501,,,
51.8125000000,6,-0.4034748077,,,
51.8281250000,6,-0.7719306946,,,
51.8437500000,6,-1.0613520145,,,
51.8593750000,6,-1.2699029446,,,
51.8750000000,6,-1.4241100550,,,
51.8906250000,6,-1.5560610294,,,
51.9062500000,6,-1.6406840086,,,
51.9218750000,6,-1.6224230528,,,
51.9375000000,6,-1.4592059851,,,
51.9531250000,6,-1.1683640480,,,
51.9687500000,6,-0.8439064026,,,
51.9843750000,6,-0.6049919128,,,
52.0000000000,6,-0.5389174819,,,
52.0156250000,6,-0.6427401900,,,
52.0312500000,6,-0.8546733856,,,
52.0468750000,6,-1.0875109434,,,
52.0625000000,6,-1.2767770290,,,
52.0781250000,6,-1.4142990112,,,
52.0937500000,6,-1.5194230080,,,
52.1093750000,6,-1.6103119850,,,
52.1250000000,6,-1.6906599998,,,
52.1406250000,6,-1.7404400110,,,
52.1562500000,6,-1.7308939695,,,
52.1718750000,6,-1.6406439543,,,
52.1875000000,6,-1.4590679407,,,
52.2031250000,6,-1.1903510094,,,
52.2187500000,6,-0.8631247878,,,
52.2343750000,6,-0.5107554793,,,
52.2500000000,6,-0.1828594059,,,
52.2656250000,6,0.0919475630,,,
52.2812500000,6,0.3003120124,,,
52.2968750000,6,0.4573231041,,,
52.3125000000,6,0.5821208954,,,
52.3281250000,6,0.6932963729,,,
52.3437500000,6,0.8105087280,,,
52.3593750000,6,0.9576988220,,,
52.3750000000,6,1.1722470522,,,
52.3906250000,6,1.4789350033,,,
52.4062500000,6,1.8757100105,,,
52.4218750000,6,2.2990698814,,,
52.4375000000,6,2.6256260872,,,
52.4531250000,6,2.7290151119,,,
52.4687500000,6,2.5441761017,,,
52.4843750000,6,2.1013739109,,,
52.5000000000,6,1.5300159454,,,
52.5156250000,6,0.9959086776,,,
52.5312500000,6,0.6336535811,,,
52.5468750000,6,0.4981079102,,,
52.5625000000,6,0.5801352859,,,
52.5781250000,6,0.8142567277,,,
52.5937500000,6,1.1185170412,,,
52.6093750000,6,1.4091609716,,,
52.6250000000,6,1.6116160154,,,
52.6406250000,6,1.6729639769,,,
52.6562500000,6,1.5777130127,,,
52.6718750000,6,1.3338279724,,,
52.6875000000,6,0.9990177155,,,
52.7031250000,6,0.6560822129,,,
52.7187500000,6,0.3711357117,,,
52.7343750000,6,0.1980648041,,,
52.7500000000,6,0.1552639008,,,
52.7656250000,6,0.2250919044,,,
52.7812500000,6,0.3741627038,,,
52.7968750000,6,0.6039810181,,,
52.8125000000,6,0.9115027785,,,
52.8281250000,6,1.3001270294,,,
52.8437500000,6,1.7405799627,,,
52.8593750000,6,2.1642301083,,,
52.8750000000,6,2.4709050655,,,
52.8906250000,6,2.5805630684,,,
52.9062500000,6,2.4495389462,,,
52.9218750000,6,2.1231560707,,,
52.9375000000,6,1.6937639713,,,
52.9531250000,6,1.2688640356,,,
52.9687500000,6,0.9142742157,,,
52.9843750000,6,0.6193007827,,,
53.0000000000,6,0.3285121918,,,
53.0156250000,6,-0.0146655999,,,
53.0312500000,6,-0.4050273895,,,
53.0468750000,6,-0.7885723114,,,
53.0625000000,6,-1.0852379799,,,
53.0781250000,6,-1.2481540442,,,
53.0937500000,6,-1.2989219427,,,
53.1093750000,6,-1.3123470545,,,
53.1250000000,6,-1.3523980379,,,
53.1406250000,6,-1.4344999790,,,
53.1562500000,6,-1.5239280462,,,
53.1718750000,6,-1.5769480467,,,
53.1875000000,6,-1.5736049414,,,
53.2031250000,6,-1.5423949957,,,
53.2187500000,6,-1.5378340483,,,
53.2343750000,6,-1.5739270449,,,
53.2500000000,6,-1.5825419426,,,
53.2656250000,6,-1.4401439428,,,
53.2812500000,6,-1.0510849953,,,
53.2968750000,6,-0.4111594856,,,
53.3125000000,6,0.3303870857,,,
53.3281250000,6,0.9504013062,,,
53.3437500000,6,1.2462639809,,,
53.3593750000,6,1.1446629763,,,
53.3750000000,6,0.7192401886,,,
53.3906250000,6,0.1435986012,,,
53.4062500000,6,-0.4170073867,,,
53.4218750000,6,-0.8628540039,,,
53.4375000000,6,-1.1614760160,,,
53.4531250000,6,-1.3114800453,,,
53.4687500000,6,-1.3055000305,,,
53.4843750000,6,-1.1251980066,,,
53.5000000000,6,-0.7798480988,,,
53.5156250000,6,-0.3437575996,,,
53.5312500000,6,0.0578556098,,,
53.5468750000,6,0.3119620979,,,
53.5625000000,6,0.3645401001,,,
53.5781250000,6,0.2751655877,,,
53.5937500000,6,0.1636600047,,,
53.6093750000,6,0.1242045984,,,
53.6250000000,6,0.1873435974,,,
53.6406250000,6,0.3055573106,,,
53.6562500000,6,0.3944186866,,,
53.6718750000,6,0.3993529975,,,
53.6875000000,6,0.3277797997,,,
53.7031250000,6,0.2210159004,,,
53.7187500000,6,0.0928230286,,,
53.7343750000,6,-0.0838680267,,,
53.7500000000,6,-0.3403702080,,,
53.7656250000,6,-0.6577395797,,,
53.7812500000,6,-0.9353942871,,,
53.7968750000,6,-1.0365489721,,,
53.8125000000,6,-0.8939723969,,,
53.8281250000,6,-0.5596714020,,,
53.8437500000,6,-0.2182751000,,,
53.8593750000,6,-0.0657291412,,,
53.8750000000,6,-0.1988831013,,,
53.8906250000,6,-0.5560340881,,,
53.9062500000,6,-0.9499949813,,,
53.9218750000,6,-1.1979809999,,,
53.9375000000,6,-1.2001860142,,,
53.9531250000,6,-1.0012489557,,,
53.9687500000,6,-0.7198390961,,,
53.9843750000,6,-0.4849567115,,,
54.0000000000,6,-0.3620223999,,,
54.0156250000,6,-0.3480109870,,,
54.0312500000,6,-0.4126586914,,,
54.0468750000,6,-0.5193634033,,,
54.0625000000,6,-0.6400299072,,,
54.0781250000,6,-0.7440586090,,,
54.0937500000,6,-0.7821692824,,,
54.1093750000,6,-0.7074946761,,,
54.1250000000,6,-0.4888572991,,,
54.1406250000,6,-0.1441631019,,,
54.1562500000,6,0.2576065063,,,
54.1718750000,6,0.6128044128,,,
54.1875000000,6,0.8357449174,,,
54.2031250000,6,0.8886299133,,,
54.2187500000,6,0.8044605255,,,
54.2343750000,6,0.6698703766,,,
54.2500000000,6,0.5877953172,,,
54.2656250000,6,0.6143074036,,,
54.2812500000,6,0.7351626754,,,
54.2968750000,6,0.8646926880,,,
54.3125000000,6,0.8949851990,,,
54.3281250000,6,0.7606601715,,,
54.3437500000,6,0.4683800042,,,
54.3593750000,6,0.1053486019,,,
54.3750000000,6,-0.2188625038,,,
54.3906250000,6,-0.4262104034,,,
54.4062500000,6,-0.5044708252,,,
54.4218750000,6,-0.5013942719,,,
54.4375000000,6,-0.4670791924,,,
54.4531250000,6,-0.4464169145,,,
54.4687500000,6,-0.4372825921,,,
54.4843750000,6,-0.4288730919,,,
54.5000000000,6,-0.3992385864,,,
54.5156250000,6,-0.3249722123,,,
54.5312500000,6,-0.2050095052,,,
54.5468750000,6,-0.0516128503,,,
54.5625000000,6,0.1231651008,,,
54.5781250000,6,0.2888317108,,,
54.5937500000,6,0.4374428093,,,
54.6093750000,6,0.5551949143,,,
54.6250000000,6,0.6520289779,,,
54.6406250000,6,0.7269877791,,,
54.6562500000,6,0.7830486298,,,
54.6718750000,6,0.7963389754,,,
54.6875000000,6,0.7409725189,,,
54.7031250000,6,0.5912914276,,,
54.7187500000,6,0.3566837013,,,
54.7343750000,6,0.0858287811,,,
54.7500000000,6,-0.1622409970,,,
54.7656250000,6,-0.3381843865,,,
54.7812500000,6,-0.4240303040,,,
54.7968750000,6,-0.4266186059,,,
54.8125000000,6,-0.3502559960,,,
54.8281250000,6,-0.1799698025,,,
54.8437500000,6,0.0955867767,,,
54.8593750000,6,0.4592018127,,,
54.8750000000,6,0.8480967879,,,
54.8906250000,6,1.1751610041,,,
54.9062500000,6,1.3721499443,,,
54.9218750000,6,1.4186730385,,,
54.9375000000,6,1.3475780487,,,
54.9531250000,6,1.2068710327,,,
54.9687500000,6,1.0341800451,,,
54.9843750000,6,0.8469734192,,,
55.0000000000,6,0.6362628937,,,
55.0156250000,6,0.4114798903,,,
55.0312500000,6,0.1745090038,,,
55.0468750000,6,-0.0691661835,,,
55.0625000000,6,-0.3329353034,,,
55.0781250000,6,-0.6454945207,,,
55.0937500000,6,-1.0094950199,,,
55.1093750000,6,-1.3809529543,,,
55.1250000000,6,-1.6530280113,,,
55.1406250000,6,-1.7186030149,,,
55.1562500000,6,-1.5130620003,,,
55.1718750000,6,-1.0560610294,,,
55.1875000000,6,-0.4378699958,,,
55.2031250000,6,0.1977595985,,,
55.2187500000,6,0.7061023712,,,
55.2343750000,6,0.9823855758,,,
55.2500000000,6,0.9693030715,,,
55.2656250000,6,0.6945381165,,,
55.2812500000,6,0.2578335106,,,
55.2968750000,6,-0.1977557987,,,
55.3125000000,6,-0.5287417769,,,
55.3281250000,6,-0.6527214050,,,
55.3437500000,6,-0.5790423751,,,
55.3593750000,6,-0.3983269036,,,
55.3750000000,6,-0.2276154011,,,
55.3906250000,6,-0.1592236012,,,
55.4062500000,6,-0.2253132015,,,
55.4218750000,6,-0.4080544114,,,
55.4375000000,6,-0.6532154083,,,
55.4531250000,6,-0.8866519928,,,
55.4687500000,6,-1.0356119871,,,
55.4843750000,6,-1.0360929966,,,
55.5000000000,6,-0.8692836761,,,
55.5156250000,6,-0.5770453811,,,
55.5312500000,6,-0.2778357863,,,
55.5468750000,6,-0.1015433967,,,
55.5625000000,6,-0.1422615051,,,
55.5781250000,6,-0.3904761970,,,
55.5937500000,6,-0.7480105758,,,
55.6093750000,6,-1.0712660551,,,
55.6250000000,6,-1.2622150183,,,
55.6406250000,6,-1.2679630518,,,
55.6562500000,6,-1.0933669806,,,
55.6718750000,6,-0.7672271729,,,
55.6875000000,6,-0.3009757996,,,
55.7031250000,6,0.3005562127,,,
55.7187500000,6,0.9852923751,,,
55.7343750000,6,1.6549609900,,,
55.7500000000,6,2.1533110142,,,
55.7656250000,6,2.3456521034,,,
55.7812500000,6,2.1826419830,,,
55.7968750000,6,1.7211380005,,,
55.8125000000,6,1.1094670296,,,
55.8281250000,6,0.5333061218,,,
55.8437500000,6,0.1448363960,,,
55.8593750000,6,0.0056743622,,,
55.8750000000,6,0.0832233429,,,
55.8906250000,6,0.2743529975,,,
55.9062500000,6,0.4621601105,,,
55.9218750000,6,0.5677947998,,,
55.9375000000,6,0.5780602098,,,
55.9531250000,6,0.5354403853,,,
55.9687500000,6,0.5061321259,,,
55.9843750000,6,0.5230979919,,,
56.0000000000,7,0.5564612746,,,
56.0156250000,7,0.5249233246,,,
56.0312500000,7,0.3636913002,,,
56.0468750000,7,0.0839958191,,,
56.0625000000,7,-0.2275771946,,,
56.0781250000,7,-0.4342747033,,,
56.0937500000,7,-0.4537867904,,,
56.1093750000,7,-0.2961769104,,,
56.1250000000,7,-0.0822429731,,,
56.1406250000,7,0.0576114692,,,
56.1562500000,7,0.0665054321,,,
56.1718750000,7,-0.0067691798,,,
