Time:64Hz,Epoch,Channel 1,Event Id,Event Date,Event Duration
0.0000000000,0,0.1374053955,,,
0.0156250000,0,-0.0252380408,,,
0.0312500000,0,-0.1642760932,,,
0.0468750000,0,-0.2665557861,,,
0.0625000000,0,-0.3121337891,,,
0.0781250000,0,-0.2986145020,,,
0.0937500000,0,-0.2178954929,,,
0.1093750000,0,-0.0745086670,,,
0.1250000000,0,0.1199340969,,,
0.1406250000,0,0.3357543945,,,
0.1562500000,0,0.5372467041,,,
0.1718750000,0,0.6792296767,,,
0.1875000000,0,0.7222595215,,,
0.2031250000,0,0.6437836289,,,
0.2187500000,0,0.4637604058,,,
0.2343750000,0,0.2325133979,,,
0.2500000000,0,0.0094451904,,,
0.2656250000,0,-0.1573029011,,,
0.2812500000,0,-0.2361602932,,,
0.2968750000,0,-0.2324371040,,,
0.3125000000,0,-0.1682433933,,,
0.3281250000,0,-0.0793762207,,,
0.3437500000,0,-0.0260009803,,,
0.3593750000,0,-0.0487823486,,,
0.3750000000,0,-0.1821136028,,,
0.3906250000,0,-0.4145202935,,,
0.4062500000,0,-0.6853333116,,,
0.4218750000,0,-0.9099121094,,,
0.4375000000,0,-1.0090479851,,,
0.4531250000,0,-0.9531403184,,,
0.4687500000,0,-0.7640228271,,,
0.4843750000,0,-0.5115203857,,,
0.5000000000,0,-0.2733612061,,,
0.5156250000,0,-0.0966491699,,,
0.5312500000,0,0.0048217769,,,
0.5468750000,0,0.0380706787,,,
0.5625000000,0,0.0202331506,,,
0.5781250000,0,-0.0540161096,,,
0.5937500000,0,-0.1786193997,,,
0.6093750000,0,-0.3192138970,,,
0.6250000000,0,-0.4264984131,,,
0.6406250000,0,-0.4422607124,,,
0.6562500000,0,-0.3221588135,,,
0.6718750000,0,-0.0828094482,,,
0.6875000000,0,0.2125549018,,,
0.7031250000,0,0.4785309136,,,
0.7187500000,0,0.6425933838,,,
0.7343750000,0,0.6846007705,,,
0.7500000000,0,0.6347351074,,,
0.7656250000,0,0.5665740967,,,
0.7812500000,0,0.5585631728,,,
0.7968750000,0,0.6371002197,,,
0.8125000000,0,0.7656859756,,,
0.8281250000,0,0.8667449951,,,
0.8437500000,0,0.8907166123,,,
0.8593750000,0,0.8489838243,,,
0.8750000000,0,0.8162537217,,,
0.8906250000,0,0.8615723252,,,
0.9062500000,0,0.9773253798,,,
0.9218750000,0,1.0491329432,,,
0.9375000000,0,0.9199218750,,,
0.9531250000,0,0.4820556939,,,
0.9687500000,0,-0.2356262058,,,
0.9843750000,0,-1.0403139591,,,
1.0000000000,0,-1.6878050566,,,
1.0156250000,0,-1.9849549532,,,
1.0312500000,0,-1.8869630098,,,
1.0468750000,0,-1.5054019690,,,
1.0625000000,0,-1.0172580481,,,
1.0781250000,0,-0.5781403184,,,
1.0937500000,0,-0.2620086968,,,
1.1093750000,0,-0.0524749793,,,
1.1250000000,0,0.0761413574,,,
1.1406250000,0,0.1423034966,,,
1.1562500000,0,0.1485442966,,,
1.1718750000,0,0.1034697965,,,
1.1875000000,0,0.0394287109,,,
1.2031250000,0,0.0387420692,,,
1.2187500000,0,0.1576233059,,,
1.2343750000,0,0.4110870063,,,
1.2500000000,0,0.7428894043,,,
1.2656250000,0,1.0442960262,,,
1.2812500000,0,1.2061159611,,,
1.2968750000,0,1.1712340117,,,
1.3125000000,0,0.9762725830,,,
1.3281250000,0,0.7015076280,,,
1.3437500000,0,0.4252013862,,,
1.3593750000,0,0.1803130955,,,
1.3750000000,0,-0.0586700402,,,
1.3906250000,0,-0.3202514946,,,
1.4062500000,0,-0.5883178711,,,
1.4218750000,0,-0.7941132188,,,
1.4375000000,0,-0.8289641738,,,
1.4531250000,0,-0.6362761855,,,
1.4687500000,0,-0.2762908936,,,
1.4843750000,0,0.1015015021,,,
1.5000000000,0,0.3227233887,,,
1.5156250000,0,0.2864685059,,,
1.5312500000,0,0.0322570801,,,
1.5468750000,0,-0.2791900933,,,
1.5625000000,0,-0.4584656060,,,
1.5781250000,0,-0.4041289985,,,
1.5937500000,0,-0.1471251994,,,
1.6093750000,0,0.1670074016,,,
1.6250000000,0,0.3725281060,,,
1.6406250000,0,0.3679961860,,,
1.6562500000,0,0.1782532036,,,
1.6718750000,0,-0.0892486572,,,
1.6875000000,0,-0.3243561089,,,
1.7031250000,0,-0.4489136040,,,
1.7187500000,0,-0.4918670952,,,
1.7343750000,0,-0.5139312744,,,
1.7500000000,0,-0.5695496202,,,
1.7656250000,0,-0.6354218125,,,
1.7812500000,0,-0.6284180284,,,
1.7968750000,0,-0.4692840874,,,
1.8125000000,0,-0.1317443997,,,
1.8281250000,0,0.3150024116,,,
1.8437500000,0,0.7285308838,,,
1.8593750000,0,0.9597014785,,,
1.8750000000,0,0.9383087158,,,
1.8906250000,0,0.6967772841,,,
1.9062500000,0,0.3521729112,,,
1.9218750000,0,0.0452728309,,,
1.9375000000,0,-0.1144104004,,,
1.9531250000,0,-0.0876617432,,,
1.9687500000,0,0.0907592773,,,
1.9843750000,0,0.3318175972,,,
2.0000000000,0,0.5284119248,,,
2.0156250000,0,0.5994415283,,,
2.0312500000,0,0.4992828071,,,
2.0468750000,0,0.2481383979,,,
2.0625000000,0,-0.0681762695,,,
2.0781250000,0,-0.3431395888,,,
2.0937500000,0,-0.4697875977,,,
2.1093750000,0,-0.3920288086,,,
2.1250000000,0,-0.1120757982,,,
2.1406250000,0,0.2834778130,,,
2.1562500000,0,0.6833801270,,,
2.1718750000,0,0.9590759277,,,
2.1875000000,0,1.0132139921,,,
2.2031250000,0,0.8201293945,,,
2.2187500000,0,0.4154815972,,,
2.2343750000,0,-0.1075439006,,,
2.2500000000,0,-0.6411591172,,,
2.2656250000,0,-1.0882869959,,,
2.2812500000,0,-1.3936610222,,,
2.2968750000,0,-1.5475009680,,,
2.3125000000,0,-1.5765080452,,,
2.3281250000,0,-1.5100860596,,,
2.3437500000,0,-1.3564300537,,,
2.3593750000,0,-1.1206359863,,,
2.3750000000,0,-0.7997894287,,,
2.3906250000,0,-0.4272460938,,,
2.4062500000,0,-0.0794525072,,,
2.4218750000,0,0.1611938030,,,
2.4375000000,0,0.2468567044,,,
2.4531250000,0,0.2158813030,,,
2.4687500000,0,0.1647644043,,,
2.4843750000,0,0.2049866021,,,
2.5000000000,0,0.3843078911,,,
2.5156250000,0,0.6612091064,,,
2.5312500000,0,0.9206848145,,,
2.5468750000,0,1.0490570068,,,
2.5625000000,0,0.9830626845,,,
2.5781250000,0,0.7538756728,,,
2.5937500000,0,0.4428710938,,,
2.6093750000,0,0.1365050972,,,
2.6250000000,0,-0.1012573019,,,
2.6406250000,0,-0.2547607124,,,
2.6562500000,0,-0.3284148872,,,
2.6718750000,0,-0.3441925049,,,
2.6875000000,0,-0.3226318061,,,
2.7031250000,0,-0.2959290147,,,
2.7187500000,0,-0.2695007026,,,
2.7343750000,0,-0.2366943061,,,
2.7500000000,0,-0.1559906006,,,
2.7656250000,0,-0.0014953610,,,
2.7812500000,0,0.2121735066,,,
2.7968750000,0,0.4054718018,,,
2.8125000000,0,0.4828490913,,,
2.8281250000,0,0.3825989068,,,
2.8437500000,0,0.1381835938,,,
2.8593750000,0,-0.1424560994,,,
2.8750000000,0,-0.3263092041,,,
2.8906250000,0,-0.3361664116,,,
2.9062500000,0,-0.1986542046,,,
2.9218750000,0,-0.0110015897,,,
2.9375000000,0,0.1089783013,,,
2.9531250000,0,0.1091461033,,,
2.9687500000,0,-0.0005645752,,,
2.9843750000,0,-0.1547852010,,,
3.0000000000,0,-0.2874450982,,,
3.0156250000,0,-0.3726348877,,,
3.0312500000,0,-0.4113312066,,,
3.0468750000,0,-0.4117279053,,,
3.0625000000,0,-0.3935698867,,,
3.0781250000,0,-0.3411101997,,,
3.0937500000,0,-0.2284851074,,,
3.1093750000,0,-0.0349731408,,,
3.1250000000,0,0.2348784953,,,
3.1406250000,0,0.5484160781,,,
3.1562500000,0,0.8229675293,,,
3.1718750000,0,0.9651947021,,,
3.1875000000,0,0.9235228896,,,
3.2031250000,0,0.6994171143,,,
3.2187500000,0,0.3649750054,,,
3.2343750000,0,0.0275268592,,,
3.2500000000,0,-0.2214660943,,,
3.2656250000,0,-0.3384093940,,,
3.2812500000,0,-0.3423309028,,,
3.2968750000,0,-0.3104248047,,,
3.3125000000,0,-0.3230133057,,,
3.3281250000,0,-0.4228667915,,,
3.3437500000,0,-0.5894165039,,,
3.3593750000,0,-0.7577208877,,,
3.3750000000,0,-0.8317108154,,,
3.3906250000,0,-0.7296143174,,,
3.4062500000,0,-0.4318085015,,,
3.4218750000,0,0.0063934331,,,
3.4375000000,0,0.4697265923,,,
3.4531250000,0,0.8411560059,,,
3.4687500000,0,1.0375980139,,,
3.4843750000,0,1.0508580208,,,
3.5000000000,0,0.9413300157,,,
3.5156250000,0,0.7830352783,,,
3.5312500000,0,0.6471558213,,,
3.5468750000,0,0.5637664795,,,
3.5625000000,0,0.5256348252,,,
3.5781250000,0,0.5025786757,,,
3.5937500000,0,0.4668427110,,,
3.6093750000,0,0.3994446099,,,
3.6250000000,0,0.2909545898,,,
3.6406250000,0,0.1628264934,,,
3.6562500000,0,0.0455932617,,,
3.6718750000,0,-0.0237274207,,,
3.6875000000,0,-0.0254821796,,,
3.7031250000,0,0.0362243690,,,
3.7187500000,0,0.1202087030,,,
3.7343750000,0,0.1684112996,,,
3.7500000000,0,0.1243439019,,,
3.7656250000,0,-0.0164794903,,,
3.7812500000,0,-0.2007599026,,,
3.7968750000,0,-0.3516997993,,,
3.8125000000,0,-0.4090423882,,,
3.8281250000,0,-0.3563843071,,,
3.8437500000,0,-0.2262725979,,,
3.8593750000,0,-0.0871276930,,,
3.8750000000,0,-0.0088195801,,,
3.8906250000,0,-0.0250396691,,,
3.9062500000,0,-0.1280364990,,,
3.9218750000,0,-0.2826842964,,,
3.9375000000,0,-0.4431000054,,,
3.9531250000,0,-0.5757446289,,,
3.9687500000,0,-0.6861115098,,,
3.9843750000,0,-0.7913361192,,,
4.0000000000,0,-0.9009705186,,,
4.0156250000,0,-0.9947968125,,,
4.0312500000,0,-1.0047609806,,,
4.0468750000,0,-0.8613739014,,,
4.0625000000,0,-0.5379639268,,,
4.0781250000,0,-0.0968170166,,,
4.0937500000,0,0.3329772949,,,
4.1093750000,0,0.6212158203,,,
4.1250000000,0,0.7098389268,,,
4.1406250000,0,0.6390839219,,,
4.1562500000,0,0.5228118896,,,
4.1718750000,0,0.4605864882,,,
4.1875000000,0,0.4615479112,,,
4.2031250000,0,0.4343262017,,,
4.2187500000,0,0.2760010064,,,
4.2343750000,0,-0.0517425500,,,
4.2500000000,0,-0.4702453911,,,
4.2656250000,0,-0.8193358779,,,
4.2812500000,0,-0.9550017715,,,
4.2968750000,0,-0.8396149278,,,
4.3125000000,0,-0.5722960830,,,
4.3281250000,0,-0.3148956001,,,
4.3437500000,0,-0.2014922947,,,
4.3593750000,0,-0.2677001953,,,
4.3750000000,0,-0.4443511963,,,
4.3906250000,0,-0.6098175049,,,
4.4062500000,0,-0.6568909287,,,
4.4218750000,0,-0.5309600830,,,
4.4375000000,0,-0.2254333049,,,
4.4531250000,0,0.2065581977,,,
4.4687500000,0,0.6716002822,,,
4.4843750000,0,1.0636899471,,,
4.5000000000,0,1.2786250114,,,
4.5156250000,0,1.2500150204,,,
4.5312500000,0,0.9867249131,,,
4.5468750000,0,0.5712584853,,,
4.5625000000,0,0.1422424018,,,
4.5781250000,0,-0.1650085002,,,
4.5937500000,0,-0.2802428901,,,
4.6093750000,0,-0.2036896050,,,
4.6250000000,0,0.0165710393,,,
4.6406250000,0,0.2983398139,,,
4.6562500000,0,0.5649871826,,,
4.6718750000,0,0.7465819716,,,
4.6875000000,0,0.7783966064,,,
4.7031250000,0,0.6131591797,,,
4.7187500000,0,0.2705687881,,,
4.7343750000,0,-0.1569671929,,,
4.7500000000,0,-0.5265197754,,,
4.7656250000,0,-0.7054290771,,,
4.7812500000,0,-0.6458740234,,,
4.7968750000,0,-0.4022063911,,,
4.8125000000,0,-0.0923461914,,,
4.8281250000,0,0.1864165962,,,
4.8437500000,0,0.4225769043,,,
4.8593750000,0,0.6629180908,,,
4.8750000000,0,0.9514464736,,,
4.8906250000,0,1.2559510469,,,
4.9062500000,0,1.4671169519,,,
4.9218750000,0,1.4573520422,,,
4.9375000000,0,1.1880799532,,,
4.9531250000,0,0.7469788194,,,
4.9687500000,0,0.3148651123,,,
4.9843750000,0,0.0569305383,,,
5.0000000000,0,0.0399475098,,,
5.0156250000,0,0.1932373047,,,
5.0312500000,0,0.3739624023,,,
5.0468750000,0,0.4545746148,,,
5.0625000000,0,0.3907471001,,,
5.0781250000,0,0.2341461033,,,
5.0937500000,0,0.0796966627,,,
5.1093750000,0,-0.0037231450,,,
5.1250000000,0,0.0018920900,,,
5.1406250000,0,0.0637817383,,,
5.1562500000,0,0.1174774021,,,
5.1718750000,0,0.1228332967,,,
5.1875000000,0,0.0585937500,,,
5.2031250000,0,-0.0762786865,,,
5.2187500000,0,-0.2901763916,,,
5.2343750000,0,-0.6029663086,,,
5.2500000000,0,-1.0306400061,,,
5.2656250000,0,-1.5511779785,,,
5.2812500000,0,-2.0850069523,,,
5.2968750000,0,-2.5102229118,,,
5.3125000000,0,-2.6994929314,,,
5.3281250000,0,-2.5959630013,,,
5.3437500000,0,-2.2210240364,,,
5.3593750000,0,-1.6856540442,,,
5.3750000000,0,-1.1192929745,,,
5.3906250000,0,-0.6433867812,,,
5.4062500000,0,-0.3232727051,,,
5.4218750000,0,-0.1611481011,,,
5.4375000000,0,-0.1249846965,,,
5.4531250000,0,-0.1588898003,,,
5.4687500000,0,-0.2075348049,,,
5.4843750000,0,-0.2200164944,,,
5.5000000000,0,-0.1581726074,,,
5.5156250000,0,-0.0037841799,,,
5.5312500000,0,0.2239075005,,,
5.5468750000,0,0.4664306939,,,
5.5625000000,0,0.6533051133,,,
5.5781250000,0,0.7287139893,,,
5.5937500000,0,0.6949462891,,,
5.6093750000,0,0.5964813232,,,
5.6250000000,0,0.5171813965,,,
5.6406250000,0,0.5239562988,,,
5.6562500000,0,0.6400145888,,,
5.6718750000,0,0.8152008057,,,
5.6875000000,0,0.9494628906,,,
5.7031250000,0,0.9557495117,,,
5.7187500000,0,0.7851715088,,,
5.7343750000,0,0.4663085938,,,
5.7500000000,0,0.0800476074,,,
5.7656250000,0,-0.2554168999,,,
5.7812500000,0,-0.4568175972,,,
5.7968750000,0,-0.4652709961,,,
5.8125000000,0,-0.2815246880,,,
5.8281250000,0,0.0571594201,,,
5.8437500000,0,0.4739226997,,,
5.8593750000,0,0.8517761230,,,
5.8750000000,0,1.0823819637,,,
5.8906250000,0,1.0863649845,,,
5.9062500000,0,0.8717650771,,,
5.9218750000,0,0.5208588243,,,
5.9375000000,0,0.1730803996,,,
5.9531250000,0,-0.0375518799,,,
5.9687500000,0,-0.0460815392,,,
5.9843750000,0,0.1275177002,,,
6.0000000000,0,0.3768920898,,,
6.0156250000,0,0.5692595840,,,
6.0312500000,0,0.5738677979,,,
6.0468750000,0,0.3200226128,,,
6.0625000000,0,-0.1835021973,,,
6.0781250000,0,-0.8365325928,,,
6.0937500000,0,-1.4660639763,,,
6.1093750000,0,-1.8977359533,,,
6.1250000000,0,-2.0003509521,,,
6.1406250000,0,-1.7691349983,,,
6.1562500000,0,-1.3003690243,,,
6.1718750000,0,-0.7586669922,,,
6.1875000000,0,-0.2800292969,,,
6.2031250000,0,0.0678253174,,,
6.2187500000,0,0.2942047119,,,
6.2343750000,0,0.4427185059,,,
6.2500000000,0,0.5239868164,,,
6.2656250000,0,0.5391234756,,,
6.2812500000,0,0.4859161079,,,
6.2968750000,0,0.4092864990,,,
6.3125000000,0,0.3771820068,,,
6.3281250000,0,0.4476166070,,,
6.3437500000,0,0.6209564209,,,
6.3593750000,0,0.8183289170,,,
6.3750000000,0,0.9306030273,,,
6.3906250000,0,0.8652954102,,,
6.4062500000,0,0.6079865098,,,
6.4218750000,0,0.2142944038,,,
6.4375000000,0,-0.2171477973,,,
6.4531250000,0,-0.5925750732,,,
6.4687500000,0,-0.8569946289,,,
6.4843750000,0,-0.9954071045,,,
6.5000000000,0,-1.0260620117,,,
6.5156250000,0,-0.9776306152,,,
6.5312500000,0,-0.8997954726,,,
6.5468750000,0,-0.8352965713,,,
6.5625000000,0,-0.8263245225,,,
6.5781250000,0,-0.8921204209,,,
6.5937500000,0,-1.0157929659,,,
6.6093750000,0,-1.1703339815,,,
6.6250000000,0,-1.3057399988,,,
6.6406250000,0,-1.3678890467,,,
6.6562500000,0,-1.3001250029,,,
6.6718750000,0,-1.0688170195,,,
6.6875000000,0,-0.6554108262,,,
6.7031250000,0,-0.1047974005,,,
6.7187500000,0,0.4900208116,,,
6.7343750000,0,1.0237430334,,,
6.7500000000,0,1.3931879997,,,
6.7656250000,0,1.5510859489,,,
6.7812500000,0,1.5250090361,,,
6.7968750000,0,1.3876650333,,,
6.8125000000,0,1.2301180363,,,
6.8281250000,0,1.1199799776,,,
6.8437500000,0,1.0756380558,,,
6.8593750000,0,1.0602259636,,,
6.8750000000,0,1.0231930017,,,
6.8906250000,0,0.9326782227,,,
6.9062500000,0,0.7841339111,,,
6.9218750000,0,0.6105957031,,,
6.9375000000,0,0.4469757080,,,
6.9531250000,0,0.3087311089,,,
6.9687500000,0,0.1837769002,,,
6.9843750000,0,0.0510711707,,,
7.0000000000,0,-0.1001129001,,,
7.0156250000,0,-0.2411652058,,,
7.0312500000,0,-0.3184967041,,,
7.0468750000,0,-0.2855530083,,,
7.0625000000,0,-0.1224059984,,,
7.0781250000,0,0.1400299072,,,
7.0937500000,0,0.4250031114,,,
7.1093750000,0,0.6223906875,,,
7.1250000000,0,0.6359406114,,,
7.1406250000,0,0.4175415039,,,
7.1562500000,0,-0.0031585691,,,
7.1718750000,0,-0.5153046250,,,
7.1875000000,0,-0.9656066895,,,
7.2031250000,0,-1.2125240564,,,
7.2187500000,0,-1.1921540499,,,
7.2343750000,0,-0.9320526123,,,
7.2500000000,0,-0.5553284287,,,
7.2656250000,0,-0.1992187947,,,
7.2812500000,0,0.0254974402,,,
7.2968750000,0,0.0722351074,,,
7.3125000000,0,-0.0377197303,,,
7.3281250000,0,-0.2559052110,,,
7.3437500000,0,-0.5065460205,,,
7.3593750000,0,-0.7188720703,,,
7.3750000000,0,-0.8248748779,,,
7.3906250000,0,-0.7669219971,,,
7.4062500000,0,-0.5223389268,,,
7.4218750000,0,-0.1111449972,,,
7.4375000000,0,0.4014435112,,,
7.4531250000,0,0.9423676133,,,
7.4687500000,0,1.4347079992,,,
7.4843750000,0,1.8174740076,,,
7.5000000000,0,2.0449829102,,,
7.5156250000,0,2.0753779411,,,
7.5312500000,0,1.8908079863,,,
7.5468750000,0,1.4913179874,,,
7.5625000000,0,0.9246520996,,,
7.5781250000,0,0.2905121148,,,
7.5937500000,0,-0.2780457139,,,
7.6093750000,0,-0.6606444716,,,
7.6250000000,0,-0.7895966172,,,
7.6406250000,0,-0.6877899170,,,
7.6562500000,0,-0.4599915147,,,
7.6718750000,0,-0.2572326958,,,
7.6875000000,0,-0.2039337009,,,
7.7031250000,0,-0.3318175972,,,
7.7187500000,0,-0.5484619141,,,
7.7343750000,0,-0.6790009141,,,
7.7500000000,0,-0.5933380127,,,
7.7656250000,0,-0.2678833008,,,
7.7812500000,0,0.1697693020,,,
7.7968750000,0,0.5022277832,,,
7.8125000000,0,0.5646666884,,,
7.8281250000,0,0.3317413032,,,
7.8437500000,0,-0.0627593994,,,
7.8593750000,0,-0.4222716987,,,
7.8750000000,0,-0.5863646865,,,
7.8906250000,0,-0.5258330703,,,
7.9062500000,0,-0.3315125108,,,
7.9218750000,0,-0.1496887058,,,
7.9375000000,0,-0.0864868164,,,
7.9531250000,0,-0.1614226997,,,
7.9687500000,0,-0.3167876899,,,
7.9843750000,0,-0.4740143120,,,
8.0000000000,1,-0.5796204209,,,
8.0156250000,1,-0.6305999756,,,
8.0312500000,1,-0.6610413194,,,
8.0468750000,1,-0.7084351182,,,
8.0625000000,1,-0.7920073867,,,
8.0781250000,1,-0.8832703233,,,
8.0937500000,1,-0.9119873047,,,
8.1093750000,1,-0.7956542969,,,
8.1250000000,1,-0.4686583877,,,
8.1406250000,1,0.0561675988,,,
8.1562500000,1,0.7052916884,,,
8.1718750000,1,1.3567199707,,,
8.1875000000,1,1.9086300135,,,
8.2031250000,1,2.2919919491,,,
8.2187500000,1,2.4894559383,,,
8.2343750000,1,2.5098109245,,,
8.2500000000,1,2.3543550968,,,
8.2656250000,1,2.0134580135,,,
8.2812500000,1,1.4769439697,,,
8.2968750000,1,0.7786560059,,,
8.3125000000,1,0.0057678218,,,
8.3281250000,1,-0.7020111084,,,
8.3437500000,1,-1.1831209660,,,
8.3593750000,1,-1.3317569494,,,
8.3750000000,1,-1.1531219482,,,
8.3906250000,1,-0.7644196153,,,
8.4062500000,1,-0.3317871094,,,
8.4218750000,1,-0.0155487098,,,
8.4375000000,1,0.1209717020,,,
8.4531250000,1,0.1033324972,,,
8.4687500000,1,0.0172271691,,,
8.4843750000,1,-0.0604248010,,,
8.5000000000,1,-0.1194915995,,,
8.5156250000,1,-0.2038116008,,,
8.5312500000,1,-0.3659667969,,,
8.5468750000,1,-0.6137084961,,,
8.5625000000,1,-0.8886414170,,,
8.5781250000,1,-1.0870970488,,,
8.5937500000,1,-1.1336059570,,,
8.6093750000,1,-1.0175019503,,,
8.6250000000,1,-0.7902069092,,,
8.6406250000,1,-0.5387114882,,,
8.6562500000,1,-0.3360291123,,,
8.6718750000,1,-0.2234344035,,,
8.6875000000,1,-0.1950836033,,,
8.7031250000,1,-0.2328186035,,,
8.7187500000,1,-0.3092041016,,,
8.7343750000,1,-0.4006958008,,,
8.7500000000,1,-0.4896239936,,,
8.7656250000,1,-0.5583953857,,,
8.7812500000,1,-0.5930938721,,,
8.7968750000,1,-0.5760192871,,,
8.8125000000,1,-0.4904784858,,,
8.8281250000,1,-0.3470917046,,,
8.8437500000,1,-0.1756591946,,,
8.8593750000,1,-0.0222778302,,,
8.8750000000,1,0.0717163086,,,
8.8906250000,1,0.0933532715,,,
8.9062500000,1,0.0571136512,,,
8.9218750000,1,0.0092468262,,,
8.9375000000,1,0.0030670171,,,
8.9531250000,1,0.0709533691,,,
8.9687500000,1,0.2241820991,,,
8.9843750000,1,0.4492644966,,,
9.0000000000,1,0.6998444200,,,
9.0156250000,1,0.9152374268,,,
9.0312500000,1,1.0351259708,,,
9.0468750000,1,1.0053410530,,,
9.0625000000,1,0.8190001845,,,
9.0781250000,1,0.5173339844,,,
9.0937500000,1,0.1862183064,,,
9.1093750000,1,-0.0796203613,,,
9.1250000000,1,-0.2187653035,,,
9.1406250000,1,-0.2259826958,,,
9.1562500000,1,-0.1517944038,,,
9.1718750000,1,-0.0462188683,,,
9.1875000000,1,0.0546722412,,,
9.2031250000,1,0.1500549018,,,
9.2187500000,1,0.2368164063,,,
9.2343750000,1,0.2991485894,,,
9.2500000000,1,0.3118134141,,,
9.2656250000,1,0.2524414063,,,
9.2812500000,1,0.1376343071,,,
9.2968750000,1,0.0165863000,,,
9.3125000000,1,-0.0487060510,,,
9.3281250000,1,-0.0357360803,,,
9.3437500000,1,0.0341796912,,,
9.3593750000,1,0.0923461914,,,
9.3750000000,1,0.0713043213,,,
9.3906250000,1,-0.0242157001,,,
9.4062500000,1,-0.1430359036,,,
9.4218750000,1,-0.1905211955,,,
9.4375000000,1,-0.1110534966,,,
9.4531250000,1,0.0737609863,,,
9.4687500000,1,0.2720490098,,,
9.4843750000,1,0.3943481147,,,
9.5000000000,1,0.4019469917,,,
9.5156250000,1,0.3242034912,,,
9.5312500000,1,0.2256011963,,,
9.5468750000,1,0.1340789944,,,
9.5625000000,1,0.0402526893,,,
9.5781250000,1,-0.1030730978,,,
9.5937500000,1,-0.3167876899,,,
9.6093750000,1,-0.5589600205,,,
9.6250000000,1,-0.7363129258,,,
9.6406250000,1,-0.7655944824,,,
9.6562500000,1,-0.6462554932,,,
9.6718750000,1,-0.4535827935,,,
9.6875000000,1,-0.3258666992,,,
9.7031250000,1,-0.3714905083,,,
9.7187500000,1,-0.6025847793,,,
9.7343750000,1,-0.9247437119,,,
9.7500000000,1,-1.1780240536,,,
9.7656250000,1,-1.2381290197,,,
9.7812500000,1,-1.0657349825,,,
9.7968750000,1,-0.7489014268,,,
9.8125000000,1,-0.4325408936,,,
9.8281250000,1,-0.2657318115,,,
9.8437500000,1,-0.3038940132,,,
9.8593750000,1,-0.4904632866,,,
9.8750000000,1,-0.6859436035,,,
9.8906250000,1,-0.7305145264,,,
9.9062500000,1,-0.5436400771,,,
9.9218750000,1,-0.1346587986,,,
9.9375000000,1,0.3922882080,,,
9.9531250000,1,0.9103240967,,,
9.9687500000,1,1.3028719425,,,
9.9843750000,1,1.5309139490,,,
10.0000000000,1,1.6062769890,,,
10.0156250000,1,1.5847469568,,,
10.0312500000,1,1.5224909782,,,
10.0468750000,1,1.4355159998,,,
10.0625000000,1,1.3174589872,,,
10.0781250000,1,1.1565699577,,,
10.0937500000,1,0.9424591064,,,
10.1093750000,1,0.6878662109,,,
10.1250000000,1,0.4241333008,,,
10.1406250000,1,0.1655731052,,,
10.1562500000,1,-0.1034851000,,,
10.1718750000,1,-0.3991698921,,,
10.1875000000,1,-0.7225341797,,,
10.2031250000,1,-1.0340119600,,,
10.2187500000,1,-1.2466579676,,,
10.2343750000,1,-1.2831419706,,,
10.2500000000,1,-1.0859680176,,,
10.2656250000,1,-0.7064362168,,,
10.2812500000,1,-0.2553100884,,,
10.2968750000,1,0.1071930006,,,
10.3125000000,1,0.2716063857,,,
10.3281250000,1,0.2268981934,,,
10.3437500000,1,0.0622863807,,,
10.3593750000,1,-0.0805969164,,,
10.3750000000,1,-0.0850372314,,,
10.3906250000,1,0.0966186523,,,
10.4062500000,1,0.4027557075,,,
10.4218750000,1,0.7057036757,,,
10.4375000000,1,0.8833466172,,,
10.4531250000,1,0.8668823242,,,
10.4687500000,1,0.6690369248,,,
10.4843750000,1,0.3773041070,,,
10.5000000000,1,0.0865631104,,,
10.5156250000,1,-0.1251067966,,,
10.5312500000,1,-0.2145233005,,,
10.5468750000,1,-0.1650391072,,,
10.5625000000,1,0.0172424298,,,
10.5781250000,1,0.3270874023,,,
10.5937500000,1,0.7111663818,,,
10.6093750000,1,1.0708470345,,,
10.6250000000,1,1.2846369743,,,
10.6406250000,1,1.2632449865,,,
10.6562500000,1,0.9804077148,,,
10.6718750000,1,0.5012969971,,,
10.6875000000,1,-0.0637512207,,,
10.7031250000,1,-0.6068572998,,,
10.7187500000,1,-1.0471190214,,,
10.7343750000,1,-1.3723750114,,,
10.7500000000,1,-1.5777130127,,,
10.7656250000,1,-1.6676180363,,,
10.7812500000,1,-1.6357879639,,,
10.7968750000,1,-1.4997559786,,,
10.8125000000,1,-1.3040620089,,,
10.8281250000,1,-1.1103060246,,,
10.8437500000,1,-0.9765319824,,,
10.8593750000,1,-0.9073333740,,,
10.8750000000,1,-0.8661652207,,,
10.8906250000,1,-0.7780913711,,,
10.9062500000,1,-0.5920562744,,,
10.9218750000,1,-0.3149718940,,,
10.9375000000,1,0.0159606896,,,
10.9531250000,1,0.3293457031,,,
10.9687500000,1,0.5632781982,,,
10.9843750000,1,0.6760864258,,,
11.0000000000,1,0.6713256836,,,
11.0156250000,1,0.5825194716,,,
11.0312500000,1,0.4751282036,,,
11.0468750000,1,0.4093781114,,,
11.0625000000,1,0.4192047119,,,
11.0781250000,1,0.5040435791,,,
11.0937500000,1,0.6306304932,,,
11.1093750000,1,0.7571868896,,,
11.1250000000,1,0.8315125108,,,
11.1406250000,1,0.8305205703,,,
11.1562500000,1,0.7422332764,,,
11.1718750000,1,0.5677642822,,,
11.1875000000,1,0.3168488145,,,
11.2031250000,1,0.0128173800,,,
11.2187500000,1,-0.2988434136,,,
11.2343750000,1,-0.5546569824,,,
11.2500000000,1,-0.6956024170,,,
11.2656250000,1,-0.6811218262,,,
11.2812500000,1,-0.5099182129,,,
11.2968750000,1,-0.2253876030,,,
11.3125000000,1,0.0988616869,,,
11.3281250000,1,0.4062347114,,,
11.3437500000,1,0.6496887207,,,
11.3593750000,1,0.8081970215,,,
11.3750000000,1,0.8715972900,,,
11.3906250000,1,0.8305510879,,,
11.4062500000,1,0.6723632813,,,
11.4218750000,1,0.3865661919,,,
11.4375000000,1,-0.0068359380,,,
11.4531250000,1,-0.4488525093,,,
11.4687500000,1,-0.8238677979,,,
11.4843750000,1,-1.0152130127,,,
11.5000000000,1,-0.9572753906,,,
11.5156250000,1,-0.6756439209,,,
11.5312500000,1,-0.2867431939,,,
11.5468750000,1,0.0463714600,,,
11.5625000000,1,0.2107696980,,,
11.5781250000,1,0.1875153035,,,
11.5937500000,1,0.0356292687,,,
11.6093750000,1,-0.1488952935,,,
11.6250000000,1,-0.2956390083,,,
11.6406250000,1,-0.3876801133,,,
11.6562500000,1,-0.4385834038,,,
11.6718750000,1,-0.4594878852,,,
11.6875000000,1,-0.4509125054,,,
11.7031250000,1,-0.3913269043,,,
11.7187500000,1,-0.2982025146,,,
11.7343750000,1,-0.2112274021,,,
11.7500000000,1,-0.1930083930,,,
11.7656250000,1,-0.2910766900,,,
11.7812500000,1,-0.4925385118,,,
11.7968750000,1,-0.7266693115,,,
11.8125000000,1,-0.9162291884,,,
11.8281250000,1,-0.9932860732,,,
11.8437500000,1,-0.9234771729,,,
11.8593750000,1,-0.7115325928,,,
11.8750000000,1,-0.3799437881,,,
11.8906250000,1,0.0381622314,,,
11.9062500000,1,0.4907684028,,,
11.9218750000,1,0.9210814834,,,
11.9375000000,1,1.2693630457,,,
11.9531250000,1,1.4748380184,,,
11.9687500000,1,1.5100400448,,,
11.9843750000,1,1.3972020149,,,
12.0000000000,1,1.1844940186,,,
12.0156250000,1,0.9420928955,,,
12.0312500000,1,0.7359467149,,,
12.0468750000,1,0.5947570801,,,
12.0625000000,1,0.5077515244,,,
12.0781250000,1,0.4462127984,,,
12.0937500000,1,0.3715820014,,,
12.1093750000,1,0.2548218071,,,
12.1250000000,1,0.1118773967,,,
12.1406250000,1,-0.0196380597,,,
12.1562500000,1,-0.0756530836,,,
12.1718750000,1,0.0026397710,,,
12.1875000000,1,0.2267760932,,,
12.2031250000,1,0.5691223145,,,
12.2187500000,1,0.9327086806,,,
12.2343750000,1,1.1984250546,,,
12.2500000000,1,1.2505650520,,,
12.2656250000,1,1.0007929802,,,
12.2812500000,1,0.4488677979,,,
12.2968750000,1,-0.3027496040,,,
12.3125000000,1,-1.0756230354,,,
12.3281250000,1,-1.6681979895,,,
12.3437500000,1,-1.9033360481,,,
12.3593750000,1,-1.7093659639,,,
12.3750000000,1,-1.1560519934,,,
12.3906250000,1,-0.4159545898,,,
12.4062500000,1,0.2866516113,,,
12.4218750000,1,0.7750092149,,,
12.4375000000,1,0.9940795898,,,
12.4531250000,1,0.9926605225,,,
12.4687500000,1,0.8693084717,,,
12.4843750000,1,0.6994171143,,,
12.5000000000,1,0.5164031982,,,
12.5156250000,1,0.3050231934,,,
12.5312500000,1,0.0583190918,,,
12.5468750000,1,-0.1899261028,,,
12.5625000000,1,-0.3821105957,,,
12.5781250000,1,-0.4609222114,,,
12.5937500000,1,-0.4248352051,,,
12.6093750000,1,-0.3331908882,,,
12.6250000000,1,-0.2610015869,,,
12.6406250000,1,-0.2587432861,,,
12.6562500000,1,-0.3227385879,,,
12.6718750000,1,-0.3932037055,,,
12.6875000000,1,-0.4094237983,,,
12.7031250000,1,-0.3447417915,,,
12.7187500000,1,-0.2224884033,,,
12.7343750000,1,-0.1042480022,,,
12.7500000000,1,-0.0443267785,,,
12.7656250000,1,-0.0718688965,,,
12.7812500000,1,-0.1852722019,,,
12.7968750000,1,-0.3369292915,,,
12.8125000000,1,-0.4560698867,,,
12.8281250000,1,-0.4874877930,,,
12.8437500000,1,-0.4126740098,,,
12.8593750000,1,-0.2722473145,,,
12.8750000000,1,-0.1494293064,,,
12.8906250000,1,-0.1194915995,,,
12.9062500000,1,-0.1922454983,,,
12.9218750000,1,-0.3136901855,,,
12.9375000000,1,-0.3786773980,,,
12.9531250000,1,-0.3261565864,,,
12.9687500000,1,-0.1814880073,,,
12.9843750000,1,-0.0515747108,,,
13.0000000000,1,-0.0415344201,,,
13.0156250000,1,-0.1854095012,,,
13.0312500000,1,-0.4057464898,,,
13.0468750000,1,-0.5608521104,,,
13.0625000000,1,-0.5483856201,,,
13.0781250000,1,-0.3623962104,,,
13.0937500000,1,-0.0942230225,,,
13.1093750000,1,0.1280518025,,,
13.1250000000,1,0.2365874946,,,
13.1406250000,1,0.2588196099,,,
13.1562500000,1,0.2777863145,,,
13.1718750000,1,0.3661803901,,,
13.1875000000,1,0.5136566162,,,
13.2031250000,1,0.6320189834,,,
13.2187500000,1,0.6404724121,,,
13.2343750000,1,0.5075988770,,,
13.2500000000,1,0.2896729112,,,
13.2656250000,1,0.0889129564,,,
13.2812500000,1,-0.0195922907,,,
13.2968750000,1,-0.0278625507,,,
13.3125000000,1,0.0141296396,,,
13.3281250000,1,0.0417022705,,,
13.3437500000,1,0.0174560491,,,
13.3593750000,1,-0.0518493690,,,
13.3750000000,1,-0.1386107951,,,
13.3906250000,1,-0.2380523980,,,
13.4062500000,1,-0.3629455864,,,
13.4218750000,1,-0.5209655762,,,
13.4375000000,1,-0.6871643066,,,
13.4531250000,1,-0.7861022949,,,
13.4687500000,1,-0.7287750244,,,
13.4843750000,1,-0.4712524116,,,
13.5000000000,1,-0.0427703895,,,
13.5156250000,1,0.4358215034,,,
13.5312500000,1,0.8274688721,,,
13.5468750000,1,1.0384060144,,,
13.5625000000,1,1.0660400391,,,
13.5781250000,1,0.9772490859,,,
13.5937500000,1,0.8644257188,,,
13.6093750000,1,0.7869873047,,,
13.6250000000,1,0.7488098145,,,
13.6406250000,1,0.7074584961,,,
13.6562500000,1,0.6181182861,,,
13.6718750000,1,0.4807586968,,,
13.6875000000,1,0.3309325874,,,
13.7031250000,1,0.2042693943,,,
13.7187500000,1,0.1084136963,,,
13.7343750000,1,0.0141906701,,,
13.7500000000,1,-0.1144867018,,,
13.7656250000,1,-0.3029479980,,,
13.7812500000,1,-0.5309600830,,,
13.7968750000,1,-0.7590178847,,,
13.8125000000,1,-0.9438323975,,,
13.8281250000,1,-1.0623320341,,,
13.8437500000,1,-1.0925600529,,,
13.8593750000,1,-1.0198969841,,,
13.8750000000,1,-0.8310698867,,,
13.8906250000,1,-0.5296478271,,,
13.9062500000,1,-0.1515045017,,,
13.9218750000,1,0.2568207085,,,
13.9375000000,1,0.6271820068,,,
13.9531250000,1,0.9282836914,,,
13.9687500000,1,1.1240839958,,,
13.9843750000,1,1.1892549992,,,
14.0000000000,1,1.1073609591,,,
14.0156250000,1,0.8702393174,,,
14.0312500000,1,0.5174254775,,,
14.0468750000,1,0.1198730022,,,
14.0625000000,1,-0.2293395996,,,
14.0781250000,1,-0.4626465142,,,
14.0937500000,1,-0.5730133057,,,
14.1093750000,1,-0.5960236192,,,
14.1250000000,1,-0.5664824843,,,
14.1406250000,1,-0.4911040962,,,
14.1562500000,1,-0.3518677056,,,
14.1718750000,1,-0.1246185005,,,
14.1875000000,1,0.1722870022,,,
14.2031250000,1,0.4770508111,,,
14.2187500000,1,0.6959838867,,,
14.2343750000,1,0.7629547119,,,
14.2500000000,1,0.6763610840,,,
14.2656250000,1,0.4944153130,,,
14.2812500000,1,0.3053435981,,,
14.2968750000,1,0.1778717041,,,
14.3125000000,1,0.1402283013,,,
14.3281250000,1,0.1719512939,,,
14.3437500000,1,0.2352142036,,,
14.3593750000,1,0.2765350044,,,
14.3750000000,1,0.2573699951,,,
14.3906250000,1,0.1628417969,,,
14.4062500000,1,0.0107421903,,,
14.4218750000,1,-0.1355742961,,,
14.4375000000,1,-0.2328491062,,,
14.4531250000,1,-0.2504883111,,,
14.4687500000,1,-0.2101287991,,,
14.4843750000,1,-0.1808777004,,,
14.5000000000,1,-0.2365112007,,,
14.5156250000,1,-0.4158630073,,,
14.5312500000,1,-0.6881256104,,,
14.5468750000,1,-0.9693604112,,,
14.5625000000,1,-1.1699830294,,,
14.5781250000,1,-1.2275090218,,,
14.5937500000,1,-1.1421970129,,,
14.6093750000,1,-0.9657897949,,,
14.6250000000,1,-0.7616118789,,,
14.6406250000,1,-0.5625457764,,,
14.6562500000,1,-0.3727721870,,,
14.6718750000,1,-0.1968993992,,,
14.6875000000,1,-0.0561981201,,,
14.7031250000,1,0.0063934331,,,
14.7187500000,1,-0.0523223914,,,
14.7343750000,1,-0.2281342000,,,
14.7500000000,1,-0.4650421143,,,
14.7656250000,1,-0.6594542861,,,
14.7812500000,1,-0.7129517198,,,
14.7968750000,1,-0.5858765244,,,
14.8125000000,1,-0.3056792915,,,
14.8281250000,1,0.0443115197,,,
14.8437500000,1,0.3709869087,,,
14.8593750000,1,0.6061248779,,,
14.8750000000,1,0.7402648926,,,
14.8906250000,1,0.8009185791,,,
14.9062500000,1,0.8246917725,,,
14.9218750000,1,0.8519896865,,,
14.9375000000,1,0.8844603896,,,
14.9531250000,1,0.9110106826,,,
14.9687500000,1,0.9225159287,,,
14.9843750000,1,0.9131317139,,,
15.0000000000,1,0.8916016221,,,
15.0156250000,1,0.8592987061,,,
15.0312500000,1,0.8149719238,,,
15.0468750000,1,0.7366790771,,,
15.0625000000,1,0.6114655137,,,
15.0781250000,1,0.4506989121,,,
15.0937500000,1,0.2988128960,,,
15.1093750000,1,0.2106934041,,,
15.1250000000,1,0.2193450928,,,
15.1406250000,1,0.2990416884,,,
15.1562500000,1,0.3616180122,,,
15.1718750000,1,0.2982634902,,,
15.1875000000,1,0.0556488000,,,
15.2031250000,1,-0.3342590034,,,
15.2187500000,1,-0.7708281875,,,
15.2343750000,1,-1.1219329834,,,
15.2500000000,1,-1.3121340275,,,
15.2656250000,1,-1.3336490393,,,
15.2812500000,1,-1.2319029570,,,
15.2968750000,1,-1.0697940588,,,
15.3125000000,1,-0.8882446289,,,
15.3281250000,1,-0.7004395127,,,
15.3437500000,1,-0.5195159912,,,
15.3593750000,1,-0.3708496094,,,
15.3750000000,1,-0.3009490967,,,
15.3906250000,1,-0.3559418023,,,
15.4062500000,1,-0.5444794297,,,
15.4218750000,1,-0.8087615967,,,
15.4375000000,1,-1.0532380342,,,
15.4531250000,1,-1.1672970057,,,
15.4687500000,1,-1.0851589441,,,
15.4843750000,1,-0.8160247803,,,
15.5000000000,1,-0.4281769097,,,
15.5156250000,1,-0.0458984412,,,
15.5312500000,1,0.2413787991,,,
15.5468750000,1,0.3835448921,,,
15.5625000000,1,0.4063110054,,,
15.5781250000,1,0.3699645996,,,
15.5937500000,1,0.3332672119,,,
15.6093750000,1,0.3265990913,,,
15.6250000000,1,0.3450622857,,,
15.6406250000,1,0.3690643013,,,
15.6562500000,1,0.3871765137,,,
15.6718750000,1,0.3817444146,,,
15.6875000000,1,0.3387908936,,,
15.7031250000,1,0.2544707954,,,
15.7187500000,1,0.1390533000,,,
15.7343750000,1,0.0378570594,,,
15.7500000000,1,0.0142364502,,,
15.7656250000,1,0.1164245978,,,
15.7812500000,1,0.3275603950,,,
15.7968750000,1,0.5548095703,,,
15.8125000000,1,0.6742401123,,,
15.8281250000,1,0.5941315293,,,
15.8437500000,1,0.3175964057,,,
15.8593750000,1,-0.0524749793,,,
15.8750000000,1,-0.3678131104,,,
15.8906250000,1,-0.5077208877,,,
15.9062500000,1,-0.4507750869,,,
15.9218750000,1,-0.2303466946,,,
15.9375000000,1,0.0679473877,,,
15.9531250000,1,0.3683013916,,,
15.9687500000,1,0.6146544814,,,
15.9843750000,1,0.7753447890,,,
16.0000000000,2,0.8433532715,,,
16.0156250000,2,0.8172150254,,,
16.0312500000,2,0.7375183105,,,
16.0468750000,2,0.6383513808,,,
16.0625000000,2,0.5576171875,,,
16.0781250000,2,0.4938659966,,,
16.0937500000,2,0.4212341011,,,
16.1093750000,2,0.3179320991,,,
16.1250000000,2,0.1969147027,,,
16.1406250000,2,0.1196594015,,,
16.1562500000,2,0.1686553955,,,
16.1718750000,2,0.3880462945,,,
16.1875000000,2,0.7309113145,,,
16.2031250000,2,1.0680240393,,,
16.2187500000,2,1.2368470430,,,
16.2343750000,2,1.1289060116,,,
16.2500000000,2,0.7426605225,,,
16.2656250000,2,0.1790314019,,,
16.2812500000,2,-0.4021300972,,,
16.2968750000,2,-0.8709259033,,,
16.3125000000,2,-1.1474000216,,,
16.3281250000,2,-1.2509160042,,,
16.3437500000,2,-1.2419739962,,,
16.3593750000,2,-1.2005159855,,,
16.3750000000,2,-1.1665339470,,,
16.3906250000,2,-1.1272579432,,,
16.4062500000,2,-1.0660710335,,,
16.4218750000,2,-0.9491271973,,,
16.4375000000,2,-0.7817382813,,,
16.4531250000,2,-0.5995789170,,,
16.4687500000,2,-0.4562683105,,,
16.4843750000,2,-0.3726958930,,,
16.5000000000,2,-0.3204956055,,,
16.5156250000,2,-0.2467041016,,,
16.5312500000,2,-0.0771942064,,,
16.5468750000,2,0.1935272068,,,
16.5625000000,2,0.4987488091,,,
16.5781250000,2,0.7091522217,,,
16.5937500000,2,0.7230681777,,,
16.6093750000,2,0.5248870850,,,
16.6250000000,2,0.2006378025,,,
16.6406250000,2,-0.0976867676,,,
16.6562500000,2,-0.2554016113,,,
16.6718750000,2,-0.2481842041,,,
16.6875000000,2,-0.1562653035,,,
16.7031250000,2,-0.0916137695,,,
16.7187500000,2,-0.1305695027,,,
16.7343750000,2,-0.2715148926,,,
16.7500000000,2,-0.4495392144,,,
16.7656250000,2,-0.5855864882,,,
16.7812500000,2,-0.6223602295,,,
16.7968750000,2,-0.5483551025,,,
16.8125000000,2,-0.3737030029,,,
16.8281250000,2,-0.1281891018,,,
16.8437500000,2,0.1641083062,,,
16.8593750000,2,0.4598846138,,,
16.8750000000,2,0.7219849229,,,
16.8906250000,2,0.9266967773,,,
16.9062500000,2,1.0691380501,,,
16.9218750000,2,1.1575160027,,,
16.9375000000,2,1.1965789795,,,
16.9531250000,2,1.1661380529,,,
16.9687500000,2,1.0434570313,,,
16.9843750000,2,0.8260344863,,,
17.0000000000,2,0.5638732910,,,
17.0156250000,2,0.3137817085,,,
17.0312500000,2,0.1295166016,,,
17.0468750000,2,0.0143890399,,,
17.0625000000,2,-0.0647735596,,,
17.0781250000,2,-0.1445160061,,,
17.0937500000,2,-0.2141266018,,,
17.1093750000,2,-0.2218323052,,,
17.1250000000,2,-0.1188201979,,,
17.1406250000,2,0.1086426005,,,
17.1562500000,2,0.4025726020,,,
17.1718750000,2,0.6755371094,,,
17.1875000000,2,0.8751373291,,,
17.2031250000,2,0.9958953857,,,
17.2187500000,2,1.0916600227,,,
17.2343750000,2,1.1985319853,,,
17.2500000000,2,1.2877659798,,,
17.2656250000,2,1.2627719641,,,
17.2812500000,2,1.0224759579,,,
17.2968750000,2,0.5531616211,,,
17.3125000000,2,-0.0527343787,,,
17.3281250000,2,-0.6322937012,,,
17.3437500000,2,-1.0435179472,,,
17.3593750000,2,-1.2392270565,,,
17.3750000000,2,-1.2839510441,,,
17.3906250000,2,-1.2889859676,,,
17.4062500000,2,-1.3312380314,,,
17.4218750000,2,-1.4177399874,,,
17.4375000000,2,-1.4945980310,,,
17.4531250000,2,-1.5146030188,,,
17.4687500000,2,-1.4794160128,,,
17.4843750000,2,-1.4494320154,,,
17.5000000000,2,-1.4768830538,,,
17.5156250000,2,-1.5672760010,,,
17.5312500000,2,-1.6407170296,,,
17.5468750000,2,-1.5673680305,,,
17.5625000000,2,-1.2529599667,,,
17.5781250000,2,-0.7076873779,,,
17.5937500000,2,-0.0446319617,,,
17.6093750000,2,0.5629730225,,,
17.6250000000,2,0.9618834853,,,
17.6406250000,2,1.0904389620,,,
17.6562500000,2,0.9765471816,,,
17.6718750000,2,0.7227324843,,,
17.6875000000,2,0.4409027100,,,
17.7031250000,2,0.2087859958,,,
17.7187500000,2,0.0600891113,,,
17.7343750000,2,0.0111084003,,,
17.7500000000,2,0.0708923265,,,
17.7656250000,2,0.2366027981,,,
17.7812500000,2,0.4829865098,,,
17.7968750000,2,0.7464293838,,,
17.8125000000,2,0.9412993789,,,
17.8281250000,2,0.9897307754,,,
17.8437500000,2,0.8536376953,,,
17.8593750000,2,0.5829467773,,,
17.8750000000,2,0.2551422119,,,
17.8906250000,2,-0.0401611291,,,
17.9062500000,2,-0.2419434041,,,
17.9218750000,2,-0.3209381104,,,
17.9375000000,2,-0.2788695991,,,
17.9531250000,2,-0.1174316034,,,
17.9687500000,2,0.1535034031,,,
17.9843750000,2,0.4934692085,,,
18.0000000000,2,0.8193054199,,,
18.0156250000,2,0.9997100830,,,
18.0312500000,2,0.9222717285,,,
18.0468750000,2,0.5534210205,,,
18.0625000000,2,0.0092315674,,,
18.0781250000,2,-0.5031738281,,,
18.0937500000,2,-0.7488098145,,,
18.1093750000,2,-0.6144257188,,,
18.1250000000,2,-0.1552277058,,,
18.1406250000,2,0.4326171875,,,
18.1562500000,2,0.8972167969,,,
18.1718750000,2,1.0724949837,,,
18.1875000000,2,0.9355468750,,,
18.2031250000,2,0.6072998047,,,
18.2187500000,2,0.2619476020,,,
18.2343750000,2,0.0398101807,,,
18.2500000000,2,-0.0280456506,,,
18.2656250000,2,-0.0246887207,,,
18.2812500000,2,-0.0849609375,,,
18.2968750000,2,-0.3063049018,,,
18.3125000000,2,-0.6768646240,,,
18.3281250000,2,-1.0789029598,,,
18.3437500000,2,-1.3417049646,,,
18.3593750000,2,-1.3139649630,,,
18.3750000000,2,-0.9492188096,,,
18.3906250000,2,-0.3477782905,,,
18.4062500000,2,0.2762908936,,,
18.4218750000,2,0.6932373047,,,
18.4375000000,2,0.7313385010,,,
18.4531250000,2,0.3666687012,,,
18.4687500000,2,-0.2731018066,,,
18.4843750000,2,-0.9726104736,,,
18.5000000000,2,-1.5219730139,,,
18.5156250000,2,-1.7884670496,,,
18.5312500000,2,-1.7435610294,,,
18.5468750000,2,-1.4710240364,,,
18.5625000000,2,-1.1057130098,,,
18.5781250000,2,-0.8008728027,,,
18.5937500000,2,-0.6501923203,,,
18.6093750000,2,-0.6640930176,,,
18.6250000000,2,-0.7597504258,,,
18.6406250000,2,-0.8037261963,,,
18.6562500000,2,-0.6966552734,,,
18.6718750000,2,-0.4362792969,,,
18.6875000000,2,-0.1193848029,,,
18.7031250000,2,0.1025390998,,,
18.7187500000,2,0.1248321980,,,
18.7343750000,2,-0.0359802209,,,
18.7500000000,2,-0.2519226074,,,
18.7656250000,2,-0.3625792861,,,
18.7812500000,2,-0.2803345025,,,
18.7968750000,2,-0.0357360803,,,
18.8125000000,2,0.2576599121,,,
18.8281250000,2,0.4922791123,,,
18.8437500000,2,0.6430817246,,,
18.8593750000,2,0.7578278184,,,
18.8750000000,2,0.9165344238,,,
18.8906250000,2,1.1149899960,,,
18.9062500000,2,1.2426450253,,,
18.9218750000,2,1.1725770235,,,
18.9375000000,2,0.8439025879,,,
18.9531250000,2,0.3283996880,,,
18.9687500000,2,-0.1738433987,,,
18.9843750000,2,-0.4617461860,,,
19.0000000000,2,-0.4381104112,,,
19.0156250000,2,-0.1564483941,,,
19.0312500000,2,0.2241210938,,,
19.0468750000,2,0.5500640869,,,
19.0625000000,2,0.7481384277,,,
19.0781250000,2,0.8296660781,,,
19.0937500000,2,0.8367003798,,,
19.1093750000,2,0.7978209853,,,
19.1250000000,2,0.7048950195,,,
19.1406250000,2,0.5530548096,,,
19.1562500000,2,0.3898315132,,,
19.1718750000,2,0.2917174995,,,
19.1875000000,2,0.3452759087,,,
19.2031250000,2,0.5660858154,,,
19.2187500000,2,0.8827515244,,,
19.2343750000,2,1.1617889404,,,
19.2500000000,2,1.3021240234,,,
19.2656250000,2,1.2767330408,,,
19.2812500000,2,1.1573790312,,,
19.2968750000,2,1.0486760139,,,
19.3125000000,2,1.0145109892,,,
19.3281250000,2,1.0374449492,,,
19.3437500000,2,1.0201419592,,,
19.3593750000,2,0.8499298096,,,
19.3750000000,2,0.4884338081,,,
19.3906250000,2,-0.0068511958,,,
19.4062500000,2,-0.5051574707,,,
19.4218750000,2,-0.8482360840,,,
19.4375000000,2,-0.9208527207,,,
19.4531250000,2,-0.7026824951,,,
19.4687500000,2,-0.2785797119,,,
19.4843750000,2,0.1899414063,,,
19.5000000000,2,0.5311890244,,,
19.5156250000,2,0.6293944716,,,
19.5312500000,2,0.4716187119,,,
19.5468750000,2,0.1519927979,,,
19.5625000000,2,-0.1924895942,,,
19.5781250000,2,-0.4414672852,,,
19.5937500000,2,-0.5574036241,,,
19.6093750000,2,-0.5794525146,,,
19.6250000000,2,-0.5930327773,,,
19.6406250000,2,-0.6633911133,,,
19.6562500000,2,-0.7906035781,,,
19.6718750000,2,-0.9226226807,,,
19.6875000000,2,-1.0010830164,,,
19.7031250000,2,-1.0213470459,,,
19.7187500000,2,-1.0233310461,,,
19.7343750000,2,-1.0984189510,,,
19.7500000000,2,-1.2966159582,,,
19.7656250000,2,-1.6038670540,,,
19.7812500000,2,-1.9188690186,,,
19.7968750000,2,-2.0964810848,,,
19.8125000000,2,-2.0144810677,,,
19.8281250000,2,-1.6212309599,,,
19.8437500000,2,-0.9817810059,,,
19.8593750000,2,-0.2349396050,,,
19.8750000000,2,0.4413299859,,,
19.8906250000,2,0.9070587158,,,
19.9062500000,2,1.0953979492,,,
19.9218750000,2,1.0363160372,,,
19.9375000000,2,0.8238220215,,,
19.9531250000,2,0.5887299180,,,
19.9687500000,2,0.4293364882,,,
19.9843750000,2,0.3806152046,,,
20.0000000000,2,0.4091187119,,,
20.0156250000,2,0.4380798042,,,
20.0312500000,2,0.3892211914,,,
20.0468750000,2,0.2272796929,,,
20.0625000000,2,-0.0265502892,,,
20.0781250000,2,-0.3209990859,,,
20.0937500000,2,-0.6027069092,,,
20.1093750000,2,-0.8411560059,,,
20.1250000000,2,-1.0400240421,,,
20.1406250000,2,-1.1867519617,,,
20.1562500000,2,-1.2507170439,,,
20.1718750000,2,-1.1555180550,,,
20.1875000000,2,-0.8343964219,,,
20.2031250000,2,-0.3166655898,,,
20.2187500000,2,0.2843323052,,,
20.2343750000,2,0.7720795274,,,
20.2500000000,2,0.9972382188,,,
20.2656250000,2,0.9258118272,,,
20.2812500000,2,0.6812285781,,,
20.2968750000,2,0.4673615098,,,
20.3125000000,2,0.4548797905,,,
20.3281250000,2,0.6963195801,,,
20.3437500000,2,1.0552059412,,,
20.3593750000,2,1.3147740364,,,
20.3750000000,2,1.2739870548,,,
20.3906250000,2,0.8825988770,,,
20.4062500000,2,0.2701720893,,,
20.4218750000,2,-0.3122710884,,,
20.4375000000,2,-0.6398925781,,,
20.4531250000,2,-0.6317291260,,,
20.4687500000,2,-0.3842009902,,,
20.4843750000,2,-0.1091308966,,,
20.5000000000,2,0.0033874509,,,
20.5156250000,2,-0.1058349982,,,
20.5312500000,2,-0.3376770020,,,
20.5468750000,2,-0.5253295898,,,
20.5625000000,2,-0.5577086806,,,
20.5781250000,2,-0.4576416016,,,
20.5937500000,2,-0.3470763862,,,
20.6093750000,2,-0.3289490044,,,
20.6250000000,2,-0.4086760879,,,
20.6406250000,2,-0.4631958008,,,
20.6562500000,2,-0.3752593994,,,
20.6718750000,2,-0.1299743950,,,
20.6875000000,2,0.1395720989,,,
20.7031250000,2,0.2361450046,,,
20.7187500000,2,0.0481872596,,,
20.7343750000,2,-0.3731536865,,,
20.7500000000,2,-0.8178864121,,,
20.7656250000,2,-1.0567020178,,,
20.7812500000,2,-0.9683532715,,,
20.7968750000,2,-0.6051483154,,,
20.8125000000,2,-0.1369933933,,,
20.8281250000,2,0.2656708062,,,
20.8437500000,2,0.5021973252,,,
20.8593750000,2,0.5827178955,,,
20.8750000000,2,0.5849152207,,,
20.8906250000,2,0.5878906250,,,
20.9062500000,2,0.6302947998,,,
20.9218750000,2,0.6942902207,,,
20.9375000000,2,0.7317199707,,,
20.9531250000,2,0.7038422227,,,
20.9687500000,2,0.5997313857,,,
20.9843750000,2,0.4537354112,,,
21.0000000000,2,0.3323974907,,,
21.0156250000,2,0.2835999131,,,
21.0312500000,2,0.3279877007,,,
21.0468750000,2,0.4465026855,,,
21.0625000000,2,0.5849761963,,,
21.0781250000,2,0.6845244765,,,
21.0937500000,2,0.7175292969,,,
21.1093750000,2,0.6930999756,,,
21.1250000000,2,0.6321868896,,,
21.1406250000,2,0.5677185059,,,
21.1562500000,2,0.5022125244,,,
21.1718750000,2,0.4185486138,,,
21.1875000000,2,0.2933959961,,,
21.2031250000,2,0.1190337986,,,
21.2187500000,2,-0.1044616997,,,
21.2343750000,2,-0.3544158936,,,
21.2500000000,2,-0.5999298096,,,
21.2656250000,2,-0.7960510254,,,
21.2812500000,2,-0.8833618164,,,
21.2968750000,2,-0.8429260254,,,
21.3125000000,2,-0.7089995742,,,
21.3281250000,2,-0.5759888291,,,
21.3437500000,2,-0.5462036133,,,
21.3593750000,2,-0.6640471816,,,
21.3750000000,2,-0.8730010986,,,
21.3906250000,2,-1.0499110222,,,
21.4062500000,2,-1.0614320040,,,
21.4218750000,2,-0.8467711806,,,
21.4375000000,2,-0.4723511040,,,
21.4531250000,2,-0.0857238770,,,
21.4687500000,2,0.1714935005,,,
21.4843750000,2,0.2346343994,,,
21.5000000000,2,0.1570435017,,,
21.5156250000,2,0.0399475098,,,
21.5312500000,2,-0.0274963398,,,
21.5468750000,2,-0.0290222205,,,
21.5625000000,2,-0.0096435547,,,
21.5781250000,2,-0.0337829590,,,
21.5937500000,2,-0.1035004035,,,
21.6093750000,2,-0.1575164944,,,
21.6250000000,2,-0.1126404032,,,
21.6406250000,2,0.0734710693,,,
21.6562500000,2,0.3497925103,,,
21.6718750000,2,0.6023406982,,,
21.6875000000,2,0.7217559814,,,
21.7031250000,2,0.6937866211,,,
21.7187500000,2,0.5980529785,,,
21.7343750000,2,0.5820159912,,,
21.7500000000,2,0.7446442246,,,
21.7656250000,2,1.0570830107,,,
21.7812500000,2,1.3892970085,,,
21.7968750000,2,1.5838929415,,,
21.8125000000,2,1.5547029972,,,
21.8281250000,2,1.3350520134,,,
21.8437500000,2,1.0358120203,,,
21.8593750000,2,0.7717896104,,,
21.8750000000,2,0.5938568115,,,
21.8906250000,2,0.4535521865,,,
21.9062500000,2,0.2686614990,,,
21.9218750000,2,-0.0040740971,,,
21.9375000000,2,-0.3426055908,,,
21.9531250000,2,-0.6776885986,,,
21.9687500000,2,-0.9140471816,,,
21.9843750000,2,-1.0014649630,,,
22.0000000000,2,-0.9492340088,,,
22.0156250000,2,-0.8195952773,,,
22.0312500000,2,-0.6948699951,,,
22.0468750000,2,-0.6340941787,,,
22.0625000000,2,-0.6686096191,,,
22.0781250000,2,-0.7727965713,,,
22.0937500000,2,-0.8728638291,,,
22.1093750000,2,-0.8912200928,,,
22.1250000000,2,-0.7613677979,,,
22.1406250000,2,-0.4768066108,,,
22.1562500000,2,-0.0998535231,,,
22.1718750000,2,0.2643280029,,,
22.1875000000,2,0.5095825195,,,
22.2031250000,2,0.5788726807,,,
22.2187500000,2,0.4833832085,,,
22.2343750000,2,0.2858276069,,,
22.2500000000,2,0.0814361572,,,
22.2656250000,2,-0.0590362512,,,
22.2812500000,2,-0.1139831990,,,
22.2968750000,2,-0.1096953973,,,
22.3125000000,2,-0.1130065992,,,
22.3281250000,2,-0.1692505032,,,
22.3437500000,2,-0.2921600044,,,
22.3593750000,2,-0.4410094917,,,
22.3750000000,2,-0.5399475098,,,
22.3906250000,2,-0.5351409912,,,
22.4062500000,2,-0.4165649116,,,
22.4218750000,2,-0.2156676948,,,
22.4375000000,2,0.0136718797,,,
22.4531250000,2,0.2331542969,,,
22.4687500000,2,0.4455414116,,,
22.4843750000,2,0.6815032959,,,
22.5000000000,2,0.9534760118,,,
22.5156250000,2,1.2331240177,,,
22.5312500000,2,1.4409480095,,,
22.5468750000,2,1.4997409582,,,
22.5625000000,2,1.3562619686,,,
22.5781250000,2,1.0231169462,,,
22.5937500000,2,0.5776824951,,,
22.6093750000,2,0.1222686991,,,
22.6250000000,2,-0.2455749959,,,
22.6406250000,2,-0.4569092095,,,
22.6562500000,2,-0.4982146919,,,
22.6718750000,2,-0.3943023980,,,
22.6875000000,2,-0.2072449028,,,
22.7031250000,2,-0.0062408452,,,
22.7187500000,2,0.1578063965,,,
22.7343750000,2,0.2442779988,,,
22.7500000000,2,0.2493439019,,,
22.7656250000,2,0.1827393025,,,
22.7812500000,2,0.0539245605,,,
22.7968750000,2,-0.1047974005,,,
22.8125000000,2,-0.2590484917,,,
22.8281250000,2,-0.3524323106,,,
22.8437500000,2,-0.3363494873,,,
22.8593750000,2,-0.2019501030,,,
22.8750000000,2,0.0196380597,,,
22.8906250000,2,0.2429962009,,,
22.9062500000,2,0.3604125977,,,
22.9218750000,2,0.3013457954,,,
22.9375000000,2,0.0491790809,,,
22.9531250000,2,-0.3502959907,,,
22.9687500000,2,-0.8094177246,,,
22.9843750000,2,-1.2329859734,,,
23.0000000000,2,-1.5451970100,,,
23.0156250000,2,-1.6871030331,,,
23.0312500000,2,-1.6266330481,,,
23.0468750000,2,-1.3645629883,,,
23.0625000000,2,-0.9394835830,,,
23.0781250000,2,-0.4260101020,,,
23.0937500000,2,0.0590209998,,,
23.1093750000,2,0.3917084038,,,
23.1250000000,2,0.4767456055,,,
23.1406250000,2,0.3086853027,,,
23.1562500000,2,-0.0346221887,,,
23.1718750000,2,-0.3918457031,,,
23.1875000000,2,-0.5961151123,,,
23.2031250000,2,-0.5322266221,,,
23.2187500000,2,-0.1863556057,,,
23.2343750000,2,0.3288879097,,,
23.2500000000,2,0.8430634141,,,
23.2656250000,2,1.2040560246,,,
23.2812500000,2,1.3289949894,,,
23.2968750000,2,1.2477569580,,,
23.3125000000,2,1.0548549891,,,
23.3281250000,2,0.8506926894,,,
23.3437500000,2,0.7042847276,,,
23.3593750000,2,0.6145629883,,,
23.3750000000,2,0.5434874892,,,
23.3906250000,2,0.4490509033,,,
23.4062500000,2,0.2969818115,,,
23.4218750000,2,0.0892028809,,,
23.4375000000,2,-0.1627350003,,,
23.4531250000,2,-0.4416503906,,,
23.4687500000,2,-0.7208251953,,,
23.4843750000,2,-0.9777678847,,,
23.5000000000,2,-1.1674799919,,,
23.5156250000,2,-1.2481540442,,,
23.5312500000,2,-1.1727910042,,,
23.5468750000,2,-0.9429321289,,,
23.5625000000,2,-0.5990447998,,,
23.5781250000,2,-0.2092438042,,,
23.5937500000,2,0.1560516059,,,
23.6093750000,2,0.4505462945,,,
23.6250000000,2,0.6561890244,,,
23.6406250000,2,0.7844086289,,,
23.6562500000,2,0.8197174072,,,
23.6718750000,2,0.7380065918,,,
23.6875000000,2,0.4949798882,,,
23.7031250000,2,0.0892028809,,,
23.7187500000,2,-0.4120331109,,,
23.7343750000,2,-0.8748322129,,,
23.7500000000,2,-1.1475980282,,,
23.7656250000,2,-1.1349949837,,,
23.7812500000,2,-0.8524780273,,,
23.7968750000,2,-0.4273223877,,,
23.8125000000,2,-0.0339355506,,,
23.8281250000,2,0.1921844035,,,
23.8437500000,2,0.2038269043,,,
23.8593750000,2,0.0443420410,,,
23.8750000000,2,-0.1884002984,,,
23.8906250000,2,-0.3778381050,,,
23.9062500000,2,-0.4589233100,,,
23.9218750000,2,-0.3921813965,,,
23.9375000000,2,-0.1905364990,,,
23.9531250000,2,0.1013031006,,,
23.9687500000,2,0.4248046875,,,
23.9843750000,2,0.7144774795,,,
24.0000000000,3,0.9202880859,,,
24.0156250000,3,1.0155639648,,,
24.0312500000,3,1.0007170439,,,
24.0468750000,3,0.9007874131,,,
24.0625000000,3,0.7538146973,,,
24.0781250000,3,0.6044769287,,,
24.0937500000,3,0.4918060005,,,
24.1093750000,3,0.4244689941,,,
24.1250000000,3,0.3751831055,,,
24.1406250000,3,0.3096312881,,,
24.1562500000,3,0.1811065972,,,
24.1718750000,3,-0.0017547610,,,
24.1875000000,3,-0.1821289063,,,
24.2031250000,3,-0.2590636909,,,
24.2187500000,3,-0.1518554986,,,
24.2343750000,3,0.1457671970,,,
24.2500000000,3,0.5188140869,,,
24.2656250000,3,0.7838897705,,,
24.2812500000,3,0.7852935791,,,
24.2968750000,3,0.4857025146,,,
24.3125000000,3,0.0129089402,,,
24.3281250000,3,-0.4143523872,,,
24.3437500000,3,-0.6074370742,,,
24.3593750000,3,-0.5223082900,,,
24.3750000000,3,-0.2711791992,,,
24.3906250000,3,-0.0357818604,,,
24.4062500000,3,0.0366058312,,,
24.4218750000,3,-0.0448150598,,,
24.4375000000,3,-0.1505737007,,,
24.4531250000,3,-0.1323699951,,,
24.4687500000,3,0.0652923584,,,
24.4843750000,3,0.3434601128,,,
24.5000000000,3,0.4964751899,,,
24.5156250000,3,0.3737030029,,,
24.5312500000,3,-0.0295257606,,,
24.5468750000,3,-0.5506743789,,,
24.5625000000,3,-0.9482880235,,,
24.5781250000,3,-1.0521550179,,,
24.5937500000,3,-0.8608856201,,,
24.6093750000,3,-0.5317841172,,,
24.6250000000,3,-0.2758635879,,,
24.6406250000,3,-0.2303162068,,,
24.6562500000,3,-0.4074248970,,,
24.6718750000,3,-0.7058411241,,,
24.6875000000,3,-0.9892119765,,,
24.7031250000,3,-1.1485749483,,,
24.7187500000,3,-1.1377259493,,,
24.7343750000,3,-0.9537963867,,,
24.7500000000,3,-0.6265106201,,,
24.7656250000,3,-0.1889647990,,,
24.7812500000,3,0.2953796089,,,
24.7968750000,3,0.7370300293,,,
24.8125000000,3,1.0582120419,,,
24.8281250000,3,1.1934809685,,,
24.8437500000,3,1.1380310059,,,
24.8593750000,3,0.9330139160,,,
24.8750000000,3,0.6659697890,,,
24.8906250000,3,0.4164581001,,,
24.9062500000,3,0.2472687066,,,
24.9218750000,3,0.1885222942,,,
24.9375000000,3,0.2395630032,,,
24.9531250000,3,0.3557280898,,,
24.9687500000,3,0.4596863091,,,
24.9843750000,3,0.4863280952,,,
25.0000000000,3,0.3795166016,,,
25.0156250000,3,0.1439362019,,,
25.0312500000,3,-0.1642760932,,,
25.0468750000,3,-0.4645538032,,,
25.0625000000,3,-0.6903839111,,,
25.0781250000,3,-0.8038635254,,,
25.0937500000,3,-0.7968903184,,,
25.1093750000,3,-0.6913452148,,,
25.1250000000,3,-0.5080872178,,,
25.1406250000,3,-0.2896729112,,,
25.1562500000,3,-0.0950622633,,,
25.1718750000,3,0.0092163086,,,
25.1875000000,3,-0.0172882099,,,
25.2031250000,3,-0.1486358941,,,
25.2187500000,3,-0.3077239990,,,
25.2343750000,3,-0.3903197944,,,
25.2500000000,3,-0.3326111138,,,
25.2656250000,3,-0.1407776028,,,
25.2812500000,3,0.0934448168,,,
25.2968750000,3,0.2493744045,,,
25.3125000000,3,0.2451324016,,,
25.3281250000,3,0.0769805908,,,
25.3437500000,3,-0.1971130073,,,
25.3593750000,3,-0.4944916070,,,
25.3750000000,3,-0.7579345703,,,
25.3906250000,3,-0.9745482802,,,
25.4062500000,3,-1.1353609562,,,
25.4218750000,3,-1.2265169621,,,
25.4375000000,3,-1.1969599724,,,
25.4531250000,3,-1.0031130314,,,
25.4687500000,3,-0.6502686143,,,
25.4843750000,3,-0.2104492038,,,
25.5000000000,3,0.1973724067,,,
25.5156250000,3,0.4717864990,,,
25.5312500000,3,0.5796204209,,,
25.5468750000,3,0.5838776231,,,
25.5625000000,3,0.5764312744,,,
25.5781250000,3,0.6191101074,,,
25.5937500000,3,0.7061768174,,,
25.6093750000,3,0.7558745742,,,
25.6250000000,3,0.6895294189,,,
25.6406250000,3,0.4830932915,,,
25.6562500000,3,0.1938323975,,,
25.6718750000,3,-0.0619354211,,,
25.6875000000,3,-0.1922760010,,,
25.7031250000,3,-0.1726531982,,,
25.7187500000,3,-0.0482025109,,,
25.7343750000,3,0.0954742432,,,
25.7500000000,3,0.1932220012,,,
25.7656250000,3,0.2447967976,,,
25.7812500000,3,0.2874602973,,,
25.7968750000,3,0.3567200005,,,
25.8125000000,3,0.4565277100,,,
25.8281250000,3,0.5553131104,,,
25.8437500000,3,0.5841522217,,,
25.8593750000,3,0.5004578233,,,
25.8750000000,3,0.3083648980,,,
25.8906250000,3,0.0518951416,,,
25.9062500000,3,-0.2102966011,,,
25.9218750000,3,-0.4428710938,,,
25.9375000000,3,-0.6501923203,,,
25.9531250000,3,-0.8639525771,,,
25.9687500000,3,-1.0770720243,,,
25.9843750000,3,-1.2393950224,,,
26.0000000000,3,-1.2590179443,,,
26.0156250000,3,-1.0639799833,,,
26.0312500000,3,-0.6649169922,,,
26.0468750000,3,-0.1622467041,,,
26.0625000000,3,0.2872467041,,,
26.0781250000,3,0.5448760986,,,
26.0937500000,3,0.5695496202,,,
26.1093750000,3,0.4331054986,,,
26.1250000000,3,0.2850036919,,,
26.1406250000,3,0.2427978963,,,
26.1562500000,3,0.3461760879,,,
26.1718750000,3,0.5308228135,,,
26.1875000000,3,0.6878203750,,,
26.2031250000,3,0.7369995117,,,
26.2187500000,3,0.6842498779,,,
26.2343750000,3,0.6113585830,,,
26.2500000000,3,0.6119843125,,,
26.2656250000,3,0.7284697890,,,
26.2812500000,3,0.9213256836,,,
26.2968750000,3,1.0620119572,,,
26.3125000000,3,1.0229489803,,,
26.3281250000,3,0.7557067871,,,
26.3437500000,3,0.3220367134,,,
26.3593750000,3,-0.1253661960,,,
26.3750000000,3,-0.4176940918,,,
26.3906250000,3,-0.4675751030,,,
26.4062500000,3,-0.3191832900,,,
26.4218750000,3,-0.0931243896,,,
26.4375000000,3,0.0852356032,,,
26.4531250000,3,0.1590270996,,,
26.4687500000,3,0.1669922024,,,
26.4843750000,3,0.1991425008,,,
26.5000000000,3,0.3314056098,,,
26.5156250000,3,0.5598297119,,,
26.5312500000,3,0.7958220840,,,
26.5468750000,3,0.9233704209,,,
26.5625000000,3,0.8571166992,,,
26.5781250000,3,0.6208037734,,,
26.5937500000,3,0.3321380913,,,
26.6093750000,3,0.1433410943,,,
26.6250000000,3,0.1658325046,,,
26.6406250000,3,0.3868713081,,,
26.6562500000,3,0.6726989746,,,
26.6718750000,3,0.8389434814,,,
26.6875000000,3,0.7451019287,,,
26.7031250000,3,0.3570404053,,,
26.7187500000,3,-0.2333374023,,,
26.7343750000,3,-0.8595427871,,,
26.7500000000,3,-1.3619379997,,,
26.7656250000,3,-1.6577910185,,,
26.7812500000,3,-1.7366939783,,,
26.7968750000,3,-1.6499179602,,,
26.8125000000,3,-1.4539639950,,,
26.8281250000,3,-1.1765140295,,,
26.8437500000,3,-0.8725128174,,,
26.8593750000,3,-0.6231536865,,,
26.8750000000,3,-0.5137329102,,,
26.8906250000,3,-0.5953978896,,,
26.9062500000,3,-0.8265532851,,,
26.9218750000,3,-1.0686949492,,,
26.9375000000,3,-1.1499329805,,,
26.9531250000,3,-0.9567871094,,,
26.9687500000,3,-0.4896393120,,,
26.9843750000,3,0.1325072944,,,
27.0000000000,3,0.7337645888,,,
27.0156250000,3,1.1644899845,,,
27.0312500000,3,1.3461910486,,,
27.0468750000,3,1.2903139591,,,
27.0625000000,3,1.0670009851,,,
27.0781250000,3,0.7665253282,,,
27.0937500000,3,0.4842072129,,,
27.1093750000,3,0.2912903130,,,
27.1250000000,3,0.2257384956,,,
27.1406250000,3,0.2804413140,,,
27.1562500000,3,0.3818817139,,,
27.1718750000,3,0.4315947890,,,
27.1875000000,3,0.3613434136,,,
27.2031250000,3,0.1863097996,,,
27.2187500000,3,-0.0059204102,,,
27.2343750000,3,-0.1005859002,,,
27.2500000000,3,-0.0417327918,,,
27.2656250000,3,0.1098785028,,,
27.2812500000,3,0.2129821926,,,
27.2968750000,3,0.1335906982,,,
27.3125000000,3,-0.1697387993,,,
27.3281250000,3,-0.5729675293,,,
27.3437500000,3,-0.8800048828,,,
27.3593750000,3,-0.9308776855,,,
27.3750000000,3,-0.6988220215,,,
27.3906250000,3,-0.3232421875,,,
27.4062500000,3,-0.0077056880,,,
27.4218750000,3,0.0949249268,,,
27.4375000000,3,-0.0224304199,,,
27.4531250000,3,-0.2413634956,,,
27.4687500000,3,-0.3990783989,,,
27.4843750000,3,-0.3943938911,,,
27.5000000000,3,-0.2510986030,,,
27.5156250000,3,-0.0791625977,,,
27.5312500000,3,0.0051116939,,,
27.5468750000,3,-0.0465698205,,,
27.5625000000,3,-0.1811676025,,,
27.5781250000,3,-0.2932434082,,,
27.5937500000,3,-0.2750853896,,,
27.6093750000,3,-0.0990142822,,,
27.6250000000,3,0.1804046929,,,
27.6406250000,3,0.4588469863,,,
27.6562500000,3,0.6512299180,,,
27.6718750000,3,0.7307128906,,,
27.6875000000,3,0.7270659804,,,
27.7031250000,3,0.6998291016,,,
27.7187500000,3,0.6952362061,,,
27.7343750000,3,0.7229918838,,,
27.7500000000,3,0.7789763808,,,
27.7656250000,3,0.8492279053,,,
27.7812500000,3,0.9418792725,,,
27.7968750000,3,1.0810999870,,,
27.8125000000,3,1.2543330193,,,
27.8281250000,3,1.4071810246,,,
27.8437500000,3,1.4477540255,,,
27.8593750000,3,1.3049930334,,,
27.8750000000,3,0.9691162109,,,
27.8906250000,3,0.5222014785,,,
27.9062500000,3,0.0990295410,,,
27.9218750000,3,-0.1874389946,,,
27.9375000000,3,-0.2981109917,,,
27.9531250000,3,-0.2849121094,,,
27.9687500000,3,-0.2487487942,,,
27.9843750000,3,-0.2706908882,,,
28.0000000000,3,-0.3776549995,,,
28.0156250000,3,-0.5347595215,,,
28.0312500000,3,-0.6753997803,,,
28.0468750000,3,-0.7428740859,,,
28.0625000000,3,-0.7145844102,,,
28.0781250000,3,-0.5998535156,,,
28.0937500000,3,-0.4319153130,,,
28.1093750000,3,-0.2463683933,,,
28.1250000000,3,-0.0668945313,,,
28.1406250000,3,0.0705108568,,,
28.1562500000,3,0.1251678020,,,
28.1718750000,3,0.0413360596,,,
28.1875000000,3,-0.2095794976,,,
28.2031250000,3,-0.6064301133,,,
28.2187500000,3,-1.0583800077,,,
28.2343750000,3,-1.4355469942,,,
28.2500000000,3,-1.6072080135,,,
28.2656250000,3,-1.5185389519,,,
28.2812500000,3,-1.2219539881,,,
28.2968750000,3,-0.8366088867,,,
28.3125000000,3,-0.4909515083,,,
28.3281250000,3,-0.2622374892,,,
28.3437500000,3,-0.1540070027,,,
28.3593750000,3,-0.1048583984,,,
28.3750000000,3,-0.0701904297,,,
28.3906250000,3,-0.0275116004,,,
28.4062500000,3,-0.0054626460,,,
28.4218750000,3,-0.0389099084,,,
28.4375000000,3,-0.1332397014,,,
28.4531250000,3,-0.2574614882,,,
28.4687500000,3,-0.3715057075,,,
28.4843750000,3,-0.4472045898,,,
28.5000000000,3,-0.4859772027,,,
28.5156250000,3,-0.4976348877,,,
28.5312500000,3,-0.4757690132,,,
28.5468750000,3,-0.4054413140,,,
28.5625000000,3,-0.2712402046,,,
28.5781250000,3,-0.0637512207,,,
28.5937500000,3,0.1797637939,,,
28.6093750000,3,0.3879851997,,,
28.6250000000,3,0.4787597954,,,
28.6406250000,3,0.4027405083,,,
28.6562500000,3,0.1868285984,,,
28.6718750000,3,-0.0797271729,,,
28.6875000000,3,-0.2896729112,,,
28.7031250000,3,-0.3622741997,,,
28.7187500000,3,-0.3126983941,,,
28.7343750000,3,-0.2243347019,,,
28.7500000000,3,-0.1892241985,,,
28.7656250000,3,-0.2421569973,,,
28.7812500000,3,-0.3353270888,,,
28.7968750000,3,-0.3791351020,,,
28.8125000000,3,-0.3066559136,,,
28.8281250000,3,-0.1425628960,,,
28.8437500000,3,0.0179443397,,,
28.8593750000,3,0.0835266113,,,
28.8750000000,3,0.0428924598,,,
28.8906250000,3,-0.0086669922,,,
28.9062500000,3,0.0602416992,,,
28.9218750000,3,0.3028869927,,,
28.9375000000,3,0.6497344971,,,
28.9531250000,3,0.9433593750,,,
28.9687500000,3,1.0488430262,,,
28.9843750000,3,0.9331511855,,,
29.0000000000,3,0.6634827256,,,
29.0156250000,3,0.3580321968,,,
29.0312500000,3,0.0880279467,,,
29.0468750000,3,-0.1451873928,,,
29.0625000000,3,-0.3854523003,,,
29.0781250000,3,-0.6354827881,,,
29.0937500000,3,-0.8244019151,,,
29.1093750000,3,-0.8319550157,,,
29.1250000000,3,-0.5668029785,,,
29.1406250000,3,-0.0386810303,,,
29.1562500000,3,0.6320037842,,,
29.1718750000,3,1.2655789852,,,
29.1875000000,3,1.7000889778,,,
29.2031250000,3,1.8569790125,,,
29.2187500000,3,1.7303309441,,,
29.2343750000,3,1.3838039637,,,
29.2500000000,3,0.9152678847,,,
29.2656250000,3,0.4286651909,,,
29.2812500000,3,0.0146026602,,,
29.2968750000,3,-0.2752686143,,,
29.3125000000,3,-0.4282378852,,,
29.3281250000,3,-0.4601440132,,,
29.3437500000,3,-0.3959197998,,,
29.3593750000,3,-0.2673492134,,,
29.3750000000,3,-0.1092377007,,,
29.3906250000,3,0.0224609394,,,
29.4062500000,3,0.0806884766,,,
29.4218750000,3,0.0246429406,,,
29.4375000000,3,-0.1343993992,,,
29.4531250000,3,-0.3437041938,,,
29.4687500000,3,-0.5066071153,,,
29.4843750000,3,-0.5226287842,,,
29.5000000000,3,-0.3463135064,,,
29.5156250000,3,0.0085601807,,,
29.5312500000,3,0.4552307129,,,
29.5468750000,3,0.8798217773,,,
29.5625000000,3,1.1800539494,,,
29.5781250000,3,1.2963409424,,,
29.5937500000,3,1.2237399817,,,
29.6093750000,3,0.9900969863,,,
29.6250000000,3,0.6513214111,,,
29.6406250000,3,0.2648163140,,,
29.6562500000,3,-0.1219940037,,,
29.6718750000,3,-0.4832001030,,,
29.6875000000,3,-0.8113861084,,,
29.7031250000,3,-1.1136469841,,,
29.7187500000,3,-1.3873289824,,,
29.7343750000,3,-1.6215519905,,,
29.7500000000,3,-1.7776030302,,,
29.7656250000,3,-1.8272249699,,,
29.7812500000,3,-1.7684630156,,,
29.7968750000,3,-1.6248630285,,,
29.8125000000,3,-1.4456789494,,,
29.8281250000,3,-1.2676090002,,,
29.8437500000,3,-1.1130830050,,,
29.8593750000,3,-0.9647064209,,,
29.8750000000,3,-0.7961121202,,,
29.8906250000,3,-0.5783690810,,,
29.9062500000,3,-0.2946014106,,,
29.9218750000,3,0.0401611291,,,
29.9375000000,3,0.4015044868,,,
29.9531250000,3,0.7433472276,,,
29.9687500000,3,1.0059969425,,,
29.9843750000,3,1.1321870089,,,
30.0000000000,3,1.0782779455,,,
30.0156250000,3,0.8324584961,,,
30.0312500000,3,0.4500274956,,,
30.0468750000,3,0.0413208008,,,
30.0625000000,3,-0.2520447075,,,
30.0781250000,3,-0.3262329102,,,
30.0937500000,3,-0.1726226956,,,
30.1093750000,3,0.1213836968,,,
30.1250000000,3,0.4295958877,,,
30.1406250000,3,0.6638184190,,,
30.1562500000,3,0.8062285781,,,
30.1718750000,3,0.8917999268,,,
30.1875000000,3,0.9480286241,,,
30.2031250000,3,0.9367218018,,,
30.2187500000,3,0.7910156250,,,
30.2343750000,3,0.4436188042,,,
30.2500000000,3,-0.0464782715,,,
30.2656250000,3,-0.5009155273,,,
30.2812500000,3,-0.6782990098,,,
30.2968750000,3,-0.4383086860,,,
30.3125000000,3,0.1648865044,,,
30.3281250000,3,0.8797913194,,,
30.3437500000,3,1.3760069609,,,
30.3593750000,3,1.4404749870,,,
30.3750000000,3,1.0617680550,,,
30.3906250000,3,0.4427947998,,,
30.4062500000,3,-0.1416472942,,,
30.4218750000,3,-0.4947662055,,,
30.4375000000,3,-0.5843201280,,,
30.4531250000,3,-0.5167542100,,,
30.4687500000,3,-0.4381560981,,,
30.4843750000,3,-0.4343109131,,,
30.5000000000,3,-0.4939880073,,,
30.5156250000,3,-0.5419921875,,,
30.5312500000,3,-0.5116577148,,,
30.5468750000,3,-0.3912200928,,,
30.5625000000,3,-0.2275085002,,,
30.5781250000,3,-0.0646820068,,,
30.5937500000,3,0.0839996263,,,
30.6093750000,3,0.2302398980,,,
30.6250000000,3,0.3815765083,,,
30.6406250000,3,0.5028533936,,,
30.6562500000,3,0.5179595947,,,
30.6718750000,3,0.3591766059,,,
30.6875000000,3,0.0280303992,,,
30.7031250000,3,-0.3865813911,,,
30.7187500000,3,-0.7379912734,,,
30.7343750000,3,-0.9055175781,,,
30.7500000000,3,-0.8532410264,,,
30.7656250000,3,-0.6621398926,,,
30.7812500000,3,-0.4626159966,,,
30.7968750000,3,-0.3431549072,,,
30.8125000000,3,-0.2950896919,,,
30.8281250000,3,-0.2481383979,,,
30.8437500000,3,-0.1071930006,,,
30.8593750000,3,0.1546325982,,,
30.8750000000,3,0.4677124023,,,
30.8906250000,3,0.7145690918,,,
30.9062500000,3,0.7986145020,,,
30.9218750000,3,0.7274169922,,,
30.9375000000,3,0.6010131836,,,
30.9531250000,3,0.5397034287,,,
30.9687500000,3,0.6074218750,,,
30.9843750000,3,0.7691345215,,,
31.0000000000,3,0.9089965820,,,
31.0156250000,3,0.8955078125,,,
31.0312500000,3,0.6626586914,,,
31.0468750000,3,0.2637481987,,,
31.0625000000,3,-0.1748047024,,,
31.0781250000,3,-0.4893493950,,,
31.0937500000,3,-0.5951079726,,,
31.1093750000,3,-0.5110626221,,,
31.1250000000,3,-0.3384093940,,,
31.1406250000,3,-0.2085570991,,,
31.1562500000,3,-0.1910399944,,,
31.1718750000,3,-0.2640686035,,,
31.1875000000,3,-0.3561553955,,,
31.2031250000,3,-0.3807525933,,,
31.2187500000,3,-0.3142853081,,,
31.2343750000,3,-0.1897124946,,,
31.2500000000,3,-0.0698242188,,,
31.2656250000,3,0.0164337195,,,
31.2812500000,3,0.0583648682,,,
31.2968750000,3,0.0802612305,,,
31.3125000000,3,0.1087189019,,,
31.3281250000,3,0.1307678074,,,
31.3437500000,3,0.1213074028,,,
31.3593750000,3,0.0765075684,,,
31.3750000000,3,0.0317230187,,,
31.3906250000,3,0.0576782189,,,
31.4062500000,3,0.2071074992,,,
31.4218750000,3,0.4729613960,,,
31.4375000000,3,0.7817382813,,,
31.4531250000,3,1.0251159668,,,
31.4687500000,3,1.1225739717,,,
31.4843750000,3,1.0530090332,,,
31.5000000000,3,0.8665924072,,,
31.5156250000,3,0.6352996826,,,
31.5312500000,3,0.4038085938,,,
31.5468750000,3,0.1757201999,,,
31.5625000000,3,-0.0794982910,,,
31.5781250000,3,-0.3489837945,,,
31.5937500000,3,-0.5962830186,,,
31.6093750000,3,-0.7494506836,,,
31.6250000000,3,-0.7618560791,,,
31.6406250000,3,-0.6716613770,,,
31.6562500000,3,-0.5690917969,,,
31.6718750000,3,-0.5628815293,,,
31.6875000000,3,-0.7023621202,,,
31.7031250000,3,-0.9462128282,,,
31.7187500000,3,-1.1829530001,,,
31.7343750000,3,-1.2865450382,,,
31.7500000000,3,-1.1912080050,,,
31.7656250000,3,-0.8894042969,,,
31.7812500000,3,-0.4519042969,,,
31.7968750000,3,0.0298309308,,,
31.8125000000,3,0.4645386040,,,
31.8281250000,3,0.7926940918,,,
31.8437500000,3,0.9718474746,,,
31.8593750000,3,0.9972229004,,,
31.8750000000,3,0.9058380127,,,
31.8906250000,3,0.7521820068,,,
31.9062500000,3,0.5958557129,,,
31.9218750000,3,0.4776763916,,,
31.9375000000,3,0.3926391900,,,
31.9531250000,3,0.3044585884,,,
31.9687500000,3,0.2044373006,,,
31.9843750000,3,0.1054534987,,,
32.0000000000,4,0.0382537805,,,
32.0156250000,4,0.0182037391,,,
32.0312500000,4,0.0188903809,,,
32.0468750000,4,-0.0198211707,,,
32.0625000000,4,-0.1411437988,,,
32.0781250000,4,-0.3386077881,,,
32.0937500000,4,-0.5680541992,,,
32.1093750000,4,-0.7526854873,,,
32.1250000000,4,-0.8329926133,,,
32.1406250000,4,-0.7869263291,,,
32.1562500000,4,-0.6239470840,,,
32.1718750000,4,-0.4062500000,,,
32.1875000000,4,-0.2198486030,,,
32.2031250000,4,-0.1581726074,,,
32.2187500000,4,-0.2764739990,,,
32.2343750000,4,-0.5669097900,,,
32.2500000000,4,-0.9400634766,,,
32.2656250000,4,-1.2498320341,,,
32.2812500000,4,-1.3579250574,,,
32.2968750000,4,-1.1967929602,,,
32.3125000000,4,-0.8035889268,,,
32.3281250000,4,-0.2993774116,,,
32.3437500000,4,0.1632232964,,,
32.3593750000,4,0.4611510932,,,
32.3750000000,4,0.5542755127,,,
32.3906250000,4,0.4562073052,,,
32.4062500000,4,0.2221679986,,,
32.4218750000,4,-0.0694122314,,,
32.4375000000,4,-0.3511505127,,,
32.4531250000,4,-0.5544738770,,,
32.4687500000,4,-0.6188507080,,,
32.4843750000,4,-0.5086823106,,,
32.5000000000,4,-0.2288054973,,,
32.5156250000,4,0.1911011040,,,
32.5312500000,4,0.6826934814,,,
32.5468750000,4,1.1659389734,,,
32.5625000000,4,1.5474090576,,,
32.5781250000,4,1.7468719482,,,
32.5937500000,4,1.7038880587,,,
32.6093750000,4,1.4114689827,,,
32.6250000000,4,0.9244689941,,,
32.6406250000,4,0.3571014106,,,
32.6562500000,4,-0.1524048001,,,
32.6718750000,4,-0.4909209907,,,
32.6875000000,4,-0.6084899902,,,
32.7031250000,4,-0.5141906738,,,
32.7187500000,4,-0.2707520127,,,
32.7343750000,4,0.0347442590,,,
32.7500000000,4,0.3238677979,,,
32.7656250000,4,0.5294951797,,,
32.7812500000,4,0.6166840196,,,
32.7968750000,4,0.5908660889,,,
32.8125000000,4,0.5028380752,,,
32.8281250000,4,0.4257659912,,,
32.8437500000,4,0.4348297119,,,
32.8593750000,4,0.5678864121,,,
32.8750000000,4,0.7947540283,,,
32.8906250000,4,1.0182499886,,,
32.9062500000,4,1.1124110222,,,
32.9218750000,4,0.9988402724,,,
32.9375000000,4,0.6717681885,,,
32.9531250000,4,0.2305603027,,,
32.9687500000,4,-0.1874237061,,,
32.9843750000,4,-0.4772490859,,,
33.0000000000,4,-0.6091765761,,,
33.0156250000,4,-0.6318054199,,,
33.0312500000,4,-0.6225739121,,,
33.0468750000,4,-0.6459655762,,,
33.0625000000,4,-0.7183837891,,,
33.0781250000,4,-0.8175354004,,,
33.0937500000,4,-0.9010009766,,,
33.1093750000,4,-0.9275513291,,,
33.1250000000,4,-0.8834381104,,,
33.1406250000,4,-0.7767791748,,,
33.1562500000,4,-0.6308441162,,,
33.1718750000,4,-0.4863280952,,,
33.1875000000,4,-0.3934783936,,,
33.2031250000,4,-0.3795166016,,,
33.2187500000,4,-0.4466553032,,,
33.2343750000,4,-0.5581207275,,,
33.2500000000,4,-0.6548156738,,,
33.2656250000,4,-0.6775665283,,,
33.2812500000,4,-0.6027526855,,,
33.2968750000,4,-0.4622040093,,,
33.3125000000,4,-0.3255156875,,,
33.3281250000,4,-0.2789612114,,,
33.3437500000,4,-0.3715972900,,,
33.3593750000,4,-0.5835266113,,,
33.3750000000,4,-0.8335875869,,,
33.3906250000,4,-0.9986420274,,,
33.4062500000,4,-0.9820861816,,,
33.4218750000,4,-0.7519072890,,,
33.4375000000,4,-0.3785248101,,,
33.4531250000,4,-0.0027160640,,,
33.4687500000,4,0.2410431057,,,
33.4843750000,4,0.2867431939,,,
33.5000000000,4,0.1891327053,,,
33.5156250000,4,0.0819244385,,,
33.5312500000,4,0.1204529032,,,
33.5468750000,4,0.3538512886,,,
33.5625000000,4,0.7188416123,,,
33.5781250000,4,1.0578919649,,,
33.5937500000,4,1.2221529484,,,
33.6093750000,4,1.1694029570,,,
33.6250000000,4,0.9745178223,,,
33.6406250000,4,0.7812957764,,,
33.6562500000,4,0.7263031006,,,
33.6718750000,4,0.8580017090,,,
33.6875000000,4,1.1196140051,,,
33.7031250000,4,1.3931879997,,,
33.7187500000,4,1.5641330481,,,
33.7343750000,4,1.5648039579,,,
33.7500000000,4,1.3896640539,,,
33.7656250000,4,1.0830990076,,,
33.7812500000,4,0.6952971816,,,
33.7968750000,4,0.2621001899,,,
33.8125000000,4,-0.1767425984,,,
33.8281250000,4,-0.5607758164,,,
33.8437500000,4,-0.8068541884,,,
33.8593750000,4,-0.8258666992,,,
33.8750000000,4,-0.6020355225,,,
33.8906250000,4,-0.1970520020,,,
33.9062500000,4,0.2294311970,,,
33.9218750000,4,0.4931640923,,,
33.9375000000,4,0.4908142090,,,
33.9531250000,4,0.2343444973,,,
33.9687500000,4,-0.1640930027,,,
33.9843750000,4,-0.5604401231,,,
34.0000000000,4,-0.8711547852,,,
34.0156250000,4,-1.1161350012,,,
34.0312500000,4,-1.3659820557,,,
34.0468750000,4,-1.6631159782,,,
34.0625000000,4,-1.9394229650,,,
34.0781250000,4,-2.0543210506,,,
34.0937500000,4,-1.8771209717,,,
34.1093750000,4,-1.3876650333,,,
34.1250000000,4,-0.7258148193,,,
34.1406250000,4,-0.1269530952,,,
34.1562500000,4,0.2168121040,,,
34.1718750000,4,0.2584533989,,,
34.1875000000,4,0.0906219482,,,
34.2031250000,4,-0.1300812066,,,
34.2187500000,4,-0.2703093886,,,
34.2343750000,4,-0.3108977973,,,
34.2500000000,4,-0.2962645888,,,
34.2656250000,4,-0.2934722900,,,
34.2812500000,4,-0.3311919868,,,
34.2968750000,4,-0.4026488960,,,
34.3125000000,4,-0.4866180122,,,
34.3281250000,4,-0.5704802871,,,
34.3437500000,4,-0.6719055176,,,
34.3593750000,4,-0.7923889160,,,
34.3750000000,4,-0.9341278076,,,
34.3906250000,4,-1.0440829992,,,
34.4062500000,4,-1.0538790226,,,
34.4218750000,4,-0.9037628174,,,
34.4375000000,4,-0.5671386719,,,
34.4531250000,4,-0.0637817383,,,
34.4687500000,4,0.5300598145,,,
34.4843750000,4,1.0968929529,,,
34.5000000000,4,1.5196529627,,,
34.5156250000,4,1.7128449678,,,
34.5312500000,4,1.6654969454,,,
34.5468750000,4,1.4523930550,,,
34.5625000000,4,1.1997220516,,,
34.5781250000,4,1.0201870203,,,
34.5937500000,4,0.9338989258,,,
34.6093750000,4,0.8683472276,,,
34.6250000000,4,0.7285614014,,,
34.6406250000,4,0.4607543945,,,
34.6562500000,4,0.1099243015,,,
34.6718750000,4,-0.1900023967,,,
34.6875000000,4,-0.3106079102,,,
34.7031250000,4,-0.2077026069,,,
34.7187500000,4,0.0621337891,,,
34.7343750000,4,0.3524627984,,,
34.7500000000,4,0.5306702256,,,
34.7656250000,4,0.5155640244,,,
34.7812500000,4,0.3292694092,,,
34.7968750000,4,0.0633392334,,,
34.8125000000,4,-0.1371612996,,,
34.8281250000,4,-0.1527252048,,,
34.8437500000,4,0.0649414137,,,
34.8593750000,4,0.4942322075,,,
34.8750000000,4,1.0123599768,,,
34.8906250000,4,1.4602659941,,,
34.9062500000,4,1.6958620548,,,
34.9218750000,4,1.6677550077,,,
34.9375000000,4,1.4319460392,,,
34.9531250000,4,1.1305539608,,,
34.9687500000,4,0.9060363770,,,
34.9843750000,4,0.8155364990,,,
35.0000000000,4,0.8012084961,,,
35.0156250000,4,0.7413024902,,,
35.0312500000,4,0.5353850722,,,
35.0468750000,4,0.1844176948,,,
35.0625000000,4,-0.2284087986,,,
35.0781250000,4,-0.5764008164,,,
35.0937500000,4,-0.7621765137,,,
35.1093750000,4,-0.7791442871,,,
35.1250000000,4,-0.6712799072,,,
35.1406250000,4,-0.4990997016,,,
35.1562500000,4,-0.3166046143,,,
35.1718750000,4,-0.1478576958,,,
35.1875000000,4,-0.0156402607,,,
35.2031250000,4,0.0339660607,,,
35.2187500000,4,-0.0385589600,,,
35.2343750000,4,-0.2463988960,,,
35.2500000000,4,-0.5419921875,,,
35.2656250000,4,-0.8132019043,,,
35.2812500000,4,-0.9331207275,,,
35.2968750000,4,-0.8566741943,,,
35.3125000000,4,-0.6134948730,,,
35.3281250000,4,-0.3321686089,,,
35.3437500000,4,-0.1528930962,,,
35.3593750000,4,-0.1536864936,,,
35.3750000000,4,-0.3136138916,,,
35.3906250000,4,-0.5262755752,,,
35.4062500000,4,-0.6627808213,,,
35.4218750000,4,-0.6366118789,,,
35.4375000000,4,-0.4518738091,,,
35.4531250000,4,-0.1822662055,,,
35.4687500000,4,0.0638885498,,,
35.4843750000,4,0.2084044963,,,
35.5000000000,4,0.2273865044,,,
35.5156250000,4,0.1600493938,,,
35.5312500000,4,0.0804748535,,,
35.5468750000,4,0.0639648363,,,
35.5625000000,4,0.1387023926,,,
35.5781250000,4,0.2723999023,,,
35.5937500000,4,0.4006195068,,,
35.6093750000,4,0.4620209038,,,
35.6250000000,4,0.4474945068,,,
35.6406250000,4,0.4007110894,,,
35.6562500000,4,0.3954620063,,,
35.6718750000,4,0.4683837891,,,
35.6875000000,4,0.5729675293,,,
35.7031250000,4,0.5966187119,,,
35.7187500000,4,0.4318237007,,,
35.7343750000,4,0.0592041016,,,
35.7500000000,4,-0.4182128906,,,
35.7656250000,4,-0.8181151748,,,
35.7812500000,4,-0.9862976074,,,
35.7968750000,4,-0.8928833008,,,
35.8125000000,4,-0.6355895996,,,
35.8281250000,4,-0.3935546875,,,
35.8437500000,4,-0.2792206109,,,
35.8593750000,4,-0.2922362983,,,
35.8750000000,4,-0.3329772949,,,
35.8906250000,4,-0.2975006104,,,
35.9062500000,4,-0.1696929932,,,
35.9218750000,4,-0.0368499793,,,
35.9375000000,4,-0.0229186993,,,
35.9531250000,4,-0.1838683933,,,
35.9687500000,4,-0.4452820122,,,
35.9843750000,4,-0.6342468262,,,
36.0000000000,4,-0.5979614258,,,
36.0156250000,4,-0.2993622124,,,
36.0312500000,4,0.1453094035,,,
36.0468750000,4,0.5458374023,,,
36.0625000000,4,0.7451782227,,,
36.0781250000,4,0.7133483887,,,
36.0937500000,4,0.5525054932,,,
36.1093750000,4,0.3986206055,,,
36.1250000000,4,0.3529053032,,,
36.1406250000,4,0.4091643989,,,
36.1562500000,4,0.4980469048,,,
36.1718750000,4,0.5446776748,,,
36.1875000000,4,0.5223082900,,,
36.2031250000,4,0.4703978896,,,
36.2187500000,4,0.4691771865,,,
36.2343750000,4,0.5637969971,,,
36.2500000000,4,0.7467346191,,,
36.2656250000,4,0.9509429932,,,
36.2812500000,4,1.0712889433,,,
36.2968750000,4,1.0392299891,,,
36.3125000000,4,0.8582764268,,,
36.3281250000,4,0.5878601074,,,
36.3437500000,4,0.3318175972,,,
36.3593750000,4,0.1644745022,,,
36.3750000000,4,0.0921783373,,,
36.3906250000,4,0.0604400598,,,
36.4062500000,4,-0.0115966797,,,
36.4218750000,4,-0.1805115044,,,
36.4375000000,4,-0.4266510010,,,
36.4531250000,4,-0.6853333116,,,
36.4687500000,4,-0.8878632188,,,
36.4843750000,4,-1.0076290369,,,
36.5000000000,4,-1.1024780273,,,
36.5156250000,4,-1.2535099983,,,
36.5312500000,4,-1.5093380213,,,
36.5468750000,4,-1.8330379725,,,
36.5625000000,4,-2.1343541145,,,
36.5781250000,4,-2.3007659912,,,
36.5937500000,4,-2.2590479851,,,
36.6093750000,4,-2.0117800236,,,
36.6250000000,4,-1.6173249483,,,
36.6406250000,4,-1.1525419950,,,
36.6562500000,4,-0.6701660156,,,
36.6718750000,4,-0.1890106052,,,
36.6875000000,4,0.2865295112,,,
36.7031250000,4,0.7320250869,,,
36.7187500000,4,1.0956120491,,,
36.7343750000,4,1.3011169434,,,
36.7500000000,4,1.2944029570,,,
36.7656250000,4,1.0829160213,,,
36.7812500000,4,0.7374572754,,,
36.7968750000,4,0.3622437119,,,
36.8125000000,4,0.0480804406,,,
36.8281250000,4,-0.1517180949,,,
36.8437500000,4,-0.2208862007,,,
36.8593750000,4,-0.1710814983,,,
36.8750000000,4,-0.0253601093,,,
36.8906250000,4,0.1947326958,,,
36.9062500000,4,0.4583739936,,,
36.9218750000,4,0.7085114121,,,
36.9375000000,4,0.8812561035,,,
36.9531250000,4,0.9122924805,,,
36.9687500000,4,0.7631835938,,,
36.9843750000,4,0.4569244087,,,
37.0000000000,4,0.0785980225,,,
37.0156250000,4,-0.2639159858,,,
37.0312500000,4,-0.4431762993,,,
37.0468750000,4,-0.3669891059,,,
37.0625000000,4,-0.0275573693,,,
37.0781250000,4,0.4929961860,,,
37.0937500000,4,1.0417020321,,,
37.1093750000,4,1.4384919405,,,
37.1250000000,4,1.5482939482,,,
37.1406250000,4,1.3547970057,,,
37.1562500000,4,0.9311981201,,,
37.1718750000,4,0.4147033989,,,
37.1875000000,4,-0.0755767822,,,
37.2031250000,4,-0.4772338867,,,
37.2187500000,4,-0.7598419189,,,
37.2343750000,4,-0.9089202881,,,
37.2500000000,4,-0.8947296143,,,
37.2656250000,4,-0.7086486816,,,
37.2812500000,4,-0.4041137993,,,
37.2968750000,4,-0.0949401930,,,
37.3125000000,4,0.0757446289,,,
37.3281250000,4,0.0159301795,,,
37.3437500000,4,-0.2631835938,,,
37.3593750000,4,-0.6520537734,,,
37.3750000000,4,-1.0148320198,,,
37.3906250000,4,-1.2541500330,,,
37.4062500000,4,-1.3434449434,,,
37.4218750000,4,-1.2940670252,,,
37.4375000000,4,-1.0984950066,,,
37.4531250000,4,-0.7371367812,,,
37.4687500000,4,-0.1934662014,,,
37.4843750000,4,0.4754028022,,,
37.5000000000,4,1.1326450109,,,
37.5156250000,4,1.5855710506,,,
37.5312500000,4,1.7014160156,,,
37.5468750000,4,1.4677890539,,,
37.5625000000,4,0.9979857802,,,
37.5781250000,4,0.4599609077,,,
37.5937500000,4,-0.0050506592,,,
37.6093750000,4,-0.3517760932,,,
37.6250000000,4,-0.6156464219,,,
37.6406250000,4,-0.8334503174,,,
37.6562500000,4,-1.0049289465,,,
37.6718750000,4,-1.0827480555,,,
37.6875000000,4,-1.0057829618,,,
37.7031250000,4,-0.7837371826,,,
37.7187500000,4,-0.4841766059,,,
37.7343750000,4,-0.2289275974,,,
37.7500000000,4,-0.1050414965,,,
37.7656250000,4,-0.1027984992,,,
37.7812500000,4,-0.1453247070,,,
37.7968750000,4,-0.1118621975,,,
37.8125000000,4,0.0687866211,,,
37.8281250000,4,0.3801116943,,,
37.8437500000,4,0.7077025771,,,
37.8593750000,4,0.9161682129,,,
37.8750000000,4,0.9173278809,,,
37.8906250000,4,0.7121428847,,,
37.9062500000,4,0.3952178955,,,
37.9218750000,4,0.0928039625,,,
37.9375000000,4,-0.0873870775,,,
37.9531250000,4,-0.1416472942,,,
37.9687500000,4,-0.1303253025,,,
37.9843750000,4,-0.1411132962,,,
38.0000000000,4,-0.2120514065,,,
38.0156250000,4,-0.3136748970,,,
38.0312500000,4,-0.3455047905,,,
38.0468750000,4,-0.2182006985,,,
38.0625000000,4,0.0772705078,,,
38.0781250000,4,0.4479523003,,,
38.0937500000,4,0.7472534180,,,
38.1093750000,4,0.8502808213,,,
38.1250000000,4,0.7236785889,,,
38.1406250000,4,0.4440155029,,,
38.1562500000,4,0.1441497952,,,
38.1718750000,4,-0.0703125000,,,
38.1875000000,4,-0.1684418023,,,
38.2031250000,4,-0.2039337009,,,
38.2187500000,4,-0.2304992974,,,
38.2343750000,4,-0.2827453911,,,
38.2500000000,4,-0.3259429932,,,
38.2656250000,4,-0.3023833930,,,
38.2812500000,4,-0.1794281006,,,
38.2968750000,4,0.0280914307,,,
38.3125000000,4,0.2577208877,,,
38.3281250000,4,0.4538421929,,,
38.3437500000,4,0.5797271729,,,
38.3593750000,4,0.6381530762,,,
38.3750000000,4,0.6578826904,,,
38.3906250000,4,0.6704711914,,,
38.4062500000,4,0.6878510118,,,
38.4218750000,4,0.7057036757,,,
38.4375000000,4,0.6952971816,,,
38.4531250000,4,0.6221466064,,,
38.4687500000,4,0.4463042915,,,
38.4843750000,4,0.1347198039,,,
38.5000000000,4,-0.3128356934,,,
38.5156250000,4,-0.8670043945,,,
38.5312500000,4,-1.4550479650,,,
38.5468750000,4,-1.9795989990,,,
38.5625000000,4,-2.3323209286,,,
38.5781250000,4,-2.4361879826,,,
38.5937500000,4,-2.2612299919,,,
38.6093750000,4,-1.8399660587,,,
38.6250000000,4,-1.2595369816,,,
38.6406250000,4,-0.6261138916,,,
38.6562500000,4,-0.0361633301,,,
38.6718750000,4,0.4561004937,,,
38.6875000000,4,0.8384705186,,,
38.7031250000,4,1.1207580566,,,
38.7187500000,4,1.3339389563,,,
38.7343750000,4,1.4696040154,,,
38.7500000000,4,1.5204010010,,,
38.7656250000,4,1.4550629854,,,
38.7812500000,4,1.2676240206,,,
38.7968750000,4,0.9925690293,,,
38.8125000000,4,0.6918944716,,,
38.8281250000,4,0.4303740859,,,
38.8437500000,4,0.2384033054,,,
38.8593750000,4,0.1040496975,,,
38.8750000000,4,-0.0182189904,,,
38.8906250000,4,-0.1688538045,,,
38.9062500000,4,-0.3697662055,,,
38.9218750000,4,-0.6168518066,,,
38.9375000000,4,-0.8977355957,,,
38.9531250000,4,-1.1956939697,,,
38.9687500000,4,-1.4987030029,,,
38.9843750000,4,-1.7849880457,,,
39.0000000000,4,-1.9961700439,,,
39.0156250000,4,-2.0444030762,,,
39.0312500000,4,-1.8446960449,,,
39.0468750000,4,-1.3645169735,,,
39.0625000000,4,-0.6688842773,,,
39.0781250000,4,0.0881652832,,,
39.0937500000,4,0.7195739746,,,
39.1093750000,4,1.1008449793,,,
39.1250000000,4,1.2194670439,,,
39.1406250000,4,1.1794279814,,,
39.1562500000,4,1.1158289909,,,
39.1718750000,4,1.1161960363,,,
39.1875000000,4,1.1837160587,,,
39.2031250000,4,1.2399599552,,,
39.2187500000,4,1.2024689913,,,
39.2343750000,4,1.0201870203,,,
39.2500000000,4,0.7174835205,,,
39.2656250000,4,0.3538666070,,,
39.2812500000,4,-0.0109405499,,,
39.2968750000,4,-0.3358153999,,,
39.3125000000,4,-0.6083983779,,,
39.3281250000,4,-0.7984160781,,,
39.3437500000,4,-0.8687592149,,,
39.3593750000,4,-0.7917938232,,,
39.3750000000,4,-0.5863800049,,,
39.3906250000,4,-0.3357391059,,,
39.4062500000,4,-0.1561584026,,,
39.4218750000,4,-0.1447144002,,,
39.4375000000,4,-0.2964783013,,,
39.4531250000,4,-0.5158843994,,,
39.4687500000,4,-0.6461334229,,,
39.4843750000,4,-0.5823822021,,,
39.5000000000,4,-0.3175049126,,,
39.5156250000,4,0.0349731408,,,
39.5312500000,4,0.3056792915,,,
39.5468750000,4,0.3818359077,,,
39.5625000000,4,0.2529754937,,,
39.5781250000,4,0.0288391095,,,
39.5937500000,4,-0.1388549954,,,
39.6093750000,4,-0.1185759977,,,
39.6250000000,4,0.1155548021,,,
39.6406250000,4,0.4966888130,,,
39.6562500000,4,0.9111937881,,,
39.6718750000,4,1.2453609705,,,
39.6875000000,4,1.4203799963,,,
39.7031250000,4,1.4268339872,,,
39.7187500000,4,1.3037569523,,,
39.7343750000,4,1.1135710478,,,
39.7500000000,4,0.9238281250,,,
39.7656250000,4,0.7765045166,,,
39.7812500000,4,0.6822357178,,,
39.7968750000,4,0.6184844971,,,
39.8125000000,4,0.5363616943,,,
39.8281250000,4,0.3960114121,,,
39.8437500000,4,0.1867218018,,,
39.8593750000,4,-0.0533142090,,,
39.8750000000,4,-0.2627868950,,,
39.8906250000,4,-0.3787688911,,,
39.9062500000,4,-0.3730163872,,,
39.9218750000,4,-0.2736664116,,,
39.9375000000,4,-0.1516112983,,,
39.9531250000,4,-0.0976104736,,,
39.9687500000,4,-0.1707610935,,,
39.9843750000,4,-0.3835448921,,,
40.0000000000,5,-0.6763153076,,,
40.0156250000,5,-0.9535065293,,,
40.0312500000,5,-1.1312409639,,,
40.0468750000,5,-1.1620329618,,,
40.0625000000,5,-1.0538179874,,,
40.0781250000,5,-0.8424376845,,,
40.0937500000,5,-0.5782166123,,,
40.1093750000,5,-0.3000031114,,,
40.1250000000,5,-0.0396728516,,,
40.1406250000,5,0.1626129001,,,
40.1562500000,5,0.2710266113,,,
40.1718750000,5,0.2821807861,,,
40.1875000000,5,0.2109985054,,,
40.2031250000,5,0.1151581034,,,
40.2187500000,5,0.0435485803,,,
40.2343750000,5,0.0186920203,,,
40.2500000000,5,0.0194396991,,,
40.2656250000,5,0.0013275150,,,
40.2812500000,5,-0.0569152795,,,
40.2968750000,5,-0.1521454006,,,
40.3125000000,5,-0.2372893989,,,
40.3281250000,5,-0.2559813857,,,
40.3437500000,5,-0.1751403958,,,
40.3593750000,5,0.0109405499,,,
40.3750000000,5,0.2667388916,,,
40.3906250000,5,0.5474854112,,,
40.4062500000,5,0.7901610732,,,
40.4218750000,5,0.9486541748,,,
40.4375000000,5,0.9997406006,,,
40.4531250000,5,0.9799346924,,,
40.4687500000,5,0.9449309707,,,
40.4843750000,5,0.9469603896,,,
40.5000000000,5,0.9691925049,,,
40.5156250000,5,0.9340819716,,,
40.5312500000,5,0.7387999892,,,
40.5468750000,5,0.3309783936,,,
40.5625000000,5,-0.2280426025,,,
40.5781250000,5,-0.7904357910,,,
40.5937500000,5,-1.1928249598,,,
40.6093750000,5,-1.3690340519,,,
40.6250000000,5,-1.3535770178,,,
40.6406250000,5,-1.2590179443,,,
40.6562500000,5,-1.1750030518,,,
40.6718750000,5,-1.0954129696,,,
40.6875000000,5,-0.9487152100,,,
40.7031250000,5,-0.6691741943,,,
40.7187500000,5,-0.2640075982,,,
40.7343750000,5,0.1690673977,,,
40.7500000000,5,0.4956359863,,,
40.7656250000,5,0.6413726807,,,
40.7812500000,5,0.6358489990,,,
40.7968750000,5,0.5868378282,,,
40.8125000000,5,0.5969086289,,,
40.8281250000,5,0.6784362793,,,
40.8437500000,5,0.7424622178,,,
40.8593750000,5,0.6553496718,,,
40.8750000000,5,0.3341521919,,,
40.8906250000,5,-0.1729431003,,,
40.9062500000,5,-0.6994019151,,,
40.9218750000,5,-1.0429229736,,,
40.9375000000,5,-1.0855560303,,,
40.9531250000,5,-0.8585662842,,,
40.9687500000,5,-0.5409697890,,,
40.9843750000,5,-0.3395232856,,,
41.0000000000,5,-0.3786315918,,,
41.0156250000,5,-0.6218872070,,,
41.0312500000,5,-0.9150084853,,,
41.0468750000,5,-1.0767970085,,,
41.0625000000,5,-0.9872283936,,,
41.0781250000,5,-0.6710968018,,,
41.0937500000,5,-0.2511292100,,,
41.1093750000,5,0.1187592000,,,
41.1250000000,5,0.3414764106,,,
41.1406250000,5,0.3980864882,,,
41.1562500000,5,0.3302764893,,,
41.1718750000,5,0.2066497952,,,
41.1875000000,5,0.0792236328,,,
41.2031250000,5,-0.0445251502,,,
41.2187500000,5,-0.1665191948,,,
41.2343750000,5,-0.2698363960,,,
41.2500000000,5,-0.3152466118,,,
41.2656250000,5,-0.2499541938,,,
41.2812500000,5,-0.0587310791,,,
41.2968750000,5,0.2264403999,,,
41.3125000000,5,0.5269622803,,,
41.3281250000,5,0.7562866211,,,
41.3437500000,5,0.8736876845,,,
41.3593750000,5,0.8984680176,,,
41.3750000000,5,0.8975219727,,,
41.3906250000,5,0.9192963243,,,
41.4062500000,5,0.9709473252,,,
41.4218750000,5,0.9839171767,,,
41.4375000000,5,0.8986815810,,,
41.4531250000,5,0.6900482178,,,
41.4687500000,5,0.4150696099,,,
41.4843750000,5,0.1647185981,,,
41.5000000000,5,0.0292968806,,,
41.5156250000,5,0.0351715088,,,
41.5312500000,5,0.1287689060,,,
41.5468750000,5,0.2119597942,,,
41.5625000000,5,0.2269591987,,,
41.5781250000,5,0.1740417033,,,
41.5937500000,5,0.1195525974,,,
41.6093750000,5,0.1428070068,,,
41.6250000000,5,0.2693938911,,,
41.6406250000,5,0.4419403076,,,
41.6562500000,5,0.5522766113,,,
41.6718750000,5,0.5039520264,,,
41.6875000000,5,0.2833862007,,,
41.7031250000,5,-0.0495605506,,,
41.7187500000,5,-0.3972778022,,,
41.7343750000,5,-0.6711730957,,,
41.7500000000,5,-0.8418579102,,,
41.7656250000,5,-0.9211121202,,,
41.7812500000,5,-0.9435729980,,,
41.7968750000,5,-0.9269866943,,,
41.8125000000,5,-0.8858795166,,,
41.8281250000,5,-0.8398743272,,,
41.8437500000,5,-0.8184204102,,,
41.8593750000,5,-0.8353118896,,,
41.8750000000,5,-0.8699036241,,,
41.8906250000,5,-0.8549652100,,,
41.9062500000,5,-0.6987761855,,,
41.9218750000,5,-0.3801726997,,,
41.9375000000,5,0.0372009315,,,
41.9531250000,5,0.4121398926,,,
41.9687500000,5,0.6307982802,,,
41.9843750000,5,0.6646118164,,,
42.0000000000,5,0.6065369248,,,
42.0156250000,5,0.5962523818,,,
42.0312500000,5,0.7189484239,,,
42.0468750000,5,0.9471436143,,,
42.0625000000,5,1.1739200354,,,
42.0781250000,5,1.2746429443,,,
42.0937500000,5,1.1841739416,,,
42.1093750000,5,0.9279022217,,,
42.1250000000,5,0.5911102295,,,
42.1406250000,5,0.2650757134,,,
42.1562500000,5,0.0069732671,,,
42.1718750000,5,-0.1669922024,,,
42.1875000000,5,-0.2716217041,,,
42.2031250000,5,-0.3304749131,,,
42.2187500000,5,-0.3779296875,,,
42.2343750000,5,-0.4483337104,,,
42.2500000000,5,-0.5829315186,,,
42.2656250000,5,-0.7940369248,,,
42.2812500000,5,-1.0612790585,,,
42.2968750000,5,-1.3143160343,,,
42.3125000000,5,-1.4602049589,,,
42.3281250000,5,-1.4184269905,,,
42.3437500000,5,-1.1724090576,,,
42.3593750000,5,-0.7675476074,,,
42.3750000000,5,-0.3025969863,,,
42.3906250000,5,0.1181488037,,,
42.4062500000,5,0.4250183105,,,
42.4218750000,5,0.5941925049,,,
42.4375000000,5,0.6471558213,,,
42.4531250000,5,0.6171721816,,,
42.4687500000,5,0.5249329209,,,
42.4843750000,5,0.3773193061,,,
42.5000000000,5,0.1688079983,,,
42.5156250000,5,-0.0789184570,,,
42.5312500000,5,-0.3190307915,,,
42.5468750000,5,-0.4962921143,,,
42.5625000000,5,-0.5608673096,,,
42.5781250000,5,-0.5032349229,,,
42.5937500000,5,-0.3334808052,,,
42.6093750000,5,-0.0778045729,,,
42.6250000000,5,0.2250977010,,,
42.6406250000,5,0.5279998779,,,
42.6562500000,5,0.7828217149,,,
42.6718750000,5,0.9500731826,,,
42.6875000000,5,1.0161900520,,,
42.7031250000,5,1.0057530403,,,
42.7187500000,5,0.9819946289,,,
42.7343750000,5,1.0057679415,,,
42.7500000000,5,1.0826109648,,,
42.7656250000,5,1.1698460579,,,
42.7812500000,5,1.1858060360,,,
42.7968750000,5,1.0693659782,,,
42.8125000000,5,0.8037261963,,,
42.8281250000,5,0.4381560981,,,
42.8437500000,5,0.0455169715,,,
42.8593750000,5,-0.3000487983,,,
42.8750000000,5,-0.5431823730,,,
42.8906250000,5,-0.6412963867,,,
42.9062500000,5,-0.5702667236,,,
42.9218750000,5,-0.3505249023,,,
42.9375000000,5,-0.0677185133,,,
42.9531250000,5,0.1362762004,,,
42.9687500000,5,0.1111145020,,,
42.9843750000,5,-0.2002868950,,,
43.0000000000,5,-0.7312316895,,,
43.0156250000,5,-1.2858890295,,,
43.0312500000,5,-1.6416929960,,,
43.0468750000,5,-1.6424100399,,,
43.0625000000,5,-1.2670140266,,,
43.0781250000,5,-0.6431732178,,,
43.0937500000,5,0.0335845910,,,
43.1093750000,5,0.5880584717,,,
43.1250000000,5,0.9130706787,,,
43.1406250000,5,0.9913024902,,,
43.1562500000,5,0.8713073730,,,
43.1718750000,5,0.6280364990,,,
43.1875000000,5,0.3535461128,,,
43.2031250000,5,0.1246033013,,,
43.2187500000,5,0.0102386503,,,
43.2343750000,5,0.0598754883,,,
43.2500000000,5,0.2682648003,,,
43.2656250000,5,0.6046447754,,,
43.2812500000,5,0.9752960205,,,
43.2968750000,5,1.2631989717,,,
43.3125000000,5,1.3686369658,,,
43.3281250000,5,1.2369539738,,,
43.3437500000,5,0.8941345215,,,
43.3593750000,5,0.4335632026,,,
43.3750000000,5,-0.0217132606,,,
43.3906250000,5,-0.3838500977,,,
43.4062500000,5,-0.6360321045,,,
43.4218750000,5,-0.8228911757,,,
43.4375000000,5,-1.0100560188,,,
43.4531250000,5,-1.2345889807,,,
43.4687500000,5,-1.4765169621,,,
43.4843750000,5,-1.6774139404,,,
43.5000000000,5,-1.7894289494,,,
43.5156250000,5,-1.7842860222,,,
43.5312500000,5,-1.6860500574,,,
43.5468750000,5,-1.5444489717,,,
43.5625000000,5,-1.4051510096,,,
43.5781250000,5,-1.2877659798,,,
43.5937500000,5,-1.1830439568,,,
43.6093750000,5,-1.0564880371,,,
43.6250000000,5,-0.8960266113,,,
43.6406250000,5,-0.7107543945,,,
43.6562500000,5,-0.5368195176,,,
43.6718750000,5,-0.4077605903,,,
43.6875000000,5,-0.3309937119,,,
43.7031250000,5,-0.2848663032,,,
43.7187500000,5,-0.2029418945,,,
43.7343750000,5,-0.0250854492,,,
43.7500000000,5,0.2580108941,,,
43.7656250000,5,0.6029968262,,,
43.7812500000,5,0.9118041992,,,
43.7968750000,5,1.0711820126,,,
43.8125000000,5,1.0285340548,,,
43.8281250000,5,0.8145905137,,,
43.8437500000,5,0.5244750977,,,
43.8593750000,5,0.2878265083,,,
43.8750000000,5,0.1838074028,,,
43.8906250000,5,0.2235413045,,,
43.9062500000,5,0.3442840874,,,
43.9218750000,5,0.4604797065,,,
43.9375000000,5,0.5080872178,,,
43.9531250000,5,0.4757384956,,,
43.9687500000,5,0.4116058052,,,
43.9843750000,5,0.3993834853,,,
44.0000000000,5,0.4996947944,,,
44.0156250000,5,0.7120360732,,,
44.0312500000,5,0.9756926894,,,
44.0468750000,5,1.1884160042,,,
44.0625000000,5,1.2731169462,,,
44.0781250000,5,1.2139739990,,,
44.0937500000,5,1.0557860136,,,
44.1093750000,5,0.8949584961,,,
44.1250000000,5,0.7992095947,,,
44.1406250000,5,0.7851256728,,,
44.1562500000,5,0.8021851182,,,
44.1718750000,5,0.7876281738,,,
44.1875000000,5,0.6869354248,,,
44.2031250000,5,0.4869385064,,,
44.2187500000,5,0.2144012004,,,
44.2343750000,5,-0.1126708984,,,
44.2500000000,5,-0.4899750054,,,
44.2656250000,5,-0.9163054824,,,
44.2812500000,5,-1.3596340418,,,
44.2968750000,5,-1.7533420324,,,
44.3125000000,5,-1.9807430506,,,
44.3281250000,5,-1.9462430477,,,
44.3437500000,5,-1.6360169649,,,
44.3593750000,5,-1.1277470589,,,
44.3750000000,5,-0.5782318115,,,
44.3906250000,5,-0.1381378025,,,
44.4062500000,5,0.0782623291,,,
44.4218750000,5,0.0569000207,,,
44.4375000000,5,-0.1550903022,,,
44.4531250000,5,-0.4629974067,,,
44.4687500000,5,-0.7810363770,,,
44.4843750000,5,-1.0177609921,,,
44.5000000000,5,-1.1099400520,,,
44.5156250000,5,-1.0266569853,,,
44.5312500000,5,-0.7728424072,,,
44.5468750000,5,-0.4066771865,,,
44.5625000000,5,-0.0183868408,,,
44.5781250000,5,0.2873534858,,,
44.5937500000,5,0.4327698052,,,
44.6093750000,5,0.3849335015,,,
44.6250000000,5,0.1480408013,,,
44.6406250000,5,-0.2122498006,,,
44.6562500000,5,-0.5889739990,,,
44.6718750000,5,-0.8558197021,,,
44.6875000000,5,-0.9149628282,,,
44.7031250000,5,-0.7382659912,,,
44.7187500000,5,-0.3881531060,,,
44.7343750000,5,-0.0095825205,,,
44.7500000000,5,0.2365417033,,,
44.7656250000,5,0.2660827935,,,
44.7812500000,5,0.1161957011,,,
44.7968750000,5,-0.0915069580,,,
44.8125000000,5,-0.2028656006,,,
44.8281250000,5,-0.1294860989,,,
44.8437500000,5,0.1201018989,,,
44.8593750000,5,0.4558868110,,,
44.8750000000,5,0.7752838135,,,
44.8906250000,5,1.0073549747,,,
44.9062500000,5,1.1424410343,,,
44.9218750000,5,1.1939389706,,,
44.9375000000,5,1.1620789766,,,
44.9531250000,5,1.0420529842,,,
44.9687500000,5,0.8071135879,,,
44.9843750000,5,0.4711608887,,,
45.0000000000,5,0.0924072266,,,
45.0156250000,5,-0.2224425972,,,
45.0312500000,5,-0.3652496040,,,
45.0468750000,5,-0.2742461860,,,
45.0625000000,5,0.0417327918,,,
45.0781250000,5,0.4685364068,,,
45.0937500000,5,0.8402252197,,,
45.1093750000,5,1.0012660027,,,
45.1250000000,5,0.8804016113,,,
45.1406250000,5,0.5211486816,,,
45.1562500000,5,0.0725097731,,,
45.1718750000,5,-0.2861937881,,,
45.1875000000,5,-0.4269866943,,,
45.2031250000,5,-0.3277130127,,,
45.2187500000,5,-0.0587158203,,,
45.2343750000,5,0.2599030137,,,
45.2500000000,5,0.5323944092,,,
45.2656250000,5,0.7094268799,,,
45.2812500000,5,0.7908477783,,,
45.2968750000,5,0.7737731934,,,
45.3125000000,5,0.6351317763,,,
45.3281250000,5,0.3448944092,,,
45.3437500000,5,-0.0692138672,,,
45.3593750000,5,-0.4950104058,,,
45.3750000000,5,-0.7490233779,,,
45.3906250000,5,-0.6751555800,,,
45.4062500000,5,-0.2251434028,,,
45.4218750000,5,0.4754486084,,,
45.4375000000,5,1.1625820398,,,
45.4531250000,5,1.5644069910,,,
45.4687500000,5,1.5217590332,,,
45.4843750000,5,1.0770419836,,,
45.5000000000,5,0.4404296875,,,
45.5156250000,5,-0.1150970012,,,
45.5312500000,5,-0.4149169922,,,
45.5468750000,5,-0.4627686143,,,
45.5625000000,5,-0.3882445991,,,
45.5781250000,5,-0.3583832085,,,
45.5937500000,5,-0.4385680854,,,
45.6093750000,5,-0.5783081055,,,
45.6250000000,5,-0.6587677002,,,
45.6406250000,5,-0.6109313965,,,
45.6562500000,5,-0.4823456109,,,
45.6718750000,5,-0.4023742974,,,
45.6875000000,5,-0.4910278022,,,
45.7031250000,5,-0.7453156114,,,
45.7187500000,5,-1.0136259794,,,
45.7343750000,5,-1.0810849667,,,
45.7500000000,5,-0.8093566895,,,
45.7656250000,5,-0.2238007039,,,
45.7812500000,5,0.4752196968,,,
45.7968750000,5,1.0178380013,,,
45.8125000000,5,1.2204439640,,,
45.8281250000,5,1.0406490564,,,
45.8437500000,5,0.5839080811,,,
45.8593750000,5,0.0372467004,,,
45.8750000000,5,-0.4259796143,,,
45.8906250000,5,-0.7079010010,,,
45.9062500000,5,-0.8021697998,,,
45.9218750000,5,-0.7704619765,,,
45.9375000000,5,-0.7028502822,,,
45.9531250000,5,-0.6654816270,,,
45.9687500000,5,-0.6991729736,,,
45.9843750000,5,-0.7936707139,,,
46.0000000000,5,-0.9049376845,,,
46.0156250000,5,-0.9663848877,,,
46.0312500000,5,-0.9114838243,,,
46.0468750000,5,-0.6949921250,,,
46.0625000000,5,-0.3048096001,,,
46.0781250000,5,0.2184143066,,,
46.0937500000,5,0.7909851074,,,
46.1093750000,5,1.3038330078,,,
46.1250000000,5,1.6620939970,,,
46.1406250000,5,1.8001250029,,,
46.1562500000,5,1.7228549719,,,
46.1718750000,5,1.4787449837,,,
46.1875000000,5,1.1369630098,,,
46.2031250000,5,0.7360076904,,,
46.2187500000,5,0.2712250054,,,
46.2343750000,5,-0.2581481934,,,
46.2500000000,5,-0.8254088759,,,
46.2656250000,5,-1.3288569450,,,
46.2812500000,5,-1.6245119572,,,
46.2968750000,5,-1.6054840088,,,
46.3125000000,5,-1.2556610107,,,
46.3281250000,5,-0.6911926270,,,
46.3437500000,5,-0.1083374023,,,
46.3593750000,5,0.3051300049,,,
46.3750000000,5,0.4546051025,,,
46.3906250000,5,0.3803864121,,,
46.4062500000,5,0.2054595947,,,
46.4218750000,5,0.0628967285,,,
46.4375000000,5,0.0109405499,,,
46.4531250000,5,0.0435943604,,,
46.4687500000,5,0.0973663330,,,
46.4843750000,5,0.1289824992,,,
46.5000000000,5,0.1513061970,,,
46.5156250000,5,0.2013092041,,,
46.5312500000,5,0.3094024956,,,
46.5468750000,5,0.4465484917,,,
46.5625000000,5,0.5325927734,,,
46.5781250000,5,0.4817351997,,,
46.5937500000,5,0.2633666992,,,
46.6093750000,5,-0.0823516771,,,
46.6250000000,5,-0.4418334961,,,
46.6406250000,5,-0.6902465820,,,
46.6562500000,5,-0.7461853027,,,
46.6718750000,5,-0.6013184190,,,
46.6875000000,5,-0.3189849854,,,
46.7031250000,5,0.0031127930,,,
46.7187500000,5,0.2584990859,,,
46.7343750000,5,0.3738403022,,,
46.7500000000,5,0.3221130073,,,
46.7656250000,5,0.1152802035,,,
46.7812500000,5,-0.1822205037,,,
46.7968750000,5,-0.4788208008,,,
46.8125000000,5,-0.6595305800,,,
46.8281250000,5,-0.6419982910,,,
46.8437500000,5,-0.4039000869,,,
46.8593750000,5,-0.0289764404,,,
46.8750000000,5,0.3208617866,,,
46.8906250000,5,0.4802856147,,,
46.9062500000,5,0.3635101020,,,
46.9218750000,5,0.0177612305,,,
46.9375000000,5,-0.4013671875,,,
46.9531250000,5,-0.6862030029,,,
46.9687500000,5,-0.6985930800,,,
46.9843750000,5,-0.4266510010,,,
47.0000000000,5,0.0192565899,,,
47.0156250000,5,0.4925231934,,,
47.0312500000,5,0.8902434707,,,
47.0468750000,5,1.1873470545,,,
47.0625000000,5,1.4046939611,,,
47.0781250000,5,1.5369260311,,,
47.0937500000,5,1.5309909582,,,
47.1093750000,5,1.3220829964,,,
47.1250000000,5,0.8946381211,,,
47.1406250000,5,0.3583374023,,,
47.1562500000,5,-0.0957031325,,,
47.1718750000,5,-0.2786712945,,,
47.1875000000,5,-0.1179352030,,,
47.2031250000,5,0.2887114882,,,
47.2187500000,5,0.7192534804,,,
47.2343750000,5,0.9209136963,,,
47.2500000000,5,0.7392426133,,,
47.2656250000,5,0.1736298054,,,
47.2812500000,5,-0.6197814941,,,
47.2968750000,5,-1.3902889490,,,
47.3125000000,5,-1.9128570557,,,
47.3281250000,5,-2.0652620792,,,
47.3437500000,5,-1.8639370203,,,
47.3593750000,5,-1.4546509981,,,
47.3750000000,5,-1.0150150061,,,
47.3906250000,5,-0.6696472168,,,
47.4062500000,5,-0.4462738037,,,
47.4218750000,5,-0.3077850044,,,
47.4375000000,5,-0.2028656006,,,
47.4531250000,5,-0.1300354004,,,
47.4687500000,5,-0.1205750033,,,
47.4843750000,5,-0.1892700046,,,
47.5000000000,5,-0.2955321968,,,
47.5156250000,5,-0.3148499131,,,
47.5312500000,5,-0.1290131062,,,
47.5468750000,5,0.2873077095,,,
47.5625000000,5,0.8099060059,,,
47.5781250000,5,1.2221679688,,,
47.5937500000,5,1.3212430477,,,
47.6093750000,5,1.0588530302,,,
47.6250000000,5,0.5713043213,,,
47.6406250000,5,0.0793151930,,,
47.6562500000,5,-0.2167664021,,,
47.6718750000,5,-0.2371367961,,,
47.6875000000,5,-0.0308990497,,,
47.7031250000,5,0.2768402100,,,
47.7187500000,5,0.5794677734,,,
47.7343750000,5,0.8178710938,,,
47.7500000000,5,0.9833220840,,,
47.7656250000,5,1.0945739746,,,
47.7812500000,5,1.1340479851,,,
47.7968750000,5,1.0829010010,,,
47.8125000000,5,0.9017487168,,,
47.8281250000,5,0.5924376845,,,
47.8437500000,5,0.1929168999,,,
47.8593750000,5,-0.2162933052,,,
47.8750000000,5,-0.5486907959,,,
47.8906250000,5,-0.7448425293,,,
47.9062500000,5,-0.7962799072,,,
47.9218750000,5,-0.7606658936,,,
47.9375000000,5,-0.7098999023,,,
47.9531250000,5,-0.7070922852,,,
47.9687500000,5,-0.7518311143,,,
47.9843750000,5,-0.7869110107,,,
48.0000000000,6,-0.7353972793,,,
48.0156250000,6,-0.5530396104,,,
48.0312500000,6,-0.2669982910,,,
48.0468750000,6,0.0174713098,,,
48.0625000000,6,0.1829071045,,,
48.0781250000,6,0.1856994927,,,
48.0937500000,6,0.0766296387,,,
48.1093750000,6,-0.0384826697,,,
48.1250000000,6,-0.0476531982,,,
48.1406250000,6,0.0794067383,,,
48.1562500000,6,0.2694396973,,,
48.1718750000,6,0.4083099067,,,
48.1875000000,6,0.4127959907,,,
48.2031250000,6,0.2612915039,,,
48.2187500000,6,-0.0039367680,,,
48.2343750000,6,-0.3256683052,,,
48.2500000000,6,-0.6648712158,,,
48.2656250000,6,-0.9932404160,,,
48.2812500000,6,-1.2729190588,,,
48.2968750000,6,-1.4292910099,,,
48.3125000000,6,-1.3776400089,,,
48.3281250000,6,-1.0625760555,,,
48.3437500000,6,-0.5273284912,,,
48.3593750000,6,0.0955047607,,,
48.3750000000,6,0.6488342285,,,
48.3906250000,6,1.0294649601,,,
48.4062500000,6,1.2345889807,,,
48.4218750000,6,1.3479609489,,,
48.4375000000,6,1.4407199621,,,
48.4531250000,6,1.5254820585,,,
48.4687500000,6,1.5315550566,,,
48.4843750000,6,1.3672029972,,,
48.5000000000,6,0.9778289795,,,
48.5156250000,6,0.4009856880,,,
48.5312500000,6,-0.2287597954,,,
48.5468750000,6,-0.7474365234,,,
48.5625000000,6,-1.0234529972,,,
48.5781250000,6,-1.0215760469,,,
48.5937500000,6,-0.8065186143,,,
48.6093750000,6,-0.5033875108,,,
48.6250000000,6,-0.2335814983,,,
48.6406250000,6,-0.0574951209,,,
48.6562500000,6,0.0344085693,,,
48.6718750000,6,0.0765380934,,,
48.6875000000,6,0.0862731934,,,
48.7031250000,6,0.0559539795,,,
48.7187500000,6,-0.0396575890,,,
48.7343750000,6,-0.1790466011,,,
48.7500000000,6,-0.2747344971,,,
48.7656250000,6,-0.2323455960,,,
48.7812500000,6,-0.0052185059,,,
48.7968750000,6,0.3366546929,,,
48.8125000000,6,0.6374359131,,,
48.8281250000,6,0.7430725098,,,
48.8437500000,6,0.6163330078,,,
48.8593750000,6,0.3593139946,,,
48.8750000000,6,0.1432189941,,,
48.8906250000,6,0.0862274170,,,
48.9062500000,6,0.1582489014,,,
48.9218750000,6,0.2299347073,,,
48.9375000000,6,0.1661376953,,,
48.9531250000,6,-0.0391845703,,,
48.9687500000,6,-0.2622374892,,,
48.9843750000,6,-0.3285216987,,,
49.0000000000,6,-0.1595612019,,,
49.0156250000,6,0.1664734036,,,
49.0312500000,6,0.4620971978,,,
49.0468750000,6,0.5422058105,,,
49.0625000000,6,0.3449554145,,,
49.0781250000,6,-0.0285797101,,,
49.0937500000,6,-0.3951416016,,,
49.1093750000,6,-0.5901489258,,,
49.1250000000,6,-0.5537415147,,,
49.1406250000,6,-0.3469085991,,,
49.1562500000,6,-0.1108551025,,,
49.1718750000,6,0.0357208289,,,
49.1875000000,6,0.0331878699,,,
49.2031250000,6,-0.0967864990,,,
49.2187500000,6,-0.2901459038,,,
49.2343750000,6,-0.4915770888,,,
49.2500000000,6,-0.6745604873,,,
49.2656250000,6,-0.8316345215,,,
49.2812500000,6,-0.9488677979,,,
49.2968750000,6,-0.9993134141,,,
49.3125000000,6,-0.9304656982,,,
49.3281250000,6,-0.7288817763,,,
49.3437500000,6,-0.4309234917,,,
49.3593750000,6,-0.1265106052,,,
49.3750000000,6,0.0560607910,,,
49.3906250000,6,0.0170898400,,,
49.4062500000,6,-0.2656097114,,,
49.4218750000,6,-0.7282103896,,,
49.4375000000,6,-1.2271120548,,,
49.4531250000,6,-1.5867609978,,,
49.4687500000,6,-1.6729580164,,,
49.4843750000,6,-1.4257659912,,,
49.5000000000,6,-0.9042968750,,,
49.5156250000,6,-0.2724915147,,,
49.5312500000,6,0.2712250054,,,
49.5468750000,6,0.5759583116,,,
49.5625000000,6,0.5770111084,,,
49.5781250000,6,0.3412933052,,,
49.5937500000,6,0.0210571308,,,
49.6093750000,6,-0.2227783054,,,
49.6250000000,6,-0.2863464057,,,
49.6406250000,6,-0.1471100003,,,
49.6562500000,6,0.1320037991,,,
49.6718750000,6,0.4553833008,,,
49.6875000000,6,0.7286376953,,,
49.7031250000,6,0.8898468018,,,
49.7187500000,6,0.9217224121,,,
49.7343750000,6,0.8631287217,,,
49.7500000000,6,0.7788085938,,,
49.7656250000,6,0.7288513184,,,
49.7812500000,6,0.7472229004,,,
49.7968750000,6,0.7927094102,,,
49.8125000000,6,0.7960814834,,,
49.8281250000,6,0.7043762207,,,
49.8437500000,6,0.5142670274,,,
49.8593750000,6,0.2939147949,,,
49.8750000000,6,0.1104431003,,,
49.8906250000,6,-0.0210418701,,,
49.9062500000,6,-0.1533202976,,,
49.9218750000,6,-0.3526917100,,,
49.9375000000,6,-0.6206665039,,,
49.9531250000,6,-0.8664702773,,,
49.9687500000,6,-0.9576110840,,,
49.9843750000,6,-0.8046417236,,,
50.0000000000,6,-0.4324645996,,,
50.0156250000,6,0.0245971698,,,
50.0312500000,6,0.4002380073,,,
50.0468750000,6,0.6025695801,,,
50.0625000000,6,0.6379699707,,,
50.0781250000,6,0.5776978135,,,
50.0937500000,6,0.4882049859,,,
50.1093750000,6,0.3780212104,,,
50.1250000000,6,0.2177124023,,,
50.1406250000,6,-0.0110320998,,,
50.1562500000,6,-0.2725067139,,,
50.1718750000,6,-0.4889220893,,,
50.1875000000,6,-0.5958098769,,,
50.2031250000,6,-0.5783997178,,,
50.2187500000,6,-0.4880065918,,,
50.2343750000,6,-0.4009399116,,,
50.2500000000,6,-0.3500671089,,,
50.2656250000,6,-0.3249359131,,,
50.2812500000,6,-0.2661590874,,,
50.2968750000,6,-0.1230468974,,,
50.3125000000,6,0.1071624979,,,
50.3281250000,6,0.3849791884,,,
50.3437500000,6,0.6445465088,,,
50.3593750000,6,0.8249968886,,,
50.3750000000,6,0.8911284804,,,
50.3906250000,6,0.8491973877,,,
50.4062500000,6,0.7184906006,,,
50.4218750000,6,0.5391998291,,,
50.4375000000,6,0.3534851074,,,
50.4531250000,6,0.1885681003,,,
50.4687500000,6,0.0367279090,,,
50.4843750000,6,-0.1295319051,,,
50.5000000000,6,-0.3376007080,,,
50.5156250000,6,-0.5893096924,,,
50.5312500000,6,-0.8306427002,,,
50.5468750000,6,-0.9726715088,,,
50.5625000000,6,-0.9381256104,,,
50.5781250000,6,-0.6954956055,,,
50.5937500000,6,-0.2907715142,,,
50.6093750000,6,0.1586456001,,,
50.6250000000,6,0.5267943740,,,
50.6406250000,6,0.7263947129,,,
50.6562500000,6,0.7617797852,,,
50.6718750000,6,0.7054749131,,,
50.6875000000,6,0.6327971816,,,
50.7031250000,6,0.5736693740,,,
50.7187500000,6,0.4981994927,,,
50.7343750000,6,0.3527984917,,,
50.7500000000,6,0.1226653978,,,
50.7656250000,6,-0.1513061970,,,
50.7812500000,6,-0.3855285943,,,
50.7968750000,6,-0.5018311143,,,
50.8125000000,6,-0.4876250923,,,
50.8281250000,6,-0.3876495063,,,
50.8437500000,6,-0.2803345025,,,
50.8593750000,6,-0.2060241997,,,
50.8750000000,6,-0.1335601956,,,
50.8906250000,6,0.0058593750,,,
50.9062500000,6,0.2502135932,,,
50.9218750000,6,0.5567017198,,,
50.9375000000,6,0.7992553711,,,
50.9531250000,6,0.8507080078,,,
50.9687500000,6,0.6548767090,,,
50.9843750000,6,0.2932586968,,,
51.0000000000,6,-0.0626525879,,,
51.0156250000,6,-0.2480926961,,,
51.0312500000,6,-0.1910552979,,,
51.0468750000,6,0.0383605994,,,
51.0625000000,6,0.2757874131,,,
51.0781250000,6,0.3677673042,,,
51.0937500000,6,0.2620086968,,,
51.1093750000,6,0.0375366211,,,
51.1250000000,6,-0.1558838040,,,
51.1406250000,6,-0.1942443997,,,
51.1562500000,6,-0.0583343506,,,
51.1718750000,6,0.1653137058,,,
51.1875000000,6,0.3423309028,,,
51.2031250000,6,0.3787842095,,,
51.2187500000,6,0.2832793891,,,
51.2343750000,6,0.1641387939,,,
51.2500000000,6,0.1574707031,,,
51.2656250000,6,0.3364410102,,,
51.2812500000,6,0.6474915147,,,
51.2968750000,6,0.9294281006,,,
51.3125000000,6,1.0160219669,,,
51.3281250000,6,0.8321685791,,,
51.3437500000,6,0.4358367920,,,
51.3593750000,6,-0.0131072998,,,
51.3750000000,6,-0.3394775093,,,
51.3906250000,6,-0.4388732910,,,
51.4062500000,6,-0.3201141059,,,
51.4218750000,6,-0.0617523193,,,
51.4375000000,6,0.2193298042,,,
51.4531250000,6,0.4395141900,,,
51.4687500000,6,0.5395812988,,,
51.4843750000,6,0.4899750054,,,
51.5000000000,6,0.2726745903,,,
51.5156250000,6,-0.0947723389,,,
51.5312500000,6,-0.5386046767,,,
51.5468750000,6,-0.9443054199,,,
51.5625000000,6,-1.1919709444,,,
51.5781250000,6,-1.2240140438,,,
51.5937500000,6,-1.0768129826,,,
51.6093750000,6,-0.8513793945,,,
51.6250000000,6,-0.6654816270,,,
51.6406250000,6,-0.5840454102,,,
51.6562500000,6,-0.6018065810,,,
51.6718750000,6,-0.6649932861,,,
51.6875000000,6,-0.7240447998,,,
51.7031250000,6,-0.7602539063,,,
51.7187500000,6,-0.7961730957,,,
51.7343750000,6,-0.8462677002,,,
51.7500000000,6,-0.8950499892,,,
51.7656250000,6,-0.8884124756,,,
51.7812500000,6,-0.7781981826,,,
51.7968750000,6,-0.5755156875,,,
51.8125000000,6,-0.3497619927,,,
51.8281250000,6,-0.2061920017,,,
51.8437500000,6,-0.2089080960,,,
51.8593750000,6,-0.3295746148,,,
51.8750000000,6,-0.4604491889,,,
51.8906250000,6,-0.4754944146,,,
51.9062500000,6,-0.3163452148,,,
51.9218750000,6,-0.0196228009,,,
51.9375000000,6,0.3025969863,,,
51.9531250000,6,0.5377197266,,,
51.9687500000,6,0.6270751953,,,
51.9843750000,6,0.5883330703,,,
52.0000000000,6,0.4828948975,,,
52.0156250000,6,0.3699798882,,,
52.0312500000,6,0.2951659858,,,
52.0468750000,6,0.2786406875,,,
52.0625000000,6,0.3346557915,,,
52.0781250000,6,0.4809570014,,,
52.0937500000,6,0.7068787217,,,
52.1093750000,6,0.9629210830,,,
52.1250000000,6,1.1680450439,,,
52.1406250000,6,1.2391049862,,,
52.1562500000,6,1.1446230412,,,
52.1718750000,6,0.9139404297,,,
52.1875000000,6,0.6306151748,,,
52.2031250000,6,0.3819122016,,,
52.2187500000,6,0.2241363972,,,
52.2343750000,6,0.1751555949,,,
52.2500000000,6,0.2429503947,,,
52.2656250000,6,0.4343109131,,,
52.2812500000,6,0.7181854248,,,
52.2968750000,6,1.0319520235,,,
52.3125000000,6,1.2579499483,,,
52.3281250000,6,1.3103940487,,,
52.3437500000,6,1.1625519991,,,
52.3593750000,6,0.8893433213,,,
52.3750000000,6,0.6113433838,,,
52.3906250000,6,0.4424743950,,,
52.4062500000,6,0.4109497070,,,
52.4218750000,6,0.4469757080,,,
52.4375000000,6,0.4531402886,,,
52.4531250000,6,0.3667297065,,,
52.4687500000,6,0.1995850056,,,
52.4843750000,6,0.0281066895,,,
52.5000000000,6,-0.0901947021,,,
52.5156250000,6,-0.1751403958,,,
52.5312500000,6,-0.3040314019,,,
52.5468750000,6,-0.5645751953,,,
52.5625000000,6,-0.9700927734,,,
52.5781250000,6,-1.4154820442,,,
52.5937500000,6,-1.7555539608,,,
52.6093750000,6,-1.8786469698,,,
52.6250000000,6,-1.7714689970,,,
52.6406250000,6,-1.5193330050,,,
52.6562500000,6,-1.2283940315,,,
52.6718750000,6,-0.9708709717,,,
52.6875000000,6,-0.7407836914,,,
52.7031250000,6,-0.4964142144,,,
52.7187500000,6,-0.1904602051,,,
52.7343750000,6,0.1681824028,,,
52.7500000000,6,0.5144500732,,,
52.7656250000,6,0.7668151855,,,
52.7812500000,6,0.8429412842,,,
52.7968750000,6,0.7170104980,,,
52.8125000000,6,0.4190979004,,,
52.8281250000,6,0.0368804894,,,
52.8437500000,6,-0.3247070014,,,
52.8593750000,6,-0.5590363145,,,
52.8750000000,6,-0.6258087158,,,
52.8906250000,6,-0.5501555800,,,
52.9062500000,6,-0.4141997993,,,
52.9218750000,6,-0.3233337104,,,
52.9375000000,6,-0.3392792046,,,
52.9531250000,6,-0.4431152046,,,
52.9687500000,6,-0.5542755127,,,
52.9843750000,6,-0.5797728896,,,
53.0000000000,6,-0.4844818115,,,
53.0156250000,6,-0.3061523139,,,
53.0312500000,6,-0.1386871040,,,
53.0468750000,6,-0.0644683763,,,
53.0625000000,6,-0.1208344027,,,
53.0781250000,6,-0.2670592964,,,
53.0937500000,6,-0.4303283989,,,
53.1093750000,6,-0.5341948867,,,
53.1250000000,6,-0.5426635742,,,
53.1406250000,6,-0.4505310059,,,
53.1562500000,6,-0.3037567139,,,
53.1718750000,6,-0.1688690037,,,
53.1875000000,6,-0.1088866964,,,
53.2031250000,6,-0.1683043987,,,
53.2187500000,6,-0.3439941108,,,
53.2343750000,6,-0.5814362168,,,
53.2500000000,6,-0.7907410264,,,
53.2656250000,6,-0.8756561279,,,
53.2812500000,6,-0.7561035156,,,
53.2968750000,6,-0.4293518066,,,
53.3125000000,6,0.0400390588,,,
53.3281250000,6,0.5282592773,,,
53.3437500000,6,0.9100189209,,,
53.3593750000,6,1.1139830351,,,
53.3750000000,6,1.1594539881,,,
53.3906250000,6,1.1259160042,,,
53.4062500000,6,1.1217190027,,,
53.4218750000,6,1.2080539465,,,
53.4375000000,6,1.3625179529,,,
53.4531250000,6,1.4899749756,,,
53.4687500000,6,1.4715269804,,,
53.4843750000,6,1.2390899658,,,
53.5000000000,6,0.8159484863,,,
53.5156250000,6,0.3290557861,,,
53.5312500000,6,-0.0723877028,,,
53.5468750000,6,-0.2927703857,,,
53.5625000000,6,-0.3393859863,,,
53.5781250000,6,-0.3166655898,,,
53.5937500000,6,-0.3433074951,,,
53.6093750000,6,-0.4729613960,,,
53.6250000000,6,-0.6644744873,,,
53.6406250000,6,-0.8138123155,,,
53.6562500000,6,-0.8311614990,,,
53.6718750000,6,-0.7033234239,,,
53.6875000000,6,-0.4847869873,,,
53.7031250000,6,-0.2463379055,,,
53.7187500000,6,-0.0340423584,,,
53.7343750000,6,0.1670379937,,,
53.7500000000,6,0.3743591011,,,
53.7656250000,6,0.5707244873,,,
53.7812500000,6,0.6837615967,,,
53.7968750000,6,0.6359406114,,,
53.8125000000,6,0.4128570855,,,
53.8281250000,6,0.1028899997,,,
53.8437500000,6,-0.1328125000,,,
53.8593750000,6,-0.1761168987,,,
53.8750000000,6,-0.0081329346,,,
53.8906250000,6,0.2449035943,,,
53.9062500000,6,0.4028778076,,,
53.9218750000,6,0.3265532851,,,
53.9375000000,6,0.0078125000,,,
53.9531250000,6,-0.4201050103,,,
53.9687500000,6,-0.7697448730,,,
53.9843750000,6,-0.8916931152,,,
54.0000000000,6,-0.7594603896,,,
54.0156250000,6,-0.4645386040,,,
54.0312500000,6,-0.1675415039,,,
54.0468750000,6,-0.0114593497,,,
54.0625000000,6,-0.0411376990,,,
54.0781250000,6,-0.2074584961,,,
54.0937500000,6,-0.4068450928,,,
54.1093750000,6,-0.5549774170,,,
54.1250000000,6,-0.6274414063,,,
54.1406250000,6,-0.6628112793,,,
54.1562500000,6,-0.7158507705,,,
54.1718750000,6,-0.8063201904,,,
54.1875000000,6,-0.8874053955,,,
54.2031250000,6,-0.8721466064,,,
54.2187500000,6,-0.6963806152,,,
54.2343750000,6,-0.3605651855,,,
54.2500000000,6,0.0471496582,,,
54.2656250000,6,0.3990631104,,,
54.2812500000,6,0.5963439941,,,
54.2968750000,6,0.6286469102,,,
54.3125000000,6,0.5781859756,,,
54.3281250000,6,0.5620880127,,,
54.3437500000,6,0.6629639268,,,
54.3593750000,6,0.8674926758,,,
54.3750000000,6,1.0694429874,,,
54.3906250000,6,1.1363830566,,,
54.4062500000,6,0.9989318848,,,
54.4218750000,6,0.6961212158,,,
54.4375000000,6,0.3542479873,,,
54.4531250000,6,0.1286468953,,,
54.4687500000,6,0.1045380011,,,
54.4843750000,6,0.2464293987,,,
54.5000000000,6,0.4264984131,,,
54.5156250000,6,0.4974060059,,,
54.5312500000,6,0.4027709961,,,
54.5468750000,6,0.1908417046,,,
54.5625000000,6,-0.0074768071,,,
54.5781250000,6,-0.0619049110,,,
54.5937500000,6,0.0735778809,,,
54.6093750000,6,0.3270263970,,,
54.6250000000,6,0.5619812012,,,
54.6406250000,6,0.6577758789,,,
54.6562500000,6,0.5581665039,,,
54.6718750000,6,0.3005065918,,,
54.6875000000,6,-0.0170745794,,,
54.7031250000,6,-0.2714844048,,,
54.7187500000,6,-0.3745116889,,,
54.7343750000,6,-0.3123778999,,,
54.7500000000,6,-0.1378479004,,,
54.7656250000,6,0.0408630408,,,
54.7812500000,6,0.1194304973,,,
54.7968750000,6,0.0262908898,,,
54.8125000000,6,-0.2254181057,,,
54.8281250000,6,-0.5547332764,,,
54.8437500000,6,-0.8439788818,,,
54.8593750000,6,-0.9854735732,,,
54.8750000000,6,-0.9503479004,,,
54.8906250000,6,-0.8100891113,,,
54.9062500000,6,-0.6822509766,,,
54.9218750000,6,-0.6464843750,,,
54.9375000000,6,-0.7024536133,,,
54.9531250000,6,-0.7482147217,,,
54.9687500000,6,-0.6662445068,,,
54.9843750000,6,-0.4033051133,,,
55.0000000000,6,-0.0132446298,,,
55.0156250000,6,0.3711394966,,,
55.0312500000,6,0.6079406738,,,
55.0468750000,6,0.6316375732,,,
55.0625000000,6,0.4784241021,,,
55.0781250000,6,0.2635192871,,,
55.0937500000,6,0.1130065992,,,
55.1093750000,6,0.0960083008,,,
55.1250000000,6,0.2052917033,,,
55.1406250000,6,0.3696747124,,,
55.1562500000,6,0.5096740723,,,
55.1718750000,6,0.5658875108,,,
55.1875000000,6,0.5131835938,,,
55.2031250000,6,0.3637847900,,,
55.2187500000,6,0.1424560994,,,
55.2343750000,6,-0.1230468974,,,
55.2500000000,6,-0.3964081109,,,
55.2656250000,6,-0.6395111084,,,
55.2812500000,6,-0.8260498047,,,
55.2968750000,6,-0.9284058213,,,
55.3125000000,6,-0.9325103760,,,
55.3281250000,6,-0.8391113281,,,
55.3437500000,6,-0.6625061035,,,
55.3593750000,6,-0.4374541938,,,
55.3750000000,6,-0.1883697957,,,
55.3906250000,6,0.0727996826,,,
55.4062500000,6,0.3546752930,,,
55.4218750000,6,0.6538544297,,,
55.4375000000,6,0.9387053847,,,
55.4531250000,6,1.1406710148,,,
55.4687500000,6,1.1897579432,,,
55.4843750000,6,1.0575560331,,,
55.5000000000,6,0.7733917236,,,
55.5156250000,6,0.4473114014,,,
55.5312500000,6,0.2058105022,,,
55.5468750000,6,0.1314544976,,,
55.5625000000,6,0.2190704048,,,
55.5781250000,6,0.4021911919,,,
55.5937500000,6,0.5722808838,,,
55.6093750000,6,0.6327515244,,,
55.6250000000,6,0.5294647217,,,
55.6406250000,6,0.2402344048,,,
55.6562500000,6,-0.1945648044,,,
55.6718750000,6,-0.7010192871,,,
55.6875000000,6,-1.1763759851,,,
55.7031250000,6,-1.4971159697,,,
55.7187500000,6,-1.5618439913,,,
55.7343750000,6,-1.3330229521,,,
55.7500000000,6,-0.8647919297,,,
55.7656250000,6,-0.2769469917,,,
55.7812500000,6,0.2725676894,,,
55.7968750000,6,0.6551207900,,,
55.8125000000,6,0.8075562119,,,
55.8281250000,6,0.7210388184,,,
55.8437500000,6,0.4372101128,,,
55.8593750000,6,0.0308227502,,,
55.8750000000,6,-0.4203032851,,,
55.8906250000,6,-0.8199768066,,,
55.9062500000,6,-1.0717320442,,,
55.9218750000,6,-1.1074680090,,,
55.9375000000,6,-0.9111328125,,,
55.9531250000,6,-0.5454558730,,,
55.9687500000,6,-0.1368560940,,,
55.9843750000,6,0.1836699992,,,
56.0000000000,7,0.3213042915,,,
56.0156250000,7,0.2560882866,,,
56.0312500000,7,0.0689392090,,,
56.0468750000,7,-0.1125793010,,,
56.0625000000,7,-0.1845550984,,,
56.0781250000,7,-0.0939788818,,,
56.0937500000,7,0.1373596042,,,
56.1093750000,7,0.4114226997,,,
56.1250000000,7,0.6253662109,,,
56.1406250000,7,0.6771851182,,,
56.1562500000,7,0.5261688232,,,
56.1718750000,7,0.2178954929,,,
56.1875000000,7,-0.1402129978,,,
56.2031250000,7,-0.4154509902,,,
56.2187500000,7,-0.5106964111,,,
