Time:4Hz,Epoch,Channel 1,Event Id,Event Date,Event Duration
0.0000000000,0,0.0781329572,,,
0.2500000000,0,0.0781329572,,,
0.5000000000,0,0.0794138312,,,
0.7500000000,0,0.0819755718,,,
1.0000000000,0,0.0781329572,,,
1.2500000000,0,0.0806947127,,,
1.5000000000,0,0.0768520981,,,
1.7500000000,0,0.0806947127,,,
2.0000000000,0,0.0960651189,,,
2.2500000000,0,0.0794138312,,,
2.5000000000,0,0.0781329572,,,
2.7500000000,0,0.0755712315,,,
3.0000000000,0,0.0806947127,,,
3.2500000000,0,0.0781329572,,,
3.5000000000,0,0.0806947127,,,
3.7500000000,0,0.0768520981,,,
4.0000000000,0,0.0794138312,,,
4.2500000000,0,0.0768520981,,,
4.5000000000,0,0.0768520981,,,
4.7500000000,0,0.0806947127,,,
5.0000000000,0,0.0768520981,,,
5.2500000000,0,0.0806947127,,,
5.5000000000,0,0.0755712315,,,
5.7500000000,0,0.0794138312,,,
6.0000000000,0,0.0742903575,,,
6.2500000000,0,0.0806947127,,,
6.5000000000,0,0.0768520981,,,
6.7500000000,0,0.0768520981,,,
7.0000000000,0,0.0794138312,,,
7.2500000000,0,0.0755712315,33025:33024,7.2500000000:7.4062500000,0.0000000000:0.0000000000
7.5000000000,0,0.0781329572,,,
7.7500000000,0,0.0755712315,,,
8.0000000000,1,0.0794138312,,,
8.2500000000,1,0.0742903575,,,
8.5000000000,1,0.0755712315,,,
8.7500000000,1,0.0781329572,,,
9.0000000000,1,0.0755712315,,,
9.2500000000,1,0.0781329572,,,
9.5000000000,1,0.0755712315,,,
9.7500000000,1,0.0781329572,,,
10.0000000000,1,0.0755712315,,,
10.2500000000,1,0.0973459929,,,
10.5000000000,1,0.0794138312,,,
10.7500000000,1,0.0755712315,,,
11.0000000000,1,0.0755712315,,,
11.2500000000,1,0.0755712315,,,
11.5000000000,1,0.0794138312,,,
11.7500000000,1,0.0755712315,,,
12.0000000000,1,0.0755712315,,,
12.2500000000,1,0.0781329572,,,
12.5000000000,1,0.0755712315,,,
12.7500000000,1,0.0781329572,,,
13.0000000000,1,0.0755712315,,,
13.2500000000,1,0.0768520981,,,
13.5000000000,1,0.0742903575,,,
13.7500000000,1,0.0730094910,,,
14.0000000000,1,0.0781329572,,,
14.2500000000,1,0.0730094910,,,
14.5000000000,1,0.0794138312,,,
14.7500000000,1,0.0755712315,,,
15.0000000000,1,0.0781329572,,,
15.2500000000,1,0.0742903575,,,
15.5000000000,1,0.0768520981,,,
15.7500000000,1,0.0730094910,,,
16.0000000000,2,0.0742903575,,,
16.2500000000,2,0.0755712315,,,
16.5000000000,2,0.0717286170,,,
16.7500000000,2,0.0768520981,,,
17.0000000000,2,0.0730094910,,,
17.2500000000,2,0.0768520981,,,
17.5000000000,2,0.0730094910,,,
17.7500000000,2,0.0742903575,,,
18.0000000000,2,0.0768520981,,,
18.2500000000,2,0.0742903575,,,
18.5000000000,2,0.0755712315,,,
18.7500000000,2,0.0730094910,,,
19.0000000000,2,0.0768520981,,,
19.2500000000,2,0.0704477578,,,
19.5000000000,2,0.0755712315,,,
19.7500000000,2,0.0768520981,,,
20.0000000000,2,0.0730094910,,,
20.2500000000,2,0.0768520981,,,
20.5000000000,2,0.0730094910,,,
20.7500000000,2,0.0755712315,,,
21.0000000000,2,0.0730094910,,,
21.2500000000,2,0.0755712315,,,
21.5000000000,2,0.0730094910,,,
21.7500000000,2,0.0730094910,,,
22.0000000000,2,0.0742903575,,,
22.2500000000,2,0.0717286170,,,
22.5000000000,2,0.0742903575,,,
22.7500000000,2,0.0730094910,,,
23.0000000000,2,0.0755712315,,,
23.2500000000,2,0.0717286170,,,
23.5000000000,2,0.0717286170,,,
23.7500000000,2,0.0730094910,,,
24.0000000000,3,0.0717286170,,,
24.2500000000,3,0.0717286170,,,
24.5000000000,3,0.0717286170,,,
24.7500000000,3,0.0691668764,,,
25.0000000000,3,0.0717286170,,,
25.2500000000,3,0.0742903575,,,
25.5000000000,3,0.0730094910,,,
25.7500000000,3,0.0717286170,,,
26.0000000000,3,0.0742903575,,,
26.2500000000,3,0.0717286170,,,
26.5000000000,3,0.0742903575,,,
26.7500000000,3,0.0717286170,,,
27.0000000000,3,0.0742903575,,,
27.2500000000,3,0.0704477578,,,
27.5000000000,3,0.0666051507,,,
27.7500000000,3,0.0742903575,,,
28.0000000000,3,0.0717286170,,,
28.2500000000,3,0.0730094910,,,
28.5000000000,3,0.0717286170,,,
28.7500000000,3,0.0742903575,,,
29.0000000000,3,0.0704477578,,,
29.2500000000,3,0.0704477578,,,
29.5000000000,3,0.0730094910,,,
29.7500000000,3,0.0704477578,,,
30.0000000000,3,0.0717286170,,,
30.2500000000,3,0.0653242767,,,
30.5000000000,3,0.0730094910,,,
30.7500000000,3,0.0704477578,,,
31.0000000000,3,0.0717286170,,,
31.2500000000,3,0.0730094910,,,
31.5000000000,3,0.0704477578,,,
31.7500000000,3,0.0730094910,,,
32.0000000000,4,0.0704477578,,,
32.2500000000,4,0.0730094910,,,
32.5000000000,4,0.0704477578,,,
32.7500000000,4,0.0717286170,,,
33.0000000000,4,0.0678860173,,,
33.2500000000,4,0.0704477578,,,
33.5000000000,4,0.0730094910,,,
33.7500000000,4,0.0691668764,,,
34.0000000000,4,0.0717286170,,,
34.2500000000,4,0.0704477578,,,
34.5000000000,4,0.0730094910,,,
34.7500000000,4,0.0691668764,,,
35.0000000000,4,0.0704477578,,,
35.2500000000,4,0.0730094910,,,
35.5000000000,4,0.0691668764,,,
35.7500000000,4,0.0678860173,,,
36.0000000000,4,0.0691668764,,,
36.2500000000,4,0.0730094910,,,
36.5000000000,4,0.0691668764,,,
36.7500000000,4,0.0730094910,,,
37.0000000000,4,0.0717286170,,,
37.2500000000,4,0.0691668764,,,
37.5000000000,4,0.0717286170,,,
37.7500000000,4,0.0691668764,,,
38.0000000000,4,0.0717286170,,,
38.2500000000,4,0.0691668764,,,
38.5000000000,4,0.0666051507,,,
38.7500000000,4,0.0717286170,,,
39.0000000000,4,0.0704477578,,,
39.2500000000,4,0.0730094910,,,
39.5000000000,4,0.0691668764,,,
39.7500000000,4,0.0704477578,,,
40.0000000000,5,0.0691668764,,,
40.2500000000,5,0.0717286170,,,
40.5000000000,5,0.0717286170,,,
40.7500000000,5,0.0691668764,,,
41.0000000000,5,0.0717286170,,,
41.2500000000,5,0.0666051507,,,
41.5000000000,5,0.0704477578,,,
41.7500000000,5,0.0691668764,,,
42.0000000000,5,0.0717286170,,,
42.2500000000,5,0.0678860173,,,
42.5000000000,5,0.0678860173,,,
42.7500000000,5,0.0704477578,,,
43.0000000000,5,0.0678860173,,,
43.2500000000,5,0.0704477578,,,
43.5000000000,5,0.0678860173,,,
43.7500000000,5,0.0704477578,,,
44.0000000000,5,0.0653242767,,,
44.2500000000,5,0.0704477578,,,
44.5000000000,5,0.0691668764,,,
44.7500000000,5,0.0678860173,,,
45.0000000000,5,0.0704477578,,,
45.2500000000,5,0.0678860173,,,
45.5000000000,5,0.0691668764,,,
45.7500000000,5,0.0678860173,,,
46.0000000000,5,0.0691668764,,,
46.2500000000,5,0.0666051507,,,
46.5000000000,5,0.0678860173,,,
46.7500000000,5,0.0691668764,,,
47.0000000000,5,0.0678860173,,,
47.2500000000,5,0.0717286170,,,
47.5000000000,5,0.0678860173,,,
47.7500000000,5,0.0704477578,,,
48.0000000000,6,0.0678860173,,,
48.2500000000,6,0.0704477578,,,
48.5000000000,6,0.0704477578,,,
48.7500000000,6,0.0678860173,,,
49.0000000000,6,0.0691668764,,,
49.2500000000,6,0.0678860173,,,
49.5000000000,6,0.0678860173,,,
49.7500000000,6,0.0666051507,,,
50.0000000000,6,0.0678860173,,,
50.2500000000,6,0.0691668764,,,
50.5000000000,6,0.0678860173,,,
50.7500000000,6,0.0704477578,,,
51.0000000000,6,0.0666051507,,,
51.2500000000,6,0.0704477578,,,
51.5000000000,6,0.0691668764,,,
51.7500000000,6,0.0704477578,,,
52.0000000000,6,0.0704477578,,,
52.2500000000,6,0.0666051507,,,
52.5000000000,6,0.0704477578,,,
52.7500000000,6,0.0678860173,,,
53.0000000000,6,0.0704477578,,,
53.2500000000,6,0.0666051507,,,
53.5000000000,6,0.0678860173,,,
53.7500000000,6,0.0704477578,,,
54.0000000000,6,0.0678860173,,,
54.2500000000,6,0.0704477578,,,
54.5000000000,6,0.0678860173,,,
54.7500000000,6,0.0691668764,,,
55.0000000000,6,0.0653242767,,,
55.2500000000,6,0.0678860173,,,
55.5000000000,6,0.0704477578,,,
55.7500000000,6,0.0691668764,,,
56.0000000000,7,0.0691668764,,,
56.2500000000,7,0.0666051507,,,
56.5000000000,7,0.0704477578,,,
56.7500000000,7,0.0666051507,,,
57.0000000000,7,0.0666051507,,,
57.2500000000,7,0.0666051507,,,
57.5000000000,7,0.0666051507,,,
57.7500000000,7,0.0691668764,,,
58.0000000000,7,0.0666051507,,,
58.2500000000,7,0.0666051507,,,
58.5000000000,7,0.0691668764,,,
58.7500000000,7,0.0666051507,,,
59.0000000000,7,0.0691668764,,,
59.2500000000,7,0.0666051507,,,
59.5000000000,7,0.0678860173,,,
59.7500000000,7,0.0666051507,,,
60.0000000000,7,0.0666051507,,,
60.2500000000,7,0.0704477578,,,
60.5000000000,7,0.0614816807,,,
60.7500000000,7,0.0691668764,,,
61.0000000000,7,0.0666051507,,,
61.2500000000,7,0.0691668764,,,
61.5000000000,7,0.0666051507,,,
61.7500000000,7,0.0691668764,,,
62.0000000000,7,0.0691668764,,,
62.2500000000,7,0.0653242767,,,
62.5000000000,7,0.0691668764,,,
62.7500000000,7,0.0666051507,,,
63.0000000000,7,0.0678860173,,,
63.2500000000,7,0.0640434176,,,
63.5000000000,7,0.0678860173,,,
63.7500000000,7,0.0666051507,,,
64.0000000000,8,0.0666051507,,,
64.2500000000,8,0.0691668764,,,
64.5000000000,8,0.0666051507,,,
64.7500000000,8,0.0691668764,,,
65.0000000000,8,0.0653242767,,,
65.2500000000,8,0.0691668764,,,
65.5000000000,8,0.0666051507,,,
65.7500000000,8,0.0678860173,,,
66.0000000000,8,0.0666051507,,,
66.2500000000,8,0.0666051507,,,
66.5000000000,8,0.0691668764,,,
66.7500000000,8,0.0666051507,,,
67.0000000000,8,0.0678860173,,,
67.2500000000,8,0.0666051507,,,
67.5000000000,8,0.0691668764,,,
67.7500000000,8,0.0666051507,,,
68.0000000000,8,0.0666051507,,,
68.2500000000,8,0.0691668764,,,
68.5000000000,8,0.0666051507,,,
68.7500000000,8,0.0666051507,,,
69.0000000000,8,0.0666051507,,,
69.2500000000,8,0.0691668764,,,
69.5000000000,8,0.0666051507,,,
69.7500000000,8,0.0691668764,,,
70.0000000000,8,0.0666051507,,,
70.2500000000,8,0.0666051507,,,
70.5000000000,8,0.0704477578,,,
70.7500000000,8,0.0666051507,,,
71.0000000000,8,0.0678860173,,,
71.2500000000,8,0.0666051507,,,
71.5000000000,8,0.0678860173,,,
71.7500000000,8,0.0666051507,,,
72.0000000000,9,0.0640434176,,,
72.2500000000,9,0.0704477578,,,
72.5000000000,9,0.0666051507,,,
72.7500000000,9,0.0704477578,,,
73.0000000000,9,0.0666051507,,,
73.2500000000,9,0.0691668764,,,
73.5000000000,9,0.0666051507,,,
73.7500000000,9,0.0666051507,,,
74.0000000000,9,0.0691668764,,,
74.2500000000,9,0.0614816807,,,
74.5000000000,9,0.0691668764,,,
74.7500000000,9,0.0653242767,,,
75.0000000000,9,0.0691668764,,,
75.2500000000,9,0.0678860173,,,
75.5000000000,9,0.0666051507,,,
75.7500000000,9,0.0691668764,,,
76.0000000000,9,0.0666051507,,,
76.2500000000,9,0.0691668764,,,
76.5000000000,9,0.0666051507,,,
76.7500000000,9,0.0666051507,,,
77.0000000000,9,0.0678860173,,,
77.2500000000,9,0.0666051507,,,
77.5000000000,9,0.0704477578,,,
77.7500000000,9,0.0666051507,,,
78.0000000000,9,0.0691668764,,,
78.2500000000,9,0.0678860173,,,
78.5000000000,9,0.0653242767,,,
78.7500000000,9,0.0691668764,,,
79.0000000000,9,0.0858181715,,,
79.2500000000,9,0.0691668764,,,
79.5000000000,9,0.0653242767,,,
79.7500000000,9,0.0640434176,,,
80.0000000000,10,0.0691668764,,,
80.2500000000,10,0.0666051507,,,
80.5000000000,10,0.0691668764,,,
80.7500000000,10,0.0666051507,,,
81.0000000000,10,0.0666051507,,,
81.2500000000,10,0.0704477578,,,
81.5000000000,10,0.0666051507,,,
81.7500000000,10,0.0678860173,,,
82.0000000000,10,0.0666051507,,,
82.2500000000,10,0.0691668764,,,
82.5000000000,10,0.0653242767,,,
82.7500000000,10,0.0666051507,,,
83.0000000000,10,0.0691668764,,,
83.2500000000,10,0.0666051507,,,
83.5000000000,10,0.0691668764,,,
83.7500000000,10,0.0666051507,,,
84.0000000000,10,0.0666051507,,,
84.2500000000,10,0.0704477578,,,
84.5000000000,10,0.0666051507,,,
84.7500000000,10,0.0704477578,,,
85.0000000000,10,0.0666051507,,,
85.2500000000,10,0.0666051507,,,
85.5000000000,10,0.0666051507,,,
85.7500000000,10,0.0666051507,,,
86.0000000000,10,0.0691668764,,,
86.2500000000,10,0.0666051507,,,
86.5000000000,10,0.0691668764,,,
86.7500000000,10,0.0666051507,,,
87.0000000000,10,0.0691668764,,,
87.2500000000,10,0.0653242767,,,
87.5000000000,10,0.0666051507,,,
87.7500000000,10,0.0704477578,,,
88.0000000000,11,0.0653242767,,,
88.2500000000,11,0.0704477578,,,
88.5000000000,11,0.0640434176,,,
88.7500000000,11,0.0704477578,,,
89.0000000000,11,0.0691668764,,,
89.2500000000,11,0.0678860173,,,
89.5000000000,11,0.0704477578,,,
89.7500000000,11,0.0678860173,,,
90.0000000000,11,0.0704477578,,,
90.2500000000,11,0.0666051507,,,
90.5000000000,11,0.0666051507,,,
90.7500000000,11,0.0653242767,,,
91.0000000000,11,0.0666051507,,,
91.2500000000,11,0.0691668764,,,
91.5000000000,11,0.0666051507,,,
91.7500000000,11,0.0691668764,,,
92.0000000000,11,0.0691668764,,,
92.2500000000,11,0.0666051507,,,
92.5000000000,11,0.0704477578,,,
92.7500000000,11,0.0666051507,,,
93.0000000000,11,0.0704477578,,,
93.2500000000,11,0.0666051507,,,
93.5000000000,11,0.0666051507,,,
93.7500000000,11,0.0666051507,,,
94.0000000000,11,0.0678860173,,,
94.2500000000,11,0.0704477578,,,
94.5000000000,11,0.0678860173,,,
94.7500000000,11,0.0704477578,,,
95.0000000000,11,0.0678860173,,,
95.2500000000,11,0.0717286170,,,
95.5000000000,11,0.0691668764,,,
95.7500000000,11,0.0704477578,,,
96.0000000000,12,0.0730094910,,,
96.2500000000,12,0.0691668764,,,
96.5000000000,12,0.0717286170,,,
96.7500000000,12,0.0704477578,,,
97.0000000000,12,0.0717286170,,,
97.2500000000,12,0.0691668764,,,
97.5000000000,12,0.0704477578,,,
97.7500000000,12,0.0730094910,,,
98.0000000000,12,0.0691668764,,,
98.2500000000,12,0.0717286170,,,
98.5000000000,12,0.0704477578,,,
98.7500000000,12,0.0730094910,,,
99.0000000000,12,0.0666051507,,,
99.2500000000,12,0.0704477578,,,
99.5000000000,12,0.0730094910,,,
99.7500000000,12,0.0704477578,,,
100.0000000000,12,0.0730094910,,,
100.2500000000,12,0.0691668764,,,
100.5000000000,12,0.0730094910,,,
100.7500000000,12,0.0691668764,,,
101.0000000000,12,0.0717286170,,,
101.2500000000,12,0.0691668764,,,
101.5000000000,12,0.0704477578,,,
101.7500000000,12,0.0691668764,,,
102.0000000000,12,0.0691668764,,,
102.2500000000,12,0.0730094910,,,
102.5000000000,12,0.0691668764,,,
102.7500000000,12,0.0717286170,,,
103.0000000000,12,0.0691668764,,,
103.2500000000,12,0.0730094910,,,
103.5000000000,12,0.0691668764,,,
103.7500000000,12,0.0704477578,,,
104.0000000000,13,0.0730094910,,,
104.2500000000,13,0.0704477578,,,
104.5000000000,13,0.0691668764,,,
104.7500000000,13,0.0704477578,,,
105.0000000000,13,0.0742903575,,,
105.2500000000,13,0.0691668764,,,
105.5000000000,13,0.0717286170,,,
105.7500000000,13,0.0691668764,,,
106.0000000000,13,0.0704477578,,,
106.2500000000,13,0.0730094910,,,
106.5000000000,13,0.0704477578,,,
106.7500000000,13,0.0730094910,,,
107.0000000000,13,0.0704477578,,,
107.2500000000,13,0.0730094910,,,
107.5000000000,13,0.0704477578,,,
107.7500000000,13,0.0742903575,,,
108.0000000000,13,0.0704477578,,,
108.2500000000,13,0.0717286170,,,
108.5000000000,13,0.0742903575,,,
108.7500000000,13,0.0704477578,,,
109.0000000000,13,0.0730094910,,,
109.2500000000,13,0.0704477578,,,
109.5000000000,13,0.0742903575,,,
109.7500000000,13,0.0704477578,,,
110.0000000000,13,0.0704477578,,,
110.2500000000,13,0.0704477578,,,
110.5000000000,13,0.0730094910,,,
110.7500000000,13,0.0742903575,,,
111.0000000000,13,0.0704477578,,,
111.2500000000,13,0.0730094910,,,
111.5000000000,13,0.0704477578,,,
111.7500000000,13,0.0730094910,,,
112.0000000000,14,0.0704477578,,,
112.2500000000,14,0.0730094910,,,
112.5000000000,14,0.0704477578,,,
112.7500000000,14,0.0666051507,,,
113.0000000000,14,0.0730094910,,,
113.2500000000,14,0.0678860173,,,
113.5000000000,14,0.0730094910,,,
113.7500000000,14,0.0704477578,,,
114.0000000000,14,0.0717286170,,,
114.2500000000,14,0.0691668764,,,
114.5000000000,14,0.0730094910,,,
114.7500000000,14,0.0678860173,,,
115.0000000000,14,0.0691668764,,,
115.2500000000,14,0.0717286170,,,
115.5000000000,14,0.0691668764,,,
115.7500000000,14,0.0742903575,,,
116.0000000000,14,0.0691668764,,,
116.2500000000,14,0.0717286170,,,
116.5000000000,14,0.0678860173,,,
116.7500000000,14,0.0730094910,,,
117.0000000000,14,0.0730094910,,,
117.2500000000,14,0.0691668764,,,
117.5000000000,14,0.0717286170,,,
117.7500000000,14,0.0691668764,,,
118.0000000000,14,0.0704477578,,,
118.2500000000,14,0.0666051507,,,
118.5000000000,14,0.0717286170,,,
118.7500000000,14,0.0717286170,,,
119.0000000000,14,0.0691668764,,,
119.2500000000,14,0.0717286170,,,
119.5000000000,14,0.0691668764,,,
119.7500000000,14,0.0717286170,,,
120.0000000000,15,0.0678860173,,,
120.2500000000,15,0.0704477578,,,
120.5000000000,15,0.0717286170,,,
120.7500000000,15,0.0691668764,,,
121.0000000000,15,0.0666051507,,,
121.2500000000,15,0.0678860173,,,
121.5000000000,15,0.0704477578,,,
121.7500000000,15,0.0678860173,,,
122.0000000000,15,0.0691668764,,,
122.2500000000,15,0.0717286170,,,
122.5000000000,15,0.0678860173,,,
122.7500000000,15,0.0704477578,,,
123.0000000000,15,0.0870990530,,,
123.2500000000,15,0.0704477578,,,
123.5000000000,15,0.0678860173,,,
123.7500000000,15,0.0691668764,,,
124.0000000000,15,0.0678860173,,,
124.2500000000,15,0.0691668764,,,
124.5000000000,15,0.0717286170,,,
124.7500000000,15,0.0691668764,,,
125.0000000000,15,0.0717286170,,,
125.2500000000,15,0.0678860173,,,
125.5000000000,15,0.0717286170,,,
125.7500000000,15,0.0678860173,,,
126.0000000000,15,0.0691668764,,,
126.2500000000,15,0.0717286170,,,
126.5000000000,15,0.0666051507,,,
126.7500000000,15,0.0717286170,,,
127.0000000000,15,0.0678860173,,,
127.2500000000,15,0.0704477578,,,
127.5000000000,15,0.0678860173,,,
127.7500000000,15,0.0691668764,,,
128.0000000000,16,0.0666051507,,,
128.2500000000,16,0.0678860173,,,
128.5000000000,16,0.0704477578,,,
128.7500000000,16,0.0704477578,,,
129.0000000000,16,0.0704477578,,,
129.2500000000,16,0.0627625436,,,
129.5000000000,16,0.0691668764,,,
129.7500000000,16,0.0640434176,,,
130.0000000000,16,0.0678860173,,,
130.2500000000,16,0.0704477578,,,
130.5000000000,16,0.0678860173,,,
130.7500000000,16,0.0704477578,,,
131.0000000000,16,0.0678860173,,,
131.2500000000,16,0.0704477578,,,
131.5000000000,16,0.0678860173,,,
131.7500000000,16,0.0704477578,,,
132.0000000000,16,0.0653242767,,,
132.2500000000,16,0.0678860173,,,
132.5000000000,16,0.0717286170,,,
132.7500000000,16,0.0678860173,,,
133.0000000000,16,0.0704477578,,,
133.2500000000,16,0.0666051507,,,
133.5000000000,16,0.0653242767,,,
133.7500000000,16,0.0614816807,,,
134.0000000000,16,0.0614816807,,,
134.2500000000,16,0.0589199401,,,
134.5000000000,16,0.0537964702,,,
134.7500000000,16,0.0499538593,,,
135.0000000000,16,0.0512347296,,,
135.2500000000,16,0.0563581996,,,
135.5000000000,16,0.0537964702,,,
135.7500000000,16,0.0589199401,,,
136.0000000000,17,0.0602008104,,,
136.2500000000,17,0.0653242767,,,
136.5000000000,17,0.0730094910,,,
136.7500000000,17,0.0704477578,,,
137.0000000000,17,0.0742903575,,,
137.2500000000,17,0.0717286170,,,
137.5000000000,17,0.0704477578,,,
137.7500000000,17,0.0717286170,,,
138.0000000000,17,0.0755712315,,,
138.2500000000,17,0.0730094910,,,
138.5000000000,17,0.0717286170,,,
138.7500000000,17,0.0666051507,,,
139.0000000000,17,0.0653242767,,,
139.2500000000,17,0.0666051507,,,
139.5000000000,17,0.0640434176,,,
139.7500000000,17,0.0678860173,,,
140.0000000000,17,0.0640434176,,,
140.2500000000,17,0.0666051507,,,
140.5000000000,17,0.0640434176,,,
140.7500000000,17,0.0678860173,,,
141.0000000000,17,0.0640434176,,,
141.2500000000,17,0.0640434176,,,
141.5000000000,17,0.0666051507,,,
141.7500000000,17,0.0640434176,,,
142.0000000000,17,0.0666051507,,,
142.2500000000,17,0.0640434176,,,
142.5000000000,17,0.0666051507,,,
142.7500000000,17,0.0640434176,,,
143.0000000000,17,0.0640434176,,,
143.2500000000,17,0.0678860173,,,
143.5000000000,17,0.0589199401,,,
143.7500000000,17,0.0627625436,,,
144.0000000000,18,0.0602008104,,,
144.2500000000,18,0.0627625436,,,
144.5000000000,18,0.0627625436,,,
144.7500000000,18,0.0666051507,,,
145.0000000000,18,0.0653242767,,,
145.2500000000,18,0.0653242767,,,
145.5000000000,18,0.0691668764,,,
145.7500000000,18,0.0653242767,,,
146.0000000000,18,0.0691668764,,,
146.2500000000,18,0.0666051507,,,
146.5000000000,18,0.0691668764,,,
146.7500000000,18,0.0666051507,,,
147.0000000000,18,0.0666051507,,,
147.2500000000,18,0.0704477578,,,
147.5000000000,18,0.0666051507,,,
147.7500000000,18,0.0678860173,,,
148.0000000000,18,0.0666051507,,,
148.2500000000,18,0.0691668764,,,
148.5000000000,18,0.0653242767,,,
148.7500000000,18,0.0691668764,,,
149.0000000000,18,0.0704477578,,,
149.2500000000,18,0.0666051507,,,
149.5000000000,18,0.0704477578,,,
149.7500000000,18,0.0666051507,,,
150.0000000000,18,0.0704477578,,,
150.2500000000,18,0.0666051507,,,
150.5000000000,18,0.0691668764,,,
150.7500000000,18,0.0666051507,,,
151.0000000000,18,0.0691668764,,,
151.2500000000,18,0.0678860173,,,
151.5000000000,18,0.0666051507,,,
151.7500000000,18,0.0704477578,,,
152.0000000000,19,0.0678860173,,,
152.2500000000,19,0.0704477578,,,
152.5000000000,19,0.0666051507,,,
152.7500000000,19,0.0691668764,,,
153.0000000000,19,0.0666051507,,,
153.2500000000,19,0.0678860173,,,
153.5000000000,19,0.0704477578,,,
153.7500000000,19,0.0678860173,,,
154.0000000000,19,0.0666051507,,,
154.2500000000,19,0.0678860173,,,
154.5000000000,19,0.0717286170,,,
154.7500000000,19,0.0666051507,,,
155.0000000000,19,0.0704477578,,,
155.2500000000,19,0.0717286170,,,
155.5000000000,19,0.0678860173,,,
155.7500000000,19,0.0717286170,,,
156.0000000000,19,0.0678860173,,,
156.2500000000,19,0.0704477578,,,
156.5000000000,19,0.0691668764,,,
156.7500000000,19,0.0678860173,,,
157.0000000000,19,0.0678860173,,,
157.2500000000,19,0.0691668764,,,
157.5000000000,19,0.0717286170,,,
157.7500000000,19,0.0691668764,,,
158.0000000000,19,0.0704477578,,,
158.2500000000,19,0.0678860173,,,
158.5000000000,19,0.0704477578,,,
158.7500000000,19,0.0678860173,,,
159.0000000000,19,0.0678860173,,,
159.2500000000,19,0.0704477578,,,
159.5000000000,19,0.0653242767,,,
159.7500000000,19,0.0704477578,,,
160.0000000000,20,0.0678860173,,,
160.2500000000,20,0.0691668764,,,
160.5000000000,20,0.0666051507,,,
160.7500000000,20,0.0704477578,,,
161.0000000000,20,0.0717286170,,,
161.2500000000,20,0.0678860173,,,
161.5000000000,20,0.0704477578,,,
161.7500000000,20,0.0678860173,,,
162.0000000000,20,0.0704477578,,,
162.2500000000,20,0.0691668764,,,
162.5000000000,20,0.0704477578,,,
162.7500000000,20,0.0653242767,,,
163.0000000000,20,0.0678860173,,,
163.2500000000,20,0.0704477578,,,
163.5000000000,20,0.0678860173,,,
163.7500000000,20,0.0691668764,,,
164.0000000000,20,0.0666051507,,,
164.2500000000,20,0.0691668764,,,
164.5000000000,20,0.0666051507,,,
164.7500000000,20,0.0678860173,,,
165.0000000000,20,0.0691668764,33025:33024,165.0312500000:165.1875000000,0.0000000000:0.0000000000
165.2500000000,20,0.0678860173,,,
165.5000000000,20,0.0717286170,,,
165.7500000000,20,0.0678860173,,,
166.0000000000,20,0.0717286170,,,
166.2500000000,20,0.0717286170,,,
166.5000000000,20,0.0691668764,,,
166.7500000000,20,0.0717286170,,,
167.0000000000,20,0.0678860173,,,
167.2500000000,20,0.0717286170,,,
167.5000000000,20,0.0691668764,,,
167.7500000000,20,0.0691668764,,,
168.0000000000,21,0.0678860173,,,
168.2500000000,21,0.0691668764,,,
168.5000000000,21,0.0717286170,,,
168.7500000000,21,0.0678860173,,,
169.0000000000,21,0.0691668764,,,
169.2500000000,21,0.0678860173,,,
169.5000000000,21,0.0704477578,,,
169.7500000000,21,0.0678860173,,,
170.0000000000,21,0.0678860173,,,
170.2500000000,21,0.0717286170,,,
170.5000000000,21,0.0678860173,,,
170.7500000000,21,0.0717286170,,,
171.0000000000,21,0.0691668764,,,
171.2500000000,21,0.0717286170,,,
171.5000000000,21,0.0691668764,,,
171.7500000000,21,0.0717286170,,,
172.0000000000,21,0.0678860173,,,
172.2500000000,21,0.0691668764,,,
172.5000000000,21,0.0704477578,,,
172.7500000000,21,0.0691668764,,,
173.0000000000,21,0.0717286170,,,
173.2500000000,21,0.0678860173,,,
173.5000000000,21,0.0717286170,,,
173.7500000000,21,0.0678860173,,,
174.0000000000,21,0.0717286170,,,
174.2500000000,21,0.0691668764,,,
174.5000000000,21,0.0730094910,,,
174.7500000000,21,0.0755712315,,,
175.0000000000,21,0.0704477578,,,
175.2500000000,21,0.0755712315,,,
175.5000000000,21,0.0730094910,,,
175.7500000000,21,0.0755712315,,,
176.0000000000,22,0.0717286170,,,
176.2500000000,22,0.0730094910,,,
176.5000000000,22,0.0704477578,,,
176.7500000000,22,0.0717286170,,,
177.0000000000,22,0.0742903575,,,
177.2500000000,22,0.0717286170,,,
177.5000000000,22,0.0742903575,,,
177.7500000000,22,0.0717286170,,,
178.0000000000,22,0.0742903575,,,
178.2500000000,22,0.0717286170,,,
178.5000000000,22,0.0742903575,,,
178.7500000000,22,0.0704477578,,,
179.0000000000,22,0.0717286170,,,
179.2500000000,22,0.0768520981,,,
179.5000000000,22,0.0717286170,,,
179.7500000000,22,0.0755712315,,,
180.0000000000,22,0.0717286170,,,
180.2500000000,22,0.0730094910,,,
180.5000000000,22,0.0704477578,,,
180.7500000000,22,0.0742903575,,,
181.0000000000,22,0.0717286170,,,
181.2500000000,22,0.0717286170,,,
181.5000000000,22,0.0730094910,,,
181.7500000000,22,0.0717286170,,,
182.0000000000,22,0.0742903575,,,
182.2500000000,22,0.0717286170,,,
182.5000000000,22,0.0730094910,,,
182.7500000000,22,0.0717286170,,,
183.0000000000,22,0.0730094910,,,
183.2500000000,22,0.0704477578,,,
183.5000000000,22,0.0730094910,,,
183.7500000000,22,0.0691668764,,,
184.0000000000,23,0.0704477578,,,
184.2500000000,23,0.0730094910,,,
184.5000000000,23,0.0704477578,,,
184.7500000000,23,0.0742903575,,,
185.0000000000,23,0.0691668764,,,
185.2500000000,23,0.0730094910,,,
185.5000000000,23,0.0691668764,,,
185.7500000000,23,0.0717286170,,,
186.0000000000,23,0.0704477578,,,
186.2500000000,23,0.0704477578,,,
186.5000000000,23,0.0742903575,,,
186.7500000000,23,0.0704477578,,,
187.0000000000,23,0.0678860173,,,
187.2500000000,23,0.0704477578,,,
187.5000000000,23,0.0730094910,,,
187.7500000000,23,0.0678860173,,,
188.0000000000,23,0.0717286170,,,
188.2500000000,23,0.0678860173,,,
188.5000000000,23,0.0678860173,,,
188.7500000000,23,0.0730094910,,,
189.0000000000,23,0.0653242767,,,
189.2500000000,23,0.0666051507,,,
189.5000000000,23,0.0627625436,,,
189.7500000000,23,0.0627625436,,,
190.0000000000,23,0.0691668764,,,
190.2500000000,23,0.0717286170,,,
190.5000000000,23,0.0755712315,,,
190.7500000000,23,0.0704477578,,,
191.0000000000,23,0.0691668764,,,
191.2500000000,23,0.0666051507,,,
191.5000000000,23,0.0691668764,,,
191.7500000000,23,0.0691668764,,,
192.0000000000,24,0.0730094910,,,
192.2500000000,24,0.0691668764,,,
192.5000000000,24,0.0678860173,,,
192.7500000000,24,0.0730094910,,,
193.0000000000,24,0.0717286170,,,
193.2500000000,24,0.0730094910,,,
193.5000000000,24,0.0704477578,,,
193.7500000000,24,0.0730094910,,,
194.0000000000,24,0.0717286170,,,
194.2500000000,24,0.0742903575,,,
194.5000000000,24,0.0717286170,,,
194.7500000000,24,0.0717286170,,,
195.0000000000,24,0.0742903575,,,
195.2500000000,24,0.0678860173,,,
195.5000000000,24,0.0742903575,,,
195.7500000000,24,0.0730094910,,,
196.0000000000,24,0.0755712315,,,
196.2500000000,24,0.0717286170,,,
196.5000000000,24,0.0742903575,,,
196.7500000000,24,0.0717286170,,,
197.0000000000,24,0.0717286170,,,
197.2500000000,24,0.0730094910,,,
197.5000000000,24,0.0691668764,,,
197.7500000000,24,0.0730094910,,,
198.0000000000,24,0.0666051507,,,
198.2500000000,24,0.0717286170,,,
198.5000000000,24,0.0691668764,,,
198.7500000000,24,0.0704477578,,,
199.0000000000,24,0.0730094910,,,
199.2500000000,24,0.0691668764,,,
199.5000000000,24,0.0730094910,,,
199.7500000000,24,0.0691668764,,,
200.0000000000,25,0.0704477578,,,
200.2500000000,25,0.0653242767,,,
200.5000000000,25,0.0653242767,,,
200.7500000000,25,0.0627625436,,,
201.0000000000,25,0.0614816807,,,
201.2500000000,25,0.0730094910,,,
201.5000000000,25,0.0730094910,,,
201.7500000000,25,0.0768520981,,,
202.0000000000,25,0.0742903575,,,
202.2500000000,25,0.0768520981,,,
202.5000000000,25,0.0768520981,,,
202.7500000000,25,0.0742903575,,,
203.0000000000,25,0.0781329572,,,
203.2500000000,25,0.0755712315,,,
203.5000000000,25,0.0742903575,,,
203.7500000000,25,0.0742903575,,,
204.0000000000,25,0.0768520981,,,
204.2500000000,25,0.0730094910,,,
204.5000000000,25,0.0755712315,,,
204.7500000000,25,0.0768520981,,,
205.0000000000,25,0.0742903575,,,
205.2500000000,25,0.0768520981,,,
205.5000000000,25,0.0768520981,,,
205.7500000000,25,0.0768520981,,,
206.0000000000,25,0.0755712315,,,
206.2500000000,25,0.0755712315,,,
206.5000000000,25,0.0742903575,,,
206.7500000000,25,0.0781329572,,,
207.0000000000,25,0.0781329572,,,
207.2500000000,25,0.0755712315,,,
207.5000000000,25,0.0781329572,,,
207.7500000000,25,0.0755712315,,,
208.0000000000,26,0.0781329572,,,
208.2500000000,26,0.0742903575,,,
208.5000000000,26,0.0755712315,,,
208.7500000000,26,0.0704477578,,,
209.0000000000,26,0.0691668764,,,
209.2500000000,26,0.0730094910,,,
209.5000000000,26,0.0691668764,,,
209.7500000000,26,0.0755712315,,,
210.0000000000,26,0.0717286170,,,
210.2500000000,26,0.0755712315,,,
210.5000000000,26,0.0717286170,,,
210.7500000000,26,0.0742903575,,,
211.0000000000,26,0.0717286170,,,
211.2500000000,26,0.0730094910,,,
211.5000000000,26,0.0742903575,,,
211.7500000000,26,0.0691668764,,,
212.0000000000,26,0.0742903575,,,
212.2500000000,26,0.0691668764,,,
212.5000000000,26,0.0742903575,,,
212.7500000000,26,0.0704477578,,,
213.0000000000,26,0.0742903575,,,
213.2500000000,26,0.0704477578,,,
213.5000000000,26,0.0730094910,,,
213.7500000000,26,0.0730094910,,,
214.0000000000,26,0.0704477578,,,
214.2500000000,26,0.0730094910,,,
214.5000000000,26,0.0678860173,,,
214.7500000000,26,0.0704477578,,,
215.0000000000,26,0.0691668764,,,
215.2500000000,26,0.0717286170,,,
215.5000000000,26,0.0678860173,,,
215.7500000000,26,0.0704477578,,,
216.0000000000,27,0.0691668764,,,
216.2500000000,27,0.0678860173,,,
216.5000000000,27,0.0704477578,,,
216.7500000000,27,0.0666051507,,,
217.0000000000,27,0.0691668764,,,
217.2500000000,27,0.0640434176,,,
217.5000000000,27,0.0704477578,,,
217.7500000000,27,0.0666051507,,,
218.0000000000,27,0.0691668764,,,
218.2500000000,27,0.0704477578,,,
218.5000000000,27,0.0678860173,,,
218.7500000000,27,0.0730094910,,,
219.0000000000,27,0.0691668764,,,
219.2500000000,27,0.0909416527,,,
219.5000000000,27,0.0691668764,,,
219.7500000000,27,0.0717286170,,,
220.0000000000,27,0.0653242767,,,
220.2500000000,27,0.0704477578,,,
220.5000000000,27,0.0717286170,,,
220.7500000000,27,0.0704477578,,,
221.0000000000,27,0.0730094910,,,
221.2500000000,27,0.0691668764,,,
221.5000000000,27,0.0730094910,,,
221.7500000000,27,0.0691668764,,,
222.0000000000,27,0.0730094910,,,
222.2500000000,27,0.0691668764,,,
222.5000000000,27,0.0704477578,,,
222.7500000000,27,0.0704477578,,,
223.0000000000,27,0.0691668764,,,
223.2500000000,27,0.0717286170,,,
223.5000000000,27,0.0678860173,,,
223.7500000000,27,0.0691668764,,,
224.0000000000,28,0.0717286170,,,
224.2500000000,28,0.0691668764,,,
224.5000000000,28,0.0717286170,,,
224.7500000000,28,0.0691668764,,,
225.0000000000,28,0.0717286170,,,
225.2500000000,28,0.0691668764,,,
225.5000000000,28,0.0666051507,,,
225.7500000000,28,0.0717286170,,,
226.0000000000,28,0.0691668764,,,
226.2500000000,28,0.0691668764,,,
226.5000000000,28,0.0691668764,,,
226.7500000000,28,0.0730094910,,,
227.0000000000,28,0.0704477578,,,
227.2500000000,28,0.0730094910,,,
227.5000000000,28,0.0742903575,,,
227.7500000000,28,0.0717286170,,,
228.0000000000,28,0.0742903575,,,
228.2500000000,28,0.0678860173,,,
228.5000000000,28,0.0755712315,,,
228.7500000000,28,0.0691668764,,,
229.0000000000,28,0.0742903575,,,
229.2500000000,28,0.0717286170,,,
229.5000000000,28,0.0717286170,,,
229.7500000000,28,0.0742903575,,,
230.0000000000,28,0.0717286170,,,
230.2500000000,28,0.0742903575,,,
230.5000000000,28,0.0704477578,,,
230.7500000000,28,0.0730094910,,,
231.0000000000,28,0.0678860173,,,
231.2500000000,28,0.0717286170,,,
231.5000000000,28,0.0730094910,,,
231.7500000000,28,0.0691668764,,,
232.0000000000,29,0.0717286170,,,
232.2500000000,29,0.0678860173,,,
232.5000000000,29,0.0717286170,,,
232.7500000000,29,0.0691668764,,,
233.0000000000,29,0.0717286170,,,
233.2500000000,29,0.0678860173,,,
233.5000000000,29,0.0678860173,,,
233.7500000000,29,0.0704477578,,,
234.0000000000,29,0.0678860173,,,
234.2500000000,29,0.0717286170,,,
234.5000000000,29,0.0678860173,,,
234.7500000000,29,0.0704477578,,,
235.0000000000,29,0.0678860173,,,
235.2500000000,29,0.0704477578,,,
235.5000000000,29,0.0691668764,,,
235.7500000000,29,0.0666051507,,,
236.0000000000,29,0.0704477578,,,
236.2500000000,29,0.0678860173,,,
236.5000000000,29,0.0653242767,,,
236.7500000000,29,0.0666051507,,,
237.0000000000,29,0.0704477578,,,
237.2500000000,29,0.0666051507,,,
237.5000000000,29,0.0678860173,,,
237.7500000000,29,0.0704477578,,,
238.0000000000,29,0.0666051507,,,
238.2500000000,29,0.0704477578,,,
238.5000000000,29,0.0666051507,,,
238.7500000000,29,0.0691668764,,,
239.0000000000,29,0.0666051507,,,
239.2500000000,29,0.0678860173,,,
239.5000000000,29,0.0691668764,,,
239.7500000000,29,0.0666051507,,,
240.0000000000,30,0.0704477578,,,
240.2500000000,30,0.0678860173,,,
240.5000000000,30,0.0691668764,,,
240.7500000000,30,0.0666051507,,,
241.0000000000,30,0.0704477578,,,
241.2500000000,30,0.0666051507,,,
241.5000000000,30,0.0666051507,,,
241.7500000000,30,0.0704477578,,,
242.0000000000,30,0.0640434176,,,
242.2500000000,30,0.0691668764,,,
242.5000000000,30,0.0666051507,,,
242.7500000000,30,0.0691668764,,,
243.0000000000,30,0.0653242767,,,
243.2500000000,30,0.0691668764,,,
243.5000000000,30,0.0666051507,,,
243.7500000000,30,0.0666051507,,,
244.0000000000,30,0.0691668764,,,
244.2500000000,30,0.0666051507,,,
244.5000000000,30,0.0691668764,,,
244.7500000000,30,0.0614816807,,,
245.0000000000,30,0.0691668764,,,
245.2500000000,30,0.0627625436,,,
245.5000000000,30,0.0678860173,,,
245.7500000000,30,0.0653242767,,,
246.0000000000,30,0.0666051507,,,
246.2500000000,30,0.0704477578,,,
246.5000000000,30,0.0704477578,,,
246.7500000000,30,0.0730094910,,,
247.0000000000,30,0.0691668764,,,
247.2500000000,30,0.0730094910,,,
247.5000000000,30,0.0678860173,,,
247.7500000000,30,0.0730094910,,,
248.0000000000,31,0.0704477578,,,
248.2500000000,31,0.0704477578,,,
248.5000000000,31,0.0742903575,,,
248.7500000000,31,0.0704477578,,,
249.0000000000,31,0.0717286170,,,
249.2500000000,31,0.0691668764,,,
249.5000000000,31,0.0730094910,,,
249.7500000000,31,0.0704477578,,,
250.0000000000,31,0.0704477578,,,
250.2500000000,31,0.0717286170,,,
250.5000000000,31,0.0704477578,,,
250.7500000000,31,0.0730094910,,,
251.0000000000,31,0.0704477578,,,
251.2500000000,31,0.0717286170,,,
251.5000000000,31,0.0691668764,,,
251.7500000000,31,0.0704477578,,,
252.0000000000,31,0.0730094910,,,
252.2500000000,31,0.0691668764,,,
252.5000000000,31,0.0717286170,,,
252.7500000000,31,0.0691668764,,,
253.0000000000,31,0.0691668764,,,
253.2500000000,31,0.0691668764,,,
253.5000000000,31,0.0704477578,,,
253.7500000000,31,0.0730094910,,,
254.0000000000,31,0.0691668764,,,
254.2500000000,31,0.0717286170,,,
254.5000000000,31,0.0691668764,,,
254.7500000000,31,0.0730094910,,,
255.0000000000,31,0.0691668764,,,
255.2500000000,31,0.0691668764,,,
255.5000000000,31,0.0730094910,,,
255.7500000000,31,0.0666051507,,,
256.0000000000,32,0.0717286170,,,
256.2500000000,32,0.0691668764,,,
256.5000000000,32,0.0717286170,,,
256.7500000000,32,0.0678860173,,,
257.0000000000,32,0.0691668764,,,
257.2500000000,32,0.0717286170,,,
257.5000000000,32,0.0678860173,,,
257.7500000000,32,0.0691668764,,,
258.0000000000,32,0.0666051507,,,
258.2500000000,32,0.0691668764,,,
258.5000000000,32,0.0653242767,,,
258.7500000000,32,0.0678860173,,,
259.0000000000,32,0.0704477578,,,
259.2500000000,32,0.0678860173,,,
259.5000000000,32,0.0704477578,,,
259.7500000000,32,0.0666051507,,,
260.0000000000,32,0.0691668764,,,
260.2500000000,32,0.0666051507,,,
260.5000000000,32,0.0691668764,,,
260.7500000000,32,0.0704477578,,,
261.0000000000,32,0.0704477578,,,
261.2500000000,32,0.0666051507,,,
261.5000000000,32,0.0678860173,,,
261.7500000000,32,0.0717286170,,,
262.0000000000,32,0.0666051507,,,
262.2500000000,32,0.0691668764,,,
262.5000000000,32,0.0666051507,,,
262.7500000000,32,0.0666051507,,,
263.0000000000,32,0.0704477578,,,
263.2500000000,32,0.0704477578,,,
263.5000000000,32,0.0704477578,,,
263.7500000000,32,0.0678860173,,,
264.0000000000,33,0.0678860173,,,
264.2500000000,33,0.0691668764,,,
264.5000000000,33,0.0717286170,,,
264.7500000000,33,0.0691668764,,,
265.0000000000,33,0.0691668764,,,
265.2500000000,33,0.0730094910,,,
265.5000000000,33,0.0691668764,,,
265.7500000000,33,0.0717286170,,,
266.0000000000,33,0.0691668764,,,
266.2500000000,33,0.0717286170,,,
266.5000000000,33,0.0678860173,,,
266.7500000000,33,0.0653242767,,,
267.0000000000,33,0.0717286170,,,
267.2500000000,33,0.0678860173,,,
267.5000000000,33,0.0704477578,,,
267.7500000000,33,0.0704477578,,,
268.0000000000,33,0.0730094910,,,
268.2500000000,33,0.0691668764,,,
268.5000000000,33,0.0730094910,,,
268.7500000000,33,0.0717286170,,,
269.0000000000,33,0.0691668764,,,
269.2500000000,33,0.0704477578,,,
269.5000000000,33,0.0640434176,,,
269.7500000000,33,0.0704477578,,,
270.0000000000,33,0.0666051507,,,
270.2500000000,33,0.0678860173,,,
270.5000000000,33,0.0717286170,,,
270.7500000000,33,0.0691668764,,,
271.0000000000,33,0.0730094910,,,
271.2500000000,33,0.0730094910,,,
271.5000000000,33,0.0768520981,,,
271.7500000000,33,0.0730094910,,,
272.0000000000,34,0.0768520981,,,
272.2500000000,34,0.0730094910,,,
272.5000000000,34,0.0781329572,,,
272.7500000000,34,0.0819755718,,,
273.0000000000,34,0.0781329572,,,
273.2500000000,34,0.0742903575,,,
273.5000000000,34,0.0640434176,,,
273.7500000000,34,0.0666051507,,,
274.0000000000,34,0.0627625436,,,
274.2500000000,34,0.0653242767,,,
274.5000000000,34,0.0678860173,,,
274.7500000000,34,0.0640434176,,,
275.0000000000,34,0.0653242767,,,
275.2500000000,34,0.0640434176,,,
275.5000000000,34,0.0666051507,,,
275.7500000000,34,0.0640434176,,,
276.0000000000,34,0.0666051507,,,
276.2500000000,34,0.0640434176,,,
276.5000000000,34,0.0678860173,,,
276.7500000000,34,0.0678860173,,,
277.0000000000,34,0.0653242767,,,
277.2500000000,34,0.0653242767,,,
277.5000000000,34,0.0666051507,,,
277.7500000000,34,0.0653242767,,,
278.0000000000,34,0.0666051507,,,
278.2500000000,34,0.0691668764,,,
278.5000000000,34,0.0666051507,,,
278.7500000000,34,0.0666051507,,,
279.0000000000,34,0.0678860173,,,
279.2500000000,34,0.0653242767,,,
279.5000000000,34,0.0678860173,,,
279.7500000000,34,0.0640434176,,,
280.0000000000,35,0.0666051507,,,
280.2500000000,35,0.0627625436,,,
280.5000000000,35,0.0614816807,,,
280.7500000000,35,0.0666051507,,,
281.0000000000,35,0.0640434176,,,
281.2500000000,35,0.0666051507,,,
281.5000000000,35,0.0627625436,,,
281.7500000000,35,0.0653242767,,,
282.0000000000,35,0.0627625436,,,
282.2500000000,35,0.0627625436,,,
282.5000000000,35,0.0653242767,,,
282.7500000000,35,0.0627625436,,,
283.0000000000,35,0.0627625436,,,
283.2500000000,35,0.0576390699,,,
283.5000000000,35,0.0653242767,,,
283.7500000000,35,0.0627625436,,,
284.0000000000,35,0.0653242767,,,
284.2500000000,35,0.0627625436,,,
284.5000000000,35,0.0627625436,,,
284.7500000000,35,0.0653242767,,,
285.0000000000,35,0.0653242767,,,
285.2500000000,35,0.0653242767,,,
285.5000000000,35,0.0627625436,,,
285.7500000000,35,0.0666051507,,,
286.0000000000,35,0.0602008104,,,
286.2500000000,35,0.0666051507,,,
286.5000000000,35,0.0602008104,,,
286.7500000000,35,0.0627625436,,,
287.0000000000,35,0.0653242767,,,
287.2500000000,35,0.0627625436,,,
287.5000000000,35,0.0614816807,,,
287.7500000000,35,0.0627625436,,,
288.0000000000,36,0.0640434176,,,
288.2500000000,36,0.0627625436,,,
288.5000000000,36,0.0653242767,,,
288.7500000000,36,0.0589199401,,,
289.0000000000,36,0.0627625436,,,
289.2500000000,36,0.0666051507,,,
289.5000000000,36,0.0627625436,,,
289.7500000000,36,0.0653242767,,,
290.0000000000,36,0.0614816807,,,
290.2500000000,36,0.0640434176,,,
290.5000000000,36,0.0614816807,,,
290.7500000000,36,0.0666051507,,,
291.0000000000,36,0.0678860173,,,
291.2500000000,36,0.0653242767,,,
291.5000000000,36,0.0653242767,,,
291.7500000000,36,0.0653242767,,,
292.0000000000,36,0.0691668764,,,
292.2500000000,36,0.0666051507,,,
292.5000000000,36,0.0691668764,,,
292.7500000000,36,0.0653242767,,,
293.0000000000,36,0.0666051507,,,
293.2500000000,36,0.0691668764,,,
293.5000000000,36,0.0653242767,,,
293.7500000000,36,0.0678860173,,,
294.0000000000,36,0.0653242767,,,
294.2500000000,36,0.0640434176,,,
294.5000000000,36,0.0640434176,,,
294.7500000000,36,0.0678860173,,,
295.0000000000,36,0.0640434176,,,
295.2500000000,36,0.0653242767,,,
295.5000000000,36,0.0666051507,,,
295.7500000000,36,0.0640434176,,,
296.0000000000,37,0.0678860173,,,
296.2500000000,37,0.0653242767,,,
296.5000000000,37,0.0678860173,,,
296.7500000000,37,0.0640434176,,,
297.0000000000,37,0.0653242767,,,
297.2500000000,37,0.0640434176,,,
297.5000000000,37,0.0691668764,,,
297.7500000000,37,0.0653242767,,,
298.0000000000,37,0.0653242767,,,
298.2500000000,37,0.0678860173,,,
298.5000000000,37,0.0653242767,,,
298.7500000000,37,0.0691668764,,,
299.0000000000,37,0.0653242767,,,
299.2500000000,37,0.0691668764,,,
299.5000000000,37,0.0653242767,,,
299.7500000000,37,0.0627625436,,,
300.0000000000,37,0.0730094910,,,
300.2500000000,37,0.0717286170,,,
300.5000000000,37,0.0730094910,,,
300.7500000000,37,0.0730094910,,,
301.0000000000,37,0.0730094910,,,
301.2500000000,37,0.0666051507,,,
301.5000000000,37,0.0691668764,,,
301.7500000000,37,0.0666051507,,,
302.0000000000,37,0.0666051507,,,
302.2500000000,37,0.0704477578,,,
302.5000000000,37,0.0640434176,,,
302.7500000000,37,0.0704477578,,,
303.0000000000,37,0.0678860173,,,
303.2500000000,37,0.0704477578,,,
303.5000000000,37,0.0678860173,,,
303.7500000000,37,0.0691668764,,,
304.0000000000,38,0.0666051507,,,
304.2500000000,38,0.0678860173,,,
304.5000000000,38,0.0704477578,,,
304.7500000000,38,0.0678860173,,,
305.0000000000,38,0.0666051507,,,
305.2500000000,38,0.0653242767,,,
305.5000000000,38,0.0704477578,,,
305.7500000000,38,0.0666051507,,,
306.0000000000,38,0.0691668764,,,
306.2500000000,38,0.0666051507,,,
306.5000000000,38,0.0666051507,,,
306.7500000000,38,0.0691668764,,,
307.0000000000,38,0.0666051507,,,
307.2500000000,38,0.0691668764,,,
307.5000000000,38,0.0666051507,,,
307.7500000000,38,0.0691668764,,,
308.0000000000,38,0.0614816807,,,
308.2500000000,38,0.0691668764,,,
308.5000000000,38,0.0666051507,,,
308.7500000000,38,0.0678860173,,,
309.0000000000,38,0.0691668764,,,
309.2500000000,38,0.0653242767,,,
309.5000000000,38,0.0691668764,,,
309.7500000000,38,0.0653242767,,,
310.0000000000,38,0.0678860173,,,
310.2500000000,38,0.0653242767,,,
310.5000000000,38,0.0691668764,,,
310.7500000000,38,0.0602008104,,,
311.0000000000,38,0.0666051507,,,
311.2500000000,38,0.0614816807,,,
311.5000000000,38,0.0627625436,,,
311.7500000000,38,0.0666051507,,,
312.0000000000,39,0.0640434176,,,
312.2500000000,39,0.0666051507,,,
312.5000000000,39,0.0640434176,,,
312.7500000000,39,0.0678860173,,,
313.0000000000,39,0.0640434176,,,
313.2500000000,39,0.0666051507,,,
313.5000000000,39,0.0614816807,,,
313.7500000000,39,0.0666051507,,,
314.0000000000,39,0.0678860173,,,
314.2500000000,39,0.0640434176,,,
314.5000000000,39,0.0678860173,,,
314.7500000000,39,0.0640434176,,,
315.0000000000,39,0.0666051507,,,
315.2500000000,39,0.0640434176,,,
315.5000000000,39,0.0678860173,,,
315.7500000000,39,0.0640434176,,,
316.0000000000,39,0.0678860173,,,
316.2500000000,39,0.0602008104,,,
316.5000000000,39,0.0640434176,,,
316.7500000000,39,0.0678860173,,,
317.0000000000,39,0.0640434176,,,
317.2500000000,39,0.0678860173,,,
317.5000000000,39,0.0640434176,,,
317.7500000000,39,0.0666051507,,,
318.0000000000,39,0.0640434176,,,
318.2500000000,39,0.0666051507,,,
318.5000000000,39,0.0640434176,,,
318.7500000000,39,0.0666051507,,,
319.0000000000,39,0.0589199401,,,
319.2500000000,39,0.0640434176,,,
319.5000000000,39,0.0678860173,,,
319.7500000000,39,0.0653242767,,,
320.0000000000,40,0.0653242767,,,
320.2500000000,40,0.0666051507,,,
320.5000000000,40,0.0678860173,,,
320.7500000000,40,0.0666051507,,,
321.0000000000,40,0.0704477578,,,
321.2500000000,40,0.0666051507,,,
321.5000000000,40,0.0704477578,,,
321.7500000000,40,0.0653242767,,,
322.0000000000,40,0.0666051507,,,
322.2500000000,40,0.0742903575,,,
322.5000000000,40,0.0730094910,,,
322.7500000000,40,0.0717286170,,,
323.0000000000,40,0.0678860173,,,
323.2500000000,40,0.0704477578,,,
323.5000000000,40,0.0666051507,,,
323.7500000000,40,0.0691668764,,,
324.0000000000,40,0.0666051507,,,
324.2500000000,40,0.0691668764,,,
324.5000000000,40,0.0666051507,,,
324.7500000000,40,0.0666051507,,,
325.0000000000,40,0.0691668764,,,
325.2500000000,40,0.0666051507,,,
325.5000000000,40,0.0678860173,,,
325.7500000000,40,0.0666051507,,,
326.0000000000,40,0.0691668764,,,
326.2500000000,40,0.0666051507,,,
326.5000000000,40,0.0666051507,,,
326.7500000000,40,0.0678860173,,,
327.0000000000,40,0.0666051507,,,
327.2500000000,40,0.0640434176,,,
327.5000000000,40,0.0666051507,,,
327.7500000000,40,0.0691668764,,,
328.0000000000,41,0.0653242767,,,
328.2500000000,41,0.0678860173,,,
328.5000000000,41,0.0653242767,,,
328.7500000000,41,0.0653242767,,,
329.0000000000,41,0.0678860173,,,
329.2500000000,41,0.0653242767,,,
329.5000000000,41,0.0666051507,,,
329.7500000000,41,0.0640434176,,,
330.0000000000,41,0.0640434176,,,
330.2500000000,41,0.0640434176,,,
330.5000000000,41,0.0691668764,,,
330.7500000000,41,0.0640434176,,,
331.0000000000,41,0.0653242767,,,
331.2500000000,41,0.0678860173,,,
331.5000000000,41,0.0653242767,,,
331.7500000000,41,0.0666051507,,,
332.0000000000,41,0.0640434176,,,
332.2500000000,41,0.0678860173,,,
332.5000000000,41,0.0640434176,,,
332.7500000000,41,0.0653242767,,,
333.0000000000,41,0.0640434176,,,
333.2500000000,41,0.0653242767,,,
333.5000000000,41,0.0678860173,,,
333.7500000000,41,0.0666051507,,,
334.0000000000,41,0.0666051507,,,
334.2500000000,41,0.0640434176,,,
334.5000000000,41,0.0678860173,,,
334.7500000000,41,0.0678860173,,,
335.0000000000,41,0.0717286170,,,
335.2500000000,41,0.0691668764,,,
335.5000000000,41,0.0614816807,,,
335.7500000000,41,0.0678860173,,,
336.0000000000,42,0.0627625436,,,
336.2500000000,42,0.0678860173,,,
336.5000000000,42,0.0666051507,,,
336.7500000000,42,0.0678860173,,,
337.0000000000,42,0.0666051507,,,
337.2500000000,42,0.0691668764,,,
337.5000000000,42,0.0666051507,,,
337.7500000000,42,0.0691668764,,,
338.0000000000,42,0.0666051507,,,
338.2500000000,42,0.0653242767,,,
338.5000000000,42,0.0691668764,,,
338.7500000000,42,0.0653242767,,,
339.0000000000,42,0.0678860173,,,
339.2500000000,42,0.0653242767,,,
339.5000000000,42,0.0666051507,,,
339.7500000000,42,0.0653242767,,,
340.0000000000,42,0.0678860173,,,
340.2500000000,42,0.0640434176,,,
340.5000000000,42,0.0678860173,,,
340.7500000000,42,0.0691668764,,,
341.0000000000,42,0.0627625436,,,
341.2500000000,42,0.0691668764,,,
341.5000000000,42,0.0653242767,,,
341.7500000000,42,0.0678860173,,,
342.0000000000,42,0.0653242767,,,
342.2500000000,42,0.0666051507,,,
342.5000000000,42,0.0653242767,,,
342.7500000000,42,0.0742903575,,,
343.0000000000,42,0.0717286170,,,
343.2500000000,42,0.0755712315,,,
343.5000000000,42,0.0717286170,,,
343.7500000000,42,0.0730094910,,,
344.0000000000,43,0.0768520981,,,
344.2500000000,43,0.0742903575,,,
344.5000000000,43,0.0768520981,,,
344.7500000000,43,0.0742903575,,,
345.0000000000,43,0.0781329572,,,
345.2500000000,43,0.0742903575,,,
345.5000000000,43,0.0781329572,,,
345.7500000000,43,0.0742903575,,,
346.0000000000,43,0.0755712315,,,
346.2500000000,43,0.0794138312,,,
346.5000000000,43,0.0742903575,,,
346.7500000000,43,0.0781329572,,,
347.0000000000,43,0.0755712315,,,
347.2500000000,43,0.0742903575,,,
347.5000000000,43,0.0717286170,,,
347.7500000000,43,0.0730094910,,,
348.0000000000,43,0.0691668764,,,
348.2500000000,43,0.0717286170,,,
348.5000000000,43,0.0678860173,,,
348.7500000000,43,0.0691668764,,,
349.0000000000,43,0.0704477578,,,
349.2500000000,43,0.0653242767,,,
349.5000000000,43,0.0717286170,,,
349.7500000000,43,0.0691668764,,,
350.0000000000,43,0.0717286170,,,
350.2500000000,43,0.0691668764,,,
350.5000000000,43,0.0704477578,,,
350.7500000000,43,0.0678860173,,,
351.0000000000,43,0.0717286170,,,
351.2500000000,43,0.0730094910,,,
351.5000000000,43,0.0691668764,,,
351.7500000000,43,0.0704477578,,,
352.0000000000,44,0.0653242767,,,
352.2500000000,44,0.0691668764,,,
352.5000000000,44,0.0653242767,,,
352.7500000000,44,0.0678860173,,,
353.0000000000,44,0.0653242767,,,
353.2500000000,44,0.0678860173,,,
353.5000000000,44,0.0653242767,,,
353.7500000000,44,0.0653242767,,,
354.0000000000,44,0.0691668764,,,
354.2500000000,44,0.0666051507,,,
354.5000000000,44,0.0691668764,,,
354.7500000000,44,0.0627625436,,,
355.0000000000,44,0.0691668764,,,
355.2500000000,44,0.0653242767,,,
355.5000000000,44,0.0691668764,,,
355.7500000000,44,0.0666051507,,,
356.0000000000,44,0.0666051507,,,
356.2500000000,44,0.0691668764,,,
356.5000000000,44,0.0691668764,,,
356.7500000000,44,0.0678860173,,,
357.0000000000,44,0.0666051507,,,
357.2500000000,44,0.0678860173,,,
357.5000000000,44,0.0653242767,,,
357.7500000000,44,0.0717286170,,,
358.0000000000,44,0.0781329572,,,
358.2500000000,44,0.0755712315,,,
358.5000000000,44,0.0742903575,,,
358.7500000000,44,0.0755712315,,,
359.0000000000,44,0.0781329572,,,
359.2500000000,44,0.0730094910,,,
359.5000000000,44,0.0768520981,,,
359.7500000000,44,0.0742903575,,,
360.0000000000,45,0.0768520981,,,
360.2500000000,45,0.0755712315,,,
360.5000000000,45,0.0781329572,,,
360.7500000000,45,0.0819755718,,,
361.0000000000,45,0.0781329572,,,
361.2500000000,45,0.0806947127,,,
361.5000000000,45,0.0742903575,,,
361.7500000000,45,0.0742903575,,,
362.0000000000,45,0.0678860173,,,
362.2500000000,45,0.0627625436,,,
362.5000000000,45,0.0666051507,,,
362.7500000000,45,0.0653242767,,,
363.0000000000,45,0.0653242767,,,
363.2500000000,45,0.0678860173,,,
363.5000000000,45,0.0717286170,,,
363.7500000000,45,0.0717286170,,,
364.0000000000,45,0.0717286170,,,
364.2500000000,45,0.0755712315,,,
364.5000000000,45,0.0640434176,,,
364.7500000000,45,0.0717286170,,,
365.0000000000,45,0.0717286170,,,
365.2500000000,45,0.0781329572,,,
365.5000000000,45,0.0742903575,,,
365.7500000000,45,0.0755712315,,,
366.0000000000,45,0.0755712315,,,
366.2500000000,45,0.0755712315,,,
366.5000000000,45,0.0781329572,,,
366.7500000000,45,0.0678860173,,,
367.0000000000,45,0.0666051507,,,
367.2500000000,45,0.0640434176,,,
367.5000000000,45,0.0653242767,,,
367.7500000000,45,0.0281790998,,,
368.0000000000,46,0.0140895499,,,
368.2500000000,46,0.0320217088,,,
368.5000000000,46,0.0537964702,,,
368.7500000000,46,0.0563581996,,,
369.0000000000,46,0.0550773405,,,
369.2500000000,46,0.0589199401,,,
369.5000000000,46,0.0576390699,,,
369.7500000000,46,0.0627625436,,,
370.0000000000,46,0.0627625436,,,
370.2500000000,46,0.0602008104,,,
370.5000000000,46,0.0666051507,,,
370.7500000000,46,0.0653242767,,,
371.0000000000,46,0.0666051507,,,
371.2500000000,46,0.0627625436,,,
371.5000000000,46,0.0666051507,,,
371.7500000000,46,0.0640434176,,,
372.0000000000,46,0.0666051507,,,
372.2500000000,46,0.0666051507,,,
372.5000000000,46,0.0640434176,,,
372.7500000000,46,0.0666051507,,,
373.0000000000,46,0.0640434176,,,
373.2500000000,46,0.0678860173,,,
373.5000000000,46,0.0640434176,,,
373.7500000000,46,0.0678860173,,,
374.0000000000,46,0.0602008104,,,
374.2500000000,46,0.0691668764,,,
374.5000000000,46,0.0678860173,,,
374.7500000000,46,0.0678860173,,,
375.0000000000,46,0.0704477578,,,
375.2500000000,46,0.0666051507,,,
375.5000000000,46,0.0704477578,,,
375.7500000000,46,0.0678860173,,,
