Time:4Hz,Epoch,Channel 1,Event Id,Event Date,Event Duration
0,0,1.247750998,,,
0.25,0,1.247750998,,,
0.5,0,1.249032021,,,
0.75,0,1.245190024,,,
1,0,1.240067005,,,
1.25,0,1.223417997,,,
1.5,0,1.217013955,,,
1.75,0,1.211891055,,,
2,0,1.205487967,,,
2.25,0,1.195242047,,,
2.5,0,1.193961024,,,
2.75,0,1.197803974,,,
3,0,1.199084044,,,
3.25,0,1.20164597,,,
3.5,0,1.192680955,,,
3.75,0,1.193961024,,,
4,0,1.176030994,,,
4.25,0,1.154258966,,,
4.5,0,1.156821013,,,
4.75,0,1.181154013,,,
5,0,1.195242047,,,
5.25,0,1.214452982,,,
5.5,0,1.227259994,,,
5.75,0,1.238785982,,,
6,0,1.236225009,,,
6.25,0,1.25415504,,,
6.5,0,1.250313044,,,
6.75,0,1.246471047,,,
7,0,1.236225009,,,
7.25,0,1.240067005,,,
7.5,0,1.246471047,,,
7.75,0,1.268242955,,,
8,1,1.293856978,,,
8.25,1,1.328436017,,,
8.5,1,1.334840059,,,
8.75,1,1.330997944,,,
9,1,1.324594021,,,
9.25,1,1.32971704,,,
9.5,1,1.351488948,,,
9.75,1,1.389911056,,,
10,1,1.416805983,,,
10.25,1,1.434736013,,,
10.5,1,1.444980979,,,
10.75,1,1.430894017,,,
11,1,1.41552496,,,
11.25,1,1.395033002,,,
11.5,1,1.383507013,,,
11.75,1,1.371981025,,,
12,1,1.368139029,,,
12.25,1,1.36429596,,,
12.5,1,1.359174013,,,
12.75,1,1.352769971,,,
13,1,1.346366048,,,
13.25,1,1.338682056,,,
13.5,1,1.339962959,,,
13.75,1,1.333559036,,,
14,1,1.332278013,,,
14.25,1,1.32971704,,,
14.5,1,1.328436017,,,
14.75,1,1.324594021,,,
15,1,1.322033048,,,
15.25,1,1.318191052,,,
15.5,1,1.315629005,,,
15.75,1,1.313068032,,,
16,2,1.311787009,,,
16.25,2,1.304103017,,,
16.5,2,1.302821994,,,
16.75,2,1.301540971,,,
17,2,1.300261021,,,
17.25,2,1.296419025,,,
17.5,2,1.297698975,,,
17.75,2,1.300261021,,,
18,2,1.296419025,,,
18.25,2,1.297698975,,,
18.5,2,1.298979998,,,
18.75,2,1.30666399,,,
19,2,1.316910029,,,
19.25,2,1.330997944,,,
19.5,2,1.32971704,,,
19.75,2,1.332278013,,,
20,2,1.332278013,,,
20.25,2,1.325875044,,,
20.5,2,1.319471002,,,
20.75,2,1.318191052,,,
21,2,1.316910029,,,
21.25,2,1.314349055,,,
21.5,2,1.319471002,,,
21.75,2,1.324594021,,,
22,2,1.328436017,,,
22.25,2,1.327155948,,,
22.5,2,1.324594021,,,
22.75,2,1.320752025,,,
23,2,1.318191052,,,
23.25,2,1.313068032,,,
23.5,2,1.310505986,,,
23.75,2,1.311787009,,,
24,3,1.30538404,,,
24.25,3,1.297698975,,,
24.5,3,1.297698975,,,
24.75,3,1.293856978,,,
25,3,1.292575955,,,
25.25,3,1.290014982,,,
25.5,3,1.286172986,,,
25.75,3,1.286172986,,,
26,3,1.281049967,,,
26.25,3,1.281049967,,,
26.5,3,1.275926948,,,
26.75,3,1.277207971,,,
27,3,1.270804048,,,
27.25,3,1.269523978,,,
27.5,3,1.268242955,,,
27.75,3,1.265681028,,,
28,3,1.264400959,,,
28.25,3,1.264400959,,,
28.5,3,1.268242955,,,
28.75,3,1.269523978,,,
29,3,1.269523978,,,
29.25,3,1.263120055,,,
29.5,3,1.261839032,,,
29.75,3,1.259278059,,,
30,3,1.256716013,,,
30.25,3,1.251593947,,,
30.5,3,1.251593947,,,
30.75,3,1.246471047,,,
31,3,1.245190024,,,
31.25,3,1.245190024,,,
31.5,3,1.251593947,,,
31.75,3,1.251593947,,,
32,4,1.250313044,,,
32.25,4,1.251593947,,,
32.5,4,1.251593947,,,
32.75,4,1.247750998,,,
33,4,1.250313044,,,
33.25,4,1.257997036,,,
33.5,4,1.288733959,,,
33.75,4,1.350208998,,,
34,4,1.437296987,,,
34.25,4,1.492367983,,,
34.5,4,1.497589946,,,
34.75,4,1.502712965,,,
35,4,1.510396957,,,
35.25,4,1.489905,,,
35.5,4,1.470695019,,,
35.75,4,1.445080042,,,
36,4,1.427150011,,,
36.25,4,1.406659007,,,
36.5,4,1.393851996,,,
36.75,4,1.381044984,,,
37,4,1.375921965,,,
37.25,4,1.363114953,,,
37.5,4,1.360553026,,,
37.75,4,1.357992053,,,
38,4,1.378483057,,,
38.25,4,1.428431034,,,
38.5,4,1.498870015,,,
38.75,4,1.546257019,,,
39,4,1.560345054,,,
39.25,4,1.576993942,,,
39.5,4,1.561625004,,,
39.75,4,1.477097988,,,
40,5,1.434834957,,,
40.25,5,1.405377984,,,
40.5,5,1.346464992,,,
40.75,5,1.336220026,,,
41,5,1.331097007,,,
41.25,5,1.340062022,,,
41.5,5,1.334939003,,,
41.75,5,1.338780999,,,
42,5,1.334939003,,,
42.25,5,1.341343045,,,
42.5,5,1.336220026,,,
42.75,5,1.340062022,,,
43,5,1.340062022,,,
43.25,5,1.337499976,,,
43.5,5,1.345185041,,,
43.75,5,1.338780999,,,
44,5,1.329815984,,,
44.25,5,1.331097007,,,
44.5,5,1.320850968,,,
44.75,5,1.313166976,,,
45,5,1.300359964,,,
45.25,5,1.300359964,,,
45.5,5,1.28114903,,,
45.75,5,1.276026011,,,
46,5,1.277307034,,,
46.25,5,1.279868007,,,
46.5,5,1.288833022,,,
46.75,5,1.282430053,,,
47,5,1.274744988,,,
47.25,5,1.264500022,,,
47.5,5,1.267060995,,,
47.75,5,1.264500022,,,
48,6,1.259377003,,,
48.25,6,1.247849941,,,
48.5,6,1.249130964,,,
48.75,6,1.244007945,,,
49,6,1.242727995,,,
49.25,6,1.232481957,,,
49.5,6,1.23376298,,,
49.75,6,1.231201053,,,
50,6,1.229920983,,,
50.25,6,1.220955014,,,
50.5,6,1.223516941,,,
50.75,6,1.214552045,,,
51,6,1.210710049,,,
51.25,6,1.201745033,,,
51.5,6,1.203024983,,,
51.75,6,1.201745033,,,
52,6,1.197903037,,,
52.25,6,1.20046401,,,
52.5,6,1.20046401,,,
52.75,6,1.211989999,,,
53,6,1.219674945,,,
53.25,6,1.227359057,,,
53.5,6,1.22863996,,,
53.75,6,1.232481957,,,
54,6,1.220955014,,,
54.25,6,1.231201053,,,
54.5,6,1.22863996,,,
54.75,6,1.242727995,,,
55,6,1.244007945,,,
55.25,6,1.244007945,,,
55.5,6,1.249130964,,,
55.75,6,1.261937976,,,
56,7,1.272184014,,,
56.25,7,1.296517968,,,
56.5,7,1.313166976,,,
56.75,7,1.338780999,,,
57,7,1.386168003,,,
57.25,7,1.471974969,,,
57.5,7,1.597484946,,,
57.75,7,1.687134981,,,
58,7,1.726837993,,,
58.25,7,1.710188031,,,
58.5,7,1.685855031,,,
58.75,7,1.652555943,,,
59,7,1.624379993,,,
59.25,7,1.617977023,,,
59.5,7,1.642310023,,,
59.75,7,1.66920495,,,
60,7,1.671766996,,,
60.25,7,1.648713946,,,
60.5,7,1.634626031,,,
60.75,7,1.652555943,,,
61,7,1.724275947,,,
61.25,7,1.780627012,,,
61.5,7,1.806241989,,,
61.75,7,1.793434978,,,
62,7,1.763978005,,,
62.25,7,1.714030027,,,
62.5,7,1.676890016,,,
62.75,7,1.626942039,,,
63,7,1.58852005,,,
63.25,7,1.559064031,,,
63.5,7,1.546257019,,,
63.75,7,1.574432969,,,
64,8,1.632065058,,,
64.25,8,1.692258,,,
64.5,8,1.714030027,,,
64.75,8,1.712749958,,,
65,8,1.625661016,,,
65.25,8,1.600046992,,,
65.5,8,1.591081977,,,
65.75,8,1.634626031,,,
66,8,1.69738102,,,
66.25,8,1.739645004,,,
66.5,8,1.740924954,,,
66.75,8,1.731960058,,,
67,8,1.701223016,,,
67.25,8,1.660240054,,,
67.5,8,1.621819019,,,
67.75,8,1.58852005,,,
68,8,1.565467954,,,
68.25,8,1.543694973,,,
68.5,8,1.530887961,,,
68.75,8,1.514238954,,,
69,8,1.506554961,,,
69.25,8,1.500151038,,,
69.5,8,1.500151038,,,
69.75,8,1.495028019,,,
70,8,1.498870015,,,
70.25,8,1.505274057,,,
70.5,8,1.507835031,,,
70.75,8,1.501431942,,,
71,8,1.505274057,,,
71.25,8,1.492467046,,,
71.5,8,1.486063004,,,
71.75,8,1.475818038,,,
72,9,1.471974969,,,
72.25,9,1.464290977,,,
72.5,9,1.461730003,,,
72.75,9,1.461730003,,,
73,9,1.49374795,,,
73.25,9,1.585958958,,,
73.5,9,1.731960058,,,
73.75,9,1.845944047,,,
74,9,1.888208032,,,
74.25,9,1.890769005,33025,,
74.5,9,1.861312985,,,
74.75,9,1.817767978,,,
75,9,1.763978005,,,
75.25,9,1.719153047,,,
75.5,9,1.671766996,,,
75.75,9,1.647433043,,,
76,9,1.617977023,,,
76.25,9,1.603888989,,,
76.5,9,1.583397985,,,
76.75,9,1.575713038,,,
77,9,1.561625004,,,
77.25,9,1.553941011,,,
77.5,9,1.544975996,,,
77.75,9,1.539852977,,,
78,9,1.566748023,,,
78.25,9,1.611572981,,,
78.5,9,1.673048019,,,
78.75,9,1.71531105,,,
79,9,1.766540051,,,
79.25,9,1.789592981,,,
79.5,9,1.794715047,,,
79.75,9,1.769101024,,,
80,10,1.743487001,,,
80.25,10,1.755012989,,,
80.5,10,1.822890997,,,
80.75,10,1.903576016,,,
81,10,1.945840001,,,
81.25,10,1.921705008,,,
81.5,10,1.901214004,,,
81.75,10,1.848705053,,,
82,10,1.798756957,,,
82.25,10,1.747527957,,,
82.5,10,1.719352007,,,
82.75,10,1.692456961,,,
83,10,1.678369999,,,
83.25,10,1.655316949,,,
83.5,10,1.648913026,,,
83.75,10,1.627140999,,,
84,10,1.628422022,,,
84.25,10,1.643790007,,,
84.5,10,1.655316949,,,
84.75,10,1.657878041,,,
85,10,1.656597018,,,
85.25,10,1.650194049,,,
85.5,10,1.633545041,,,
85.75,10,1.634824991,,,
86,10,1.734720945,,,
86.25,10,1.965250015,,,
86.5,10,2.150953054,,,
86.75,10,2.199620009,,,
87,10,2.209866047,,,
87.25,10,2.208585024,,,
87.5,10,2.167602062,,,
87.75,10,2.106127977,,,
88,11,2.022881985,,,
88.25,11,1.963968992,,,
88.5,11,1.897372007,,,
88.75,11,1.855108023,,,
89,11,1.812844992,,,
89.25,11,1.783388019,,,
89.5,11,1.759055018,,,
89.75,11,1.738562942,,,
90,11,1.727036953,,,
90.25,11,1.707826018,,,
90.5,11,1.700142026,,,
90.75,11,1.693737984,,,
91,11,1.687335014,,,
91.25,11,1.674528003,,,
91.5,11,1.669404984,,,
91.75,11,1.661720038,,,
92,11,1.668123961,,,
92.25,11,1.712949038,,,
92.5,11,1.834617019,,,
92.75,11,1.971652985,,,
93,11,2.076672077,,,
93.25,11,2.104846954,,,
93.5,11,2.115092993,,,
93.75,11,2.083075047,,,
94,11,2.039530993,,,
94.25,11,1.993425012,,,
94.5,11,1.937073946,,,
94.75,11,1.896090984,,,
95,11,1.866634965,,,
95.25,11,1.853827,,,
95.5,11,1.833335996,,,
95.75,11,1.820528984,,,
96,12,1.802598953,,,
96.25,12,1.788511038,,,
96.5,12,1.774423003,,,
96.75,12,1.760334969,,,
97,12,1.74880898,,,
97.25,12,1.741124988,,,
97.5,12,1.723194957,,,
97.75,12,1.72063303,,,
98,12,1.714229941,,,
98.25,12,1.703984022,,,
98.5,12,1.698861003,,,
98.75,12,1.692456961,,,
99,12,1.688614965,,,
99.25,12,1.683491945,,,
99.5,12,1.686053991,,,
99.75,12,1.680930972,,,
100,12,1.679649949,,,
100.25,12,1.670685053,,,
100.5,12,1.683491945,,,
100.75,12,1.721914053,,,
101,12,1.788511038,,,
101.25,12,1.848705053,,,
101.5,12,1.880722046,,,
101.75,12,1.890967965,,,
102,12,1.87688005,,,
102.25,12,1.85254705,,,
102.5,12,1.823089957,,,
102.75,12,1.802598953,,,
103,12,1.811563969,,,
103.25,12,1.897372007,,,
103.5,12,2.015197992,,,
103.75,12,2.126620054,,,
104,13,2.182971001,,,
104.25,13,2.193217039,,,
104.5,13,2.163759947,,,
104.75,13,2.116374016,,,
105,13,2.0613029,,,
105.25,13,2.017759085,,,
105.5,13,1.979336977,,,
105.75,13,1.975494981,,,
106,13,1.992144942,,,
106.25,13,2.001110077,,,
106.5,13,1.993425012,,,
106.75,13,1.988301992,,,
107,13,1.967810988,,,
107.25,13,1.940915942,,,
107.5,13,1.919144034,,,
107.75,13,1.894809961,,,
108,13,1.87688005,,,
108.25,13,1.869196057,,,
108.5,13,1.883283973,,,
108.75,13,1.906337023,,,
109,13,1.958845973,,,
109.25,13,2.021600962,,,
109.5,13,2.054898977,,,
109.75,13,2.065145016,,,
110,13,2.060022116,,,
110.25,13,2.029284954,,,
110.5,13,2.007513046,,,
110.75,13,1.976776004,,,
111,13,1.953722954,,,
111.25,13,1.92810905,,,
111.5,13,1.919144034,,,
111.75,13,1.910179019,,,
112,14,1.903774977,,,
112.25,14,1.901214004,,,
112.5,14,1.892248988,,,
112.75,14,1.887125969,,,
113,14,1.878160954,,,
113.25,14,1.874318957,,,
113.5,14,1.860231042,,,
113.75,14,1.85254705,,,
114,14,1.839740038,,,
114.25,14,1.838459015,,,
114.5,14,1.828212977,,,
114.75,14,1.826931953,,,
115,14,1.819247961,,,
115.25,14,1.814124942,,,
115.5,14,1.807721973,,,
115.75,14,1.803879976,,,
116,14,1.797476053,,,
116.25,14,1.797476053,,,
116.5,14,1.788511038,,,
116.75,14,1.780827045,,,
117,14,1.776985049,,,
117.25,14,1.776985049,,,
117.5,14,1.768020034,,,
117.75,14,1.770581007,,,
118,14,1.759055018,,,
118.25,14,1.761615992,,,
118.5,14,1.752650976,,,
118.75,14,1.755211949,,,
119,14,1.756492972,,,
119.25,14,1.766739011,,,
119.5,14,1.759055018,,,
119.75,14,1.770581007,,,
120,15,1.761615992,,,
120.25,15,1.760334969,,,
120.5,15,1.755211949,,,
120.75,15,1.755211949,,,
121,15,1.747527957,,,
121.25,15,1.746247053,,,
121.5,15,1.757773995,,,
121.75,15,1.776985049,,,
122,15,1.810282946,,,
122.25,15,1.830775023,,,
122.5,15,1.841019988,,,
122.75,15,1.841019988,,,
123,15,1.830775023,,,
123.25,15,1.807721973,,,
123.5,15,1.816686988,,,
123.75,15,1.837177992,,,
124,15,1.860231042,,,
124.25,15,1.871757984,,,
124.5,15,1.879441977,,,
124.75,15,1.874318957,,,
125,15,1.866634965,,,
125.25,15,1.858950019,,,
125.5,15,1.855108023,,,
125.75,15,1.842301011,,,
126,15,1.835896969,,,
126.25,15,1.82437098,,,
126.5,15,1.821810007,,,
126.75,15,1.814124942,,,
127,15,1.826931953,,,
127.25,15,1.858950019,,,
127.5,15,1.919144034,,,
127.75,15,1.956285,,,
128,16,1.980618,,,
128.25,16,1.972934008,,,
128.5,16,1.962687969,,,
128.75,16,1.939635038,,,
129,16,1.911460042,,,
129.25,16,1.889686942,,,
129.5,16,1.874318957,,,
129.75,16,1.861511946,,,
130,16,1.849985004,,,
130.25,16,1.841019988,,,
130.5,16,1.826931953,,,
130.75,16,1.829494,,,
131,16,1.819247961,,,
131.25,16,1.841019988,,,
131.5,16,1.912739992,,,
131.75,16,2.007513046,,,
132,16,2.079232931,,,
132.25,16,2.124058008,,,
132.5,16,2.167602062,,,
132.75,16,2.238042116,,,
133,16,2.280304909,,,
133.25,16,2.294393063,,,
133.5,16,2.284147978,,,
133.75,16,2.261095047,,,
134,16,2.222672939,,,
134.25,16,2.179128885,,,
134.5,16,2.13558507,,,
134.75,16,2.101005077,,,
135,16,2.068986893,,,
135.25,16,2.043373108,,,
135.5,16,2.016478062,,,
135.75,16,2.003670931,,,
136,17,1.983180046,,,
136.25,17,1.980618,,,
136.5,17,1.967810988,,,
136.75,17,1.963968992,,,
137,17,1.953722954,,,
137.25,17,1.955003977,,,
137.5,17,1.946038961,,,
137.75,17,1.947319984,,,
138,17,1.949880958,,,
138.25,17,1.979336977,,,
138.5,17,2.006232977,,,
138.75,17,2.016478062,,,
139,17,2.019040108,,,
139.25,17,2.007513046,,,
139.5,17,1.994706035,,,
139.75,17,2.020319939,,,
140,17,2.116374016,,,
140.25,17,2.254690886,,,
140.5,17,2.409657002,,,
140.75,17,2.501868963,,,
141,17,2.515783072,,,
141.25,17,2.517062903,,,
141.5,17,2.456870079,,,
141.75,17,2.37618494,,,
142,17,2.307025909,,,
142.25,17,2.267323971,,,
142.5,17,2.391552925,,,
142.75,17,2.601589918,,,
143,17,2.730942011,,,
143.25,17,2.725820065,,,
143.5,17,2.68867898,,,
143.75,17,2.614398003,,,
144,18,2.526027918,,,
144.25,18,2.449184895,,,
144.5,18,2.421010017,,,
144.75,18,2.380027056,,,
145,18,2.345448017,,,
145.25,18,2.282691956,,,
145.5,18,2.218657017,,,
145.75,18,2.143095017,,,
146,18,2.086743116,,,
146.25,18,2.031672001,,,
146.5,18,2.011181116,,,
146.75,18,1.985566974,,,
147,18,1.966356039,,,
147.25,18,1.93817997,,,
147.5,18,1.944758058,,,
147.75,18,1.943477035,,,
148,18,1.979336977,,,
148.25,18,2.042092085,,,
148.5,18,2.08947897,,,
148.75,18,2.116374016,,,
149,18,2.1125319,,,
149.25,18,2.092040062,,,
149.5,18,2.057461023,,,
149.75,18,2.025443077,,,
150,18,2.065145016,,,
150.25,18,2.209866047,,,
150.5,18,2.391726971,,,
150.75,18,2.492903948,,,
151,18,2.490168095,,,
151.25,18,2.446624041,,,
151.5,18,2.363378048,,,
151.75,18,2.263482094,,,
152,19,2.175112009,,,
152.25,19,2.113637924,,,
152.5,19,2.054724932,,,
152.75,19,2.023988009,,,
153,19,1.991969943,,,
153.25,19,1.972759962,,,
153.5,19,1.949707031,,,
153.75,19,1.953722954,,,
154,19,1.937073946,,,
154.25,19,1.929389954,,,
154.5,19,1.920425057,,,
154.75,19,1.908897996,,,
155,19,1.899932981,,,
155.25,19,1.892248988,,,
155.5,19,1.883283973,,,
155.75,19,1.88200295,,,
156,19,1.879441977,,,
156.25,19,1.890967965,,,
156.5,19,1.894809961,,,
156.75,19,1.901214004,,,
157,19,1.897372007,,,
157.25,19,1.896090984,,,
157.5,19,1.893530011,,,
157.75,19,1.92810905,,,
158,19,1.995987058,,,
158.25,19,2.079232931,,,
158.5,19,2.129180908,,,
158.75,19,2.145829916,,,
159,19,2.136864901,,,
159.25,19,2.1022861,,,
159.5,19,2.068986893,,,
159.75,19,2.029284954,,,
160,20,2.006232977,,,
160.25,20,1.979336977,,,
160.5,20,1.960126996,,,
160.75,20,1.944758058,,,
161,20,1.939635038,,,
161.25,20,1.930670023,,,
161.5,20,1.95244205,,,
161.75,20,1.983180046,,,
162,20,2.010075092,,,
162.25,20,2.021600962,,,
162.5,20,2.024163008,,,
162.75,20,2.012635946,,,
163,20,1.995987058,,,
163.25,20,1.979336977,,,
163.5,20,1.974215031,,,
163.75,20,1.962687969,,,
164,20,1.958845973,,,
164.25,20,1.95244205,,,
164.5,20,1.948600054,,,
164.75,20,1.938354969,,,
165,20,1.937073946,,,
165.25,20,1.926828027,,,
165.5,20,1.92810905,,,
165.75,20,1.924267054,,,
166,20,1.929389954,,,
166.25,20,1.958845973,,,
166.5,20,2.047214985,,,
166.75,20,2.136864901,,,
167,20,2.207304001,,,
167.25,20,2.236761093,,,
167.5,20,2.238042116,,,
167.75,20,2.209866047,,,
168,21,2.175287008,,,
168.25,21,2.150953054,,,
168.5,21,2.13558507,,,
168.75,21,2.126620054,,,
169,21,2.107409,,,
169.25,21,2.099725008,,,
169.5,21,2.086916924,,,
169.75,21,2.071548939,,,
170,21,2.052337885,,,
170.25,21,2.045934916,,,
170.5,21,2.035689116,,,
170.75,21,2.03824997,,,
171,21,2.042092085,,,
171.25,21,2.0510571,,,
171.5,21,2.05618,,,
171.75,21,2.049777031,,,
172,21,2.049777031,,,
172.25,21,2.060022116,,,
172.5,21,2.066426039,,,
172.75,21,2.077951908,,,
173,21,2.076672077,,,
173.25,21,2.077951908,,,
173.5,21,2.066426039,,,
173.75,21,2.057461023,,,
174,21,2.044653893,,,
174.25,21,2.03824997,,,
174.5,21,2.0267241,,,
174.75,21,2.024163008,,,
175,21,2.011354923,,,
175.25,21,2.011354923,,,
175.5,21,2.003670931,,,
175.75,21,2.019040108,,,
176,22,2.108690023,,,
176.25,22,2.29823494,,,
176.5,22,2.485219002,,,
176.75,22,2.61311698,,,
177,22,2.651537895,,,
177.25,22,2.632328033,,,
177.5,22,2.564450026,,,
177.75,22,2.488888025,,,
178,22,2.409482956,,,
178.25,22,2.35313201,,,
178.5,22,2.301903009,,,
178.75,22,2.271166086,,,
179,22,2.237868071,,,
179.25,22,2.222498894,,,
179.5,22,2.195604086,,,
179.75,22,2.184077978,,,
180,22,2.163585901,,,
180.25,22,2.157181978,,,
180.5,22,2.143095017,,,
180.75,22,2.136691093,,,
181,22,2.129007101,,,
181.25,22,2.118761063,,,
181.5,22,2.108515978,,,
181.75,22,2.103393078,,,
182,22,2.100831032,,,
182.25,22,2.090584993,,,
182.5,22,2.091866016,,,
182.75,22,2.076498032,,,
183,22,2.079058886,,,
183.25,22,2.070094109,,,
183.5,22,2.068813086,,,
183.75,22,2.061129093,,,
184,23,2.05984807,,,
184.25,23,2.050883055,,,
184.5,23,2.048321962,,,
184.75,23,2.039356947,,,
185,23,2.038075924,,,
185.25,23,2.032953024,,,
185.5,23,2.054724932,,,
185.75,23,2.12260294,,,
186,23,2.213534117,,,
186.25,23,2.277570009,,,
186.5,23,2.310868025,,,
186.75,23,2.315990925,,,
187,23,2.299341917,,,
187.25,23,2.263482094,,,
187.5,23,2.230182886,,,
187.75,23,2.191761971,,,
188,23,2.171269894,,,
188.25,23,2.134130001,,,
188.5,23,2.132848978,,,
188.75,23,2.114918947,,,
189,23,2.105953932,,,
189.25,23,2.093147039,,,
189.5,23,2.089304924,,,
189.75,23,2.076498032,,,
190,23,2.075217009,,,
190.25,23,2.063689947,,,
190.5,23,2.05984807,,,
190.75,23,2.049602985,,,
191,23,2.044480085,,,
191.25,23,2.036794901,,,
191.5,23,2.034234047,,,
191.75,23,2.027829886,,,
192,24,2.026550055,,,
192.25,24,2.018865109,,,
192.5,24,2.016304016,,,
192.75,24,2.008620024,,,
193,24,2.004776955,,,
193.25,24,2.007339001,,,
193.5,24,1.993250966,,,
193.75,24,1.990689993,,,
194,24,1.984285951,,,
194.25,24,1.985566974,33025,,
194.5,24,1.975321055,,,
194.75,24,1.977882981,,,
195,24,1.971479058,,,
195.25,24,1.974040031,,,
195.5,24,1.972759962,,,
195.75,24,1.976601958,,,
196,24,1.971479058,,,
196.25,24,1.972759962,,,
196.5,24,1.957391024,,,
196.75,24,1.987022042,,,
197,24,1.976776004,,,
197.25,24,1.978057027,,,
197.5,24,1.969092012,,,
197.75,24,1.970371962,,,
198,24,1.963968992,,,
198.25,24,1.962687969,,,
198.5,24,1.956285,,,
198.75,24,1.95756495,,,
199,24,1.951161981,,,
199.25,24,1.947319984,,,
199.5,24,1.942196965,,,
199.75,24,1.943477035,,,
200,25,1.942196965,,,
200.25,25,1.981899023,,,
200.5,25,2.039530993,,,
200.75,25,2.116374016,,,
201,25,2.172724962,,,
201.25,25,2.203461886,,,
201.5,25,2.203461886,,,
201.75,25,2.18937397,,,
202,25,2.15991807,,,
202.25,25,2.13558507,,,
202.5,25,2.106127977,,,
202.75,25,2.08435607,,,
203,25,2.070267916,,,
203.25,25,2.054898977,,,
203.5,25,2.044653893,,,
203.75,25,2.031847,,,
204,25,2.025443077,,,
204.25,25,2.016478062,,,
204.5,25,2.012635946,,,
204.75,25,1.999829054,,,
205,25,2.002389908,,,
205.25,25,1.993425012,,,
205.5,25,1.988301992,,,
205.75,25,1.981899023,,,
206,25,1.979336977,,,
206.25,25,1.972934008,,,
206.5,25,1.969092012,,,
206.75,25,1.962687969,,,
207,25,1.962687969,,,
207.25,25,1.958845973,,,
207.5,25,1.95756495,,,
207.75,25,1.948600054,,,
208,26,1.944758058,,,
208.25,26,1.935793042,,,
208.5,26,1.931951046,,,
208.75,26,1.931951046,,,
209,26,1.926828027,,,
209.25,26,1.926828027,,,
209.5,26,1.916581988,,,
209.75,26,1.917863011,,,
210,26,1.910179019,,,
210.25,26,1.908897996,,,
210.5,26,1.901214004,,,
210.75,26,1.905056,,,
211,26,1.892248988,,,
211.25,26,1.896090984,,,
211.5,26,1.884564996,,,
211.75,26,1.887125969,,,
212,26,1.880722046,,,
212.25,26,1.883283973,,,
212.5,26,1.874318957,,,
212.75,26,1.873038054,,,
213,26,1.866634965,,,
213.25,26,1.864073038,,,
213.5,26,1.865353942,,,
213.75,26,1.85766995,,,
214,26,1.85766995,,,
214.25,26,1.85254705,,,
214.5,26,1.851266027,,,
214.75,26,1.851266027,,,
215,26,1.841019988,,,
215.25,26,1.835896969,,,
215.5,26,1.835896969,,,
215.75,26,1.829494,,,
216,27,1.833335996,,,
216.25,27,1.833335996,,,
216.5,27,1.837177992,,,
216.75,27,1.833335996,,,
217,27,1.835896969,,,
217.25,27,1.828212977,,,
217.5,27,1.829494,,,
217.75,27,1.821810007,,,
218,27,1.825652003,,,
218.25,27,1.820528984,,,
218.5,27,1.814124942,,,
218.75,27,1.810282946,,,
219,27,1.810282946,,,
219.25,27,1.810282946,,,
219.5,27,1.803879976,,,
219.75,27,1.798756957,,,
220,27,1.793634057,,,
220.25,27,1.793634057,,,
220.5,27,1.787230015,,,
220.75,27,1.787230015,,,
221,27,1.784669042,,,
221.25,27,1.776985049,,,
221.5,27,1.774423003,,,
221.75,27,1.776985049,,,
222,27,1.768020034,,,
222.25,27,1.770581007,,,
222.5,27,1.762897015,,,
222.75,27,1.761615992,,,
223,27,1.756492972,,,
223.25,27,1.757773995,,,
223.5,27,1.751369953,,,
223.75,27,1.751369953,,,
224,28,1.744966984,,,
224.25,28,1.746247053,,,
224.5,28,1.736001968,,,
224.75,28,1.737282991,,,
225,28,1.729598045,,,
225.25,28,1.728317022,,,
225.5,28,1.727036953,,,
225.75,28,1.721914053,,,
226,28,1.719352007,,,
226.25,28,1.716791034,,,
226.5,28,1.715510011,,,
226.75,28,1.710386992,,,
227,28,1.709107041,,,
227.25,28,1.705265045,,,
227.5,28,1.702702999,,,
227.75,28,1.69757998,,,
228,28,1.69757998,,,
228.25,28,1.691177011,,,
228.5,28,1.689895988,,,
228.75,28,1.69757998,,,
229,28,1.684772968,,,
229.25,28,1.678369999,,,
229.5,28,1.675807953,,,
229.75,28,1.670685053,,,
230,28,1.670685053,,,
230.25,28,1.669404984,,,
230.5,28,1.670685053,,,
230.75,28,1.659158945,,,
231,28,1.661720038,,,
231.25,28,1.652755022,,,
231.5,28,1.651474953,,,
231.75,28,1.642510057,,,
232,29,1.646352053,,,
232.25,29,1.636106014,,,
232.5,29,1.634824991,,,
232.75,29,1.634824991,,,
233,29,1.632264018,,,
233.25,29,1.633545041,,,
233.5,29,1.627140999,,,
233.75,29,1.62201798,,,
234,29,1.618175983,,,
234.25,29,1.61689496,,,
234.5,29,1.611773014,,,
234.75,29,1.606649995,,,
235,29,1.598965049,,,
235.25,29,1.601526976,,,
235.5,29,1.595123053,,,
235.75,29,1.595123053,,,
236,29,1.591281056,,,
236.25,29,1.586158037,,,
236.5,29,1.583596945,,,
236.75,29,1.584877014,,,
237,29,1.593842983,,,
237.25,29,1.575911999,,,
237.5,29,1.569509029,,,
237.75,29,1.563104987,,,
238,29,1.56438601,,,
238.25,29,1.560544014,,,
238.5,29,1.557981968,,,
238.75,29,1.550297976,,,
239,29,1.551578999,,,
239.25,29,1.545174956,,,
239.5,29,1.543895006,,,
239.75,29,1.54133296,,,
240,30,1.559262991,,,
240.25,30,1.586158037,,,
240.5,30,1.63994801,,,
240.75,30,1.683491945,,,
241,30,1.730878949,,,
241.25,30,1.751369953,,,
241.5,30,1.765457988,,,
241.75,30,1.751369953,,,
242,30,1.732159972,,,
242.25,30,1.718072057,,,
242.5,30,1.69630003,,,
242.75,30,1.682211995,,,
243,30,1.663000941,,,
243.25,30,1.657878041,,,
243.5,30,1.642510057,,,
243.75,30,1.634824991,,,
244,30,1.627140999,,,
244.25,30,1.620736957,,,
244.5,30,1.614333987,,,
244.75,30,1.609210968,,,
245,30,1.606649995,,,
245.25,30,1.604087949,,,
245.5,30,1.595123053,,,
245.75,30,1.593842983,,,
246,30,1.579754949,,,
246.25,30,1.583596945,,,
246.5,30,1.572070003,,,
246.75,30,1.575911999,,,
247,30,1.566946983,,,
247.25,30,1.566946983,,,
247.5,30,1.557981968,,,
247.75,30,1.552860022,,,
248,31,1.551578999,,,
248.25,31,1.547737002,,,
248.5,31,1.54005301,,,
248.75,31,1.54005301,,,
249,31,1.533648968,,,
249.25,31,1.54005301,,,
249.5,31,1.529806972,,,
249.75,31,1.529806972,,,
250,31,1.525964975,,,
250.25,31,1.520841956,,,
250.5,31,1.518280029,,,
250.75,31,1.515719056,,,
251,31,1.508034945,,,
251.25,31,1.508034945,,,
251.5,31,1.500349999,,,
251.75,31,1.504191995,,,
252,31,1.491384983,,,
252.25,31,1.497789025,,,
252.5,31,1.495226979,,,
252.75,31,1.499070048,,,
253,31,1.492666006,,,
253.25,31,1.499070048,,,
253.5,31,1.491384983,,,
253.75,31,1.490105033,,,
254,31,1.479858995,,,
254.25,31,1.477298021,,,
254.5,31,1.478577972,,,
254.75,31,1.469612956,,,
255,31,1.470893979,,,
255.25,31,1.459367991,,,
255.5,31,1.456805944,,,
255.75,31,1.450402021,,,
256,32,1.454244971,,,
256.25,32,1.445279956,,,
256.5,32,1.443999052,,,
256.75,32,1.436314941,,,
257,32,1.456606984,,,
257.25,32,1.454045057,,,
257.5,32,1.454045057,,,
257.75,32,1.446360946,,,
258,32,1.446360946,,,
258.25,32,1.438676953,,,
258.5,32,1.438676953,,,
258.75,32,1.430992961,,,
259,32,1.430992961,,,
259.25,32,1.424589038,,,
259.5,32,1.423308015,,,
259.75,32,1.415624023,,,
260,32,1.419466019,,,
260.25,32,1.413063049,,,
260.5,32,1.414343,,,
260.75,32,1.40921998,,,
261,32,1.411782026,,,
261.25,32,1.40794003,,,
261.5,32,1.398975015,,,
261.75,32,1.398975015,,,
262,32,1.391289949,,,
262.25,32,1.392570972,,,
262.5,32,1.383605957,,,
262.75,32,1.386168003,,,
263,32,1.381044984,,,
263.25,32,1.381044984,,,
263.5,32,1.377202988,,,
263.75,32,1.374640942,,,
264,33,1.368237972,,,
264.25,33,1.368237972,,,
264.5,33,1.363114953,,,
264.75,33,1.365676045,,,
265,33,1.35671103,,,
265.25,33,1.354150057,,,
265.5,33,1.350307941,,,
265.75,33,1.351588011,,,
266,33,1.349027038,,,
266.25,33,1.349027038,,,
266.5,33,1.338780999,,,
266.75,33,1.337499976,,,
267,33,1.33365798,,,
267.25,33,1.329815984,,,
267.5,33,1.328534961,,,
267.75,33,1.328534961,,,
268,33,1.319569945,,,
268.25,33,1.323413014,,,
268.5,33,1.317008972,,,
268.75,33,1.313166976,,,
269,33,1.310605049,,,
269.25,33,1.310605049,,,
269.5,33,1.310605049,,,
269.75,33,1.305482984,,,
270,33,1.305482984,,,
270.25,33,1.306763053,,,
270.5,33,1.315727949,,,
270.75,33,1.310605049,,,
271,33,1.318289995,,,
271.25,33,1.313166976,,,
271.5,33,1.313166976,,,
271.75,33,1.306763053,,,
272,34,1.306763053,,,
272.25,34,1.302921057,,,
272.5,34,1.300359964,,,
272.75,34,1.292675018,,,
273,34,1.293956041,,,
273.25,34,1.283710003,,,
273.5,34,1.28114903,,,
273.75,34,1.278588057,,,
274,34,1.272184014,,,
274.25,34,1.273465037,,,
274.5,34,1.268342018,,,
274.75,34,1.269623041,,,
275,34,1.263218999,,,
275.25,34,1.261937976,,,
275.5,34,1.276026011,,,
275.75,34,1.256814957,,,
276,34,1.25169301,,,
276.25,34,1.245288968,,,
276.5,34,1.242727995,,,
276.75,34,1.245288968,,,
277,34,1.240165949,,,
277.25,34,1.241446972,,,
277.5,34,1.23376298,,,
277.75,34,1.237604976,,,
278,34,1.23376298,,,
278.25,34,1.231201053,,,
278.5,34,1.223516941,,,
278.75,34,1.227359057,,,
279,34,1.217113018,,,
279.25,34,1.215832949,,,
279.5,34,1.210710049,,,
279.75,34,1.213271022,,,
280,35,1.210710049,,,
280.25,35,1.20558703,,,
280.5,35,1.20558703,,,
280.75,35,1.20046401,,,
281,35,1.201745033,,,
281.25,35,1.194059968,,,
281.5,35,1.195340991,,,
281.75,35,1.185094953,,,
282,35,1.187656999,,,
282.25,35,1.183815002,,,
282.5,35,1.186375976,,,
282.75,35,1.178691983,,,
283,35,1.181252956,,,
283.25,35,1.172287941,,,
283.5,35,1.174849987,,,
283.75,35,1.168445945,,,
284,35,1.172287941,,,
284.25,35,1.164603949,,,
284.5,35,1.163323045,,,
284.75,35,1.156919956,,,
285,35,1.155639052,,,
285.25,35,1.15307796,,,
285.5,35,1.147954941,,,
285.75,35,1.15307796,,,
286,35,1.144112945,,,
286.25,35,1.145393014,,,
286.5,35,1.141551018,,,
286.75,35,1.138990045,,,
287,35,1.136427999,,,
287.25,35,1.132586002,,,
287.5,35,1.127462983,,,
287.75,35,1.131304979,,,
288,36,1.122339964,,,
288.25,36,1.123620987,,,
288.5,36,1.118497968,,,
288.75,36,1.119778991,,,
289,36,1.112094998,,,
289.25,36,1.113374949,,,
289.5,36,1.106971979,,,
289.75,36,1.110813975,,,
290,36,1.100568056,,,
290.25,36,1.104410052,,,
290.5,36,1.094164968,,,
290.75,36,1.103129983,,,
291,36,1.098006964,,,
291.25,36,1.095445991,,,
291.5,36,1.095445991,,,
291.75,36,1.091603041,,,
292,36,1.089041948,,,
292.25,36,1.085199952,,,
292.5,36,1.090322971,,,
292.75,36,1.077515006,,,
293,36,1.083919048,,,
293.25,36,1.076235056,,,
293.5,36,1.076235056,,,
293.75,36,1.067270041,,,
294,36,1.069831014,,,
294.25,36,1.064707995,,,
294.5,36,1.067270041,,,
294.75,36,1.059584975,,,
295,36,1.059584975,,,
295.25,36,1.057024002,,,
295.5,36,1.05061996,,,
295.75,36,1.048058987,,,
296,37,1.045498014,,,
296.25,37,1.046777964,,,
296.5,37,1.048058987,,,
296.75,37,1.045498014,,,
297,37,1.036532998,,,
297.25,37,1.039093971,,,
297.5,37,1.032691002,,,
297.75,37,1.036532998,,,
298,37,1.025006056,,,
298.25,37,1.031409979,,,
298.5,37,1.025006056,,,
298.75,37,1.027567983,,,
299,37,1.023725987,,,
299.25,37,1.02628696,,,
299.5,37,1.02116394,,,
299.75,37,1.022444964,,,
300,37,1.014760017,,,
300.25,37,1.019883037,,,
300.5,37,1.009637952,,,
300.75,37,1.007076025,,,
301,37,1.005795002,,,
301.25,37,1.008357048,,,
301.5,37,1.001953006,,,
301.75,37,1.001953006,,,
302,37,0.994269073,,,
302.25,37,0.995549679,,,
302.5,37,0.987865508,,,
302.75,37,0.989146173,,,
303,37,0.985304117,,,
303.25,37,0.985304117,,,
303.5,37,0.984023273,,,
303.75,37,0.984023273,,,
304,38,0.982742608,,,
304.25,38,0.978900492,,,
304.5,38,0.980181217,,,
304.75,38,0.975058317,,,
305,38,0.977619827,,,
305.25,38,0.969935477,,,
305.5,38,0.971216202,,,
305.75,38,0.966093421,,,
306,38,0.967374027,,,
306.25,38,0.959689796,,,
306.5,38,0.966093421,,,
306.75,38,0.963531911,,,
307,38,0.962251186,,,
307.25,38,0.957128286,,,
307.5,38,0.958409071,,,
307.75,38,0.948163271,,,
308,38,0.98648572,,,
308.25,38,0.983924329,,,
308.5,38,0.980082214,,,
308.75,38,0.978801429,,,
309,38,0.976239979,,,
309.25,38,0.971117079,,,
309.5,38,0.976239979,,,
309.75,38,0.969836414,,,
310,38,0.972397924,,,
310.25,38,0.967275024,,,
310.5,38,0.967275024,,,
310.75,38,0.963432789,,,
311,38,0.965994299,,,
311.25,38,0.960871518,,,
311.5,38,0.963432789,,,
311.75,38,0.954467893,,,
312,39,0.958310008,,,
312.25,39,0.950625718,,,
312.5,39,0.955748618,,,
312.75,39,0.949344993,,,
313,39,0.950625718,,,
313.25,39,0.941660702,,,
313.5,39,0.942941427,,,
313.75,39,0.942941427,,,
314,39,0.940379977,,,
314.25,39,0.937818587,,,
314.5,39,0.937818587,,,
314.75,39,0.933976471,,,
315,39,0.933976471,,,
315.25,39,0.932695687,,,
315.5,39,0.927572906,,,
315.75,39,0.927572906,,,
316,39,0.922450006,,,
316.25,39,0.923730671,,,
316.5,39,0.919888616,,,
316.75,39,0.922450006,,,
317,39,0.914765716,,,
317.25,39,0.917327225,,,
317.5,39,0.91348511,,,
317.75,39,0.912204325,,,
318,39,0.909642875,,,
318.25,39,0.909642875,,,
318.5,39,0.905800819,,,
318.75,39,0.909642875,,,
319,39,0.905800819,,,
319.25,39,0.90323931,,,
319.5,39,0.899397194,,,
319.75,39,0.900677919,,,
320,40,0.887870729,,,
320.25,40,0.896835685,,,
320.5,40,0.895555019,,,
320.75,40,0.895555019,,,
321,40,0.887870729,,,
321.25,40,0.890432179,,,
321.5,40,0.885309279,,,
321.75,40,0.885309279,,,
322,40,0.884028614,,,
322.25,40,0.882747889,,,
322.5,40,0.882747889,,,
322.75,40,0.880186379,,,
323,40,0.877624989,,,
323.25,40,0.875063598,,,
323.5,40,0.876344323,,,
323.75,40,0.871221483,,,
324,40,0.871221483,,,
324.25,40,0.866098583,,,
324.5,40,0.868659973,,,
324.75,40,0.863537192,,,
325,40,0.867379308,,,
325.25,40,0.867379308,,,
325.5,40,0.867379308,,,
325.75,40,0.867379308,,,
326,40,0.867379308,,,
326.25,40,0.867379308,,,
326.5,40,0.867379308,,,
326.75,40,0.867379308,,,
327,40,0.867379308,,,
327.25,40,0.867379308,,,
327.5,40,0.867379308,,,
327.75,40,0.867379308,,,
328,41,0.867379308,,,
328.25,41,0.867379308,,,
328.5,41,0.867379308,,,
328.75,41,0.867379308,,,
329,41,0.867379308,,,
329.25,41,0.867379308,,,
329.5,41,0.867379308,,,
329.75,41,0.867379308,,,
330,41,0.867379308,,,
330.25,41,0.867379308,,,
330.5,41,0.867379308,,,
330.75,41,0.867379308,,,
331,41,0.867379308,,,
331.25,41,0.867379308,,,
331.5,41,0.867379308,,,
331.75,41,0.867379308,,,
332,41,0.867379308,,,
332.25,41,0.867379308,,,
332.5,41,0.867379308,,,
332.75,41,0.867379308,,,
333,41,0.867379308,,,
333.25,41,0.867379308,,,
333.5,41,0.867379308,,,
333.75,41,0.867379308,,,
334,41,0.867379308,,,
334.25,41,0.867379308,,,
334.5,41,0.867379308,,,
334.75,41,0.867379308,,,
335,41,0.867379308,,,
335.25,41,0.867379308,,,
335.5,41,0.867379308,,,
335.75,41,0.867379308,,,
336,42,0.867379308,,,
336.25,42,0.831519306,,,
336.5,42,0.831519306,,,
336.75,42,0.831519306,,,
337,42,0.831519306,,,
337.25,42,0.831519306,,,
337.5,42,0.831519306,,,
337.75,42,0.831519306,,,
338,42,0.831519306,,,
338.25,42,0.831519306,,,
338.5,42,0.831519306,,,
338.75,42,0.831519306,,,
339,42,0.831519306,,,
339.25,42,0.831519306,,,
339.5,42,0.831519306,,,
339.75,42,0.831519306,,,
340,42,0.831519306,,,
340.25,42,0.831519306,,,
340.5,42,0.831519306,,,
340.75,42,0.831519306,,,
341,42,0.835361481,,,
341.25,42,0.82767719,,,
341.5,42,0.831519306,,,
341.75,42,0.826396525,,,
342,42,0.82255429,,,
342.25,42,0.82255429,,,
342.5,42,0.8199929,,,
342.75,42,0.821273625,,,
343,42,0.81743139,,,
343.25,42,0.81743139,,,
343.5,42,0.813589275,,,
343.75,42,0.807185829,,,
344,43,0.808466375,,,
344.25,43,0.807185829,,,
344.5,43,0.809747219,,,
344.75,43,0.803343594,,,
345,43,0.805904985,,,
345.25,43,0.800782204,,,
345.5,43,0.803343594,,,
345.75,43,0.798220813,,,
346,43,0.798220813,,,
346.25,43,0.795659304,,,
346.5,43,0.796940029,,,
346.75,43,0.786694288,,,
347,43,0.794378579,,,
347.25,43,0.787975013,,,
347.5,43,0.790536523,,,
347.75,43,0.787975013,,,
348,43,0.789255679,,,
348.25,43,0.782852173,,,
348.5,43,0.784132898,,,
348.75,43,0.781571388,,,
349,43,0.785413623,,,
349.25,43,0.777729273,,,
349.5,43,0.775167882,,,
349.75,43,0.773887217,,,
350,43,0.776448607,,,
350.25,43,0.772606492,,,
350.5,43,0.771325827,,,
350.75,43,0.764922202,,,
351,43,0.762360811,,,
351.25,43,0.763641477,,,
351.5,43,0.758518577,,,
351.75,43,0.763641477,,,
352,44,0.759799302,,,
352.25,44,0.763641477,,,
352.5,44,0.757237911,,,
352.75,44,0.757237911,,,
353,44,0.752115071,,,
353.25,44,0.754676521,,,
353.5,44,0.749553621,,,
353.75,44,0.753395677,,,
354,44,0.746992171,,,
354.25,44,0.745711386,,,
354.5,44,0.745711386,,,
354.75,44,0.745711386,,,
355,44,0.741869271,,,
355.25,44,0.74443078,,,
355.5,44,0.73930788,,,
355.75,44,0.740588605,,,
356,44,0.735465825,,,
356.25,44,0.73930788,,,
356.5,44,0.73162359,,,
356.75,44,0.73674649,,,
357,44,0.7290622,,,
357.25,44,0.732904315,,,
357.5,44,0.727781475,,,
357.75,44,0.7290622,,,
358,44,0.72650069,,,
358.25,44,0.718816519,,,
358.5,44,0.721377909,,,
358.75,44,0.717535675,,,
359,44,0.712412894,,,
359.25,44,0.713693619,,,
359.5,44,0.717535675,,,
359.75,44,0.711132228,,,
360,45,0.713693619,,,
360.25,45,0.708570778,,,
360.5,45,0.708570778,,,
360.75,45,0.708570778,,,
361,45,0.706009328,,,
361.25,45,0.707290113,,,
361.5,45,0.702167213,,,
361.75,45,0.703447878,,,
362,45,0.700886488,,,
362.25,45,0.703447878,,,
362.5,45,0.698324978,,,
362.75,45,0.699605823,,,
363,45,0.697044313,,,
363.25,45,0.697044313,,,
363.5,45,0.693202198,,,
363.75,45,0.698324978,,,
364,45,0.691921473,,,
364.25,45,0.697044313,,,
364.5,45,0.688079417,,,
364.75,45,0.694482923,,,
365,45,0.686798573,,,
365.25,45,0.693202198,,,
365.5,45,0.682956517,,,
365.75,45,0.686798573,,,
366,45,0.679114282,,,
366.25,45,0.682956517,,,
366.5,45,0.676552892,,,
366.75,45,0.675272226,,,
367,45,0.680395126,,,
367.25,45,0.673991501,,,
367.5,45,0.676552892,,,
367.75,45,0.671430111,,,
368,46,0.675272226,,,
368.25,46,0.668868601,,,
368.5,46,0.672710776,,,
368.75,46,0.667587876,,,
369,46,0.667587876,,,
369.25,46,0.663745821,,,
369.5,46,0.658622921,,,
369.75,46,0.658622921,,,
370,46,0.666307211,,,
370.25,46,0.659903586,,,
370.5,46,0.662464976,,,
370.75,46,0.656061471,,,
371,46,0.659903586,,,
371.25,46,0.656061471,,,
371.5,46,0.658622921,,,
371.75,46,0.652219415,,,
372,46,0.656061471,,,
372.25,46,0.64581579,,,
372.5,46,0.650938571,,,
372.75,46,0.64581579,,,
373,46,0.644535124,,,
373.25,46,0.641973615,,,
373.5,46,0.649657905,,,
373.75,46,0.64069289,,,
374,46,0.641973615,,,
374.25,46,0.636850774,,,
374.5,46,0.638131499,,,
374.75,46,0.636850774,,,
375,46,0.64069289,,,
375.25,46,0.634289324,,,
375.5,46,0.636850774,,,
375.75,46,0.631727874,,,
376,47,0.63556999,,,
376.25,47,0.65350008,,,
376.5,47,0.631727874,,,
376.75,47,0.629166484,,,
377,47,0.626604974,,,
377.25,47,0.626604974,,,
377.5,47,0.626604974,,,
377.75,47,0.624043584,,,
378,47,0.625324428,,,
378.25,47,0.621482194,,,
378.5,47,0.620201528,,,
378.75,47,0.622762919,,,
379,47,0.617640078,,,
379.25,47,0.618920684,,,
379.5,47,0.615078628,,,
379.75,47,0.618920684,,,
380,47,0.617640078,,,
380.25,47,0.609955788,,,
380.5,47,0.616359413,,,
380.75,47,0.608675122,,,
381,47,0.611236513,,,
381.25,47,0.606113613,,,
381.5,47,0.611236513,,,
381.75,47,0.599709988,,,
382,47,0.604832888,,,
382.25,47,0.607394278,,,
382.5,47,0.600990772,,,
382.75,47,0.603552222,,,
383,47,0.598429322,,,
383.25,47,0.603552222,,,
383.5,47,0.598429322,,,
383.75,47,0.602271497,,,
384,48,0.595867872,,,
384.25,48,0.598429322,,,
384.5,48,0.593306482,,,
384.75,48,0.597148716,,,
385,48,0.589464426,,,
385.25,48,0.594587207,,,
385.5,48,0.593306482,,,
385.75,48,0.593306482,,,
386,48,0.590744972,,,
386.25,48,0.593306482,,,
386.5,48,0.588183582,,,
386.75,48,0.590744972,,,
387,48,0.585622191,,,
387.25,48,0.581780076,,,
387.5,48,0.586902916,,,
387.75,48,0.579218626,,,
388,48,0.584341526,,,
388.25,48,0.576657176,,,
388.5,48,0.581780076,,,
388.75,48,0.576657176,,,
389,48,0.576657176,,,
389.25,48,0.574095786,,,
389.5,48,0.575376511,,,
389.75,48,0.577937901,,,
390,48,0.57281512,,,
390.25,48,0.575376511,,,
390.5,48,0.56769222,,,
390.75,48,0.568972886,,,
391,48,0.566411495,,,
391.25,48,0.57281512,,,
391.5,48,0.570253611,,,
391.75,48,0.571534276,,,
392,49,0.56256938,,,
392.25,49,0.57281512,,,
392.5,49,0.56513077,,,
392.75,49,0.56513077,,,
393,49,0.56513077,,,
393.25,49,0.566411495,,,
393.5,49,0.56000793,,,
393.75,49,0.563849986,,,
394,49,0.56000793,,,
394.25,49,0.56256938,,,
394.5,49,0.56000793,,,
394.75,49,0.554885089,,,
395,49,0.55744648,,,
395.25,49,0.553604424,,,
395.5,49,0.55744648,,,
395.75,49,0.551042914,,,
396,49,0.553604424,,,
396.25,49,0.547200799,,,
396.5,49,0.554885089,,,
396.75,49,0.543358624,,,
397,49,0.551042914,,,
397.25,49,0.545920074,,,
397.5,49,0.548481524,,,
397.75,49,0.542077899,,,
398,49,0.545920074,,,
398.25,49,0.543358624,,,
398.5,49,0.544639289,,,
398.75,49,0.543358624,,,
399,49,0.543358624,,,
399.25,49,0.538235784,,,
399.5,49,0.540797174,,,
399.75,49,0.535674274,,,
