Time:4Hz,Epoch,Channel 1,Event Id,Event Date,Event Duration
0.0000000000,0,1.4386769533,,,
0.2500000000,0,1.4335540533,,,
0.5000000000,0,1.4335540533,,,
0.7500000000,0,1.4258699417,,,
1.0000000000,0,1.4284310341,,,
1.2500000000,0,1.4258699417,,,
1.5000000000,0,1.4309929609,,,
1.7500000000,0,1.4437999725,,,
2.0000000000,0,1.4437999725,,,
2.2500000000,0,1.4502029419,,,
2.5000000000,0,1.4463609457,,,
2.7500000000,0,1.4476419687,,,
3.0000000000,0,1.4476419687,,,
3.2500000000,0,1.4476419687,,,
3.5000000000,0,1.4630099535,,,
3.7500000000,0,1.5001510382,,,
4.0000000000,0,1.5398529768,,,
4.2500000000,0,1.5641870499,,,
4.5000000000,0,1.5808360577,,,
4.7500000000,0,1.5833979845,,,
5.0000000000,0,1.5833979845,,,
5.2500000000,0,1.5718710423,,,
5.5000000000,0,1.5603450537,,,
5.7500000000,0,1.5449759960,,,
6.0000000000,0,1.5308879614,,,
6.2500000000,0,1.5142389536,,,
6.5000000000,0,1.5078350306,,,
6.7500000000,0,1.4975899458,,,
7.0000000000,0,1.4911860228,,,
7.2500000000,0,1.4911860228,,,
7.5000000000,0,1.4822210073,,,
7.7500000000,0,1.4822210073,,,
8.0000000000,1,1.4758180380,,,
8.2500000000,1,1.4706950188,,,
8.5000000000,1,1.4706950188,,,
8.7500000000,1,1.4694139957,,,
9.0000000000,1,1.4745370150,,,
9.2500000000,1,1.4719749689,,,
9.5000000000,1,1.4732559919,,,
9.7500000000,1,1.4835020304,,,
10.0000000000,1,1.4975899458,,,
10.2500000000,1,1.5142389536,,,
10.5000000000,1,1.5244849920,,,
10.7500000000,1,1.5257649422,,,
11.0000000000,1,1.5462570190,,,
11.2500000000,1,1.5654679537,,,
11.5000000000,1,1.5833979845,,,
11.7500000000,1,1.6013280153,,,
12.0000000000,1,1.6115729809,,,
12.2500000000,1,1.6166960001,,,
12.5000000000,1,1.6192580462,,,
12.7500000000,1,1.6179770231,,,
13.0000000000,1,1.6090120077,,,
13.2500000000,1,1.5962049961,,,
13.5000000000,1,1.5859589577,,,
13.7500000000,1,1.5795550346,,,
14.0000000000,1,1.5744329691,,,
14.2500000000,1,1.5731519461,,,
14.5000000000,1,1.5731519461,,,
14.7500000000,1,1.5667480230,,,
15.0000000000,1,1.5654679537,,,
15.2500000000,1,1.5552220345,,,
15.5000000000,1,1.5526599884,,,
15.7500000000,1,1.5500990152,,,
16.0000000000,2,1.5449759960,,,
16.2500000000,2,1.5449759960,,,
16.5000000000,2,1.5449759960,,,
16.7500000000,2,1.5449759960,,,
17.0000000000,2,1.5552220345,,,
17.2500000000,2,1.5629060268,,,
17.5000000000,2,1.5667480230,,,
17.7500000000,2,1.5680290461,,,
18.0000000000,2,1.5603450537,,,
18.2500000000,2,1.5654679537,,,
18.5000000000,2,1.5603450537,,,
18.7500000000,2,1.5513800383,,,
19.0000000000,2,1.5500990152,,,
19.2500000000,2,1.5565030575,,,
19.5000000000,2,1.5846780539,,,
19.7500000000,2,1.6102930307,,,
20.0000000000,2,1.6423100233,,,
20.2500000000,2,1.6448719501,,,
20.5000000000,2,1.6525559425,,,
20.7500000000,2,1.6499949694,,,
21.0000000000,2,1.6461520195,,,
21.2500000000,2,1.6371879578,,,
21.5000000000,2,1.6320650578,,,
21.7500000000,2,1.6179770231,,,
22.0000000000,2,1.6128540039,,,
22.2500000000,2,1.6102930307,,,
22.5000000000,2,1.6307840347,,,
22.7500000000,2,1.6640830040,,,
23.0000000000,2,1.6922580004,,,
23.2500000000,2,1.7089070082,,,
23.5000000000,2,1.7101880312,,,
23.7500000000,2,1.7114690542,,,
24.0000000000,3,1.7191530466,,,
24.2500000000,3,1.7293989658,,,
24.5000000000,3,1.7358030081,,,
24.7500000000,3,1.7486100197,,,
25.0000000000,3,1.7870310545,,,
25.2500000000,3,1.8280140162,,,
25.5000000000,3,1.8587510586,,,
25.7500000000,3,1.8766809702,,,
26.0000000000,3,1.8779619932,,,
26.2500000000,3,1.8728389740,,,
26.5000000000,3,1.8638739586,,,
26.7500000000,3,1.8510669470,,,
27.0000000000,3,1.8382600546,,,
27.2500000000,3,1.8228909969,,,
27.5000000000,3,1.8228909969,,,
27.7500000000,3,1.8382600546,,,
28.0000000000,3,1.8638739586,,,
28.2500000000,3,1.8805229664,,,
28.5000000000,3,1.8894879818,,,
28.7500000000,3,1.8933299780,,,
29.0000000000,3,1.8946110010,,,
29.2500000000,3,1.9048570395,,,
29.5000000000,3,1.9125410318,,,
29.7500000000,3,1.9266289473,,,
30.0000000000,3,1.9279099703,,,
30.2500000000,3,1.9202250242,,,
30.5000000000,3,1.9074180126,,,
30.7500000000,3,1.8830850124,,,
31.0000000000,3,1.8613129854,,,
31.2500000000,3,1.8331370354,,,
31.5000000000,3,1.8036799431,,,
31.7500000000,3,1.7767850161,,,
32.0000000000,4,1.7588549852,,,
32.2500000000,4,1.7498899698,,,
32.5000000000,4,1.7575750351,,,
32.7500000000,4,1.7742240429,,,
33.0000000000,4,1.7908730507,,,
33.2500000000,4,1.8011189699,,,
33.5000000000,4,1.8100839853,,,
33.7500000000,4,1.8152070045,,,
34.0000000000,4,1.8177679777,,,
34.2500000000,4,1.8152070045,,,
34.5000000000,4,1.8100839853,,,
34.7500000000,4,1.8036799431,,,
35.0000000000,4,1.7934349775,,,
35.2500000000,4,1.7819080353,,,
35.5000000000,4,1.7831890583,,,
35.7500000000,4,1.8023999929,,,
36.0000000000,4,1.8267329931,,,
36.2500000000,4,1.8536280394,,,
36.5000000000,4,1.8715579510,,,
36.7500000000,4,1.8792430162,,,
37.0000000000,4,1.8971730471,,,
37.2500000000,4,1.9010150433,,,
37.5000000000,4,1.8946110010,,,
37.7500000000,4,1.8920500278,,,
38.0000000000,4,1.8894879818,,,
38.2500000000,4,1.8933299780,,,
38.5000000000,4,1.8984529972,,,
38.7500000000,4,1.8933299780,,,
39.0000000000,4,1.8907690048,,,
39.2500000000,4,1.8946110010,,,
39.5000000000,4,1.9099800587,,,
39.7500000000,4,1.9304709435,,,
40.0000000000,5,1.9458400011,,,
40.2500000000,5,1.9370739460,,,
40.5000000000,5,1.9345120192,,,
40.7500000000,5,1.9281090498,,,
41.0000000000,5,1.9255470037,,,
41.2500000000,5,1.9357930422,,,
41.5000000000,5,1.9562849998,,,
41.7500000000,5,1.9690920115,,,
42.0000000000,5,1.9767760038,,,
42.2500000000,5,1.9690920115,,,
42.5000000000,5,1.9601269960,,,
42.7500000000,5,1.9345120192,,,
43.0000000000,5,1.9204250574,,,
43.2500000000,5,1.9012140036,,,
43.5000000000,5,1.8768800497,,,
43.7500000000,5,1.8602310419,,,
44.0000000000,5,1.8448619843,,,
44.2500000000,5,1.8640730381,,,
44.5000000000,5,1.9012140036,,,
44.7500000000,5,1.9396350384,,,
45.0000000000,5,1.9614069462,,,
45.2500000000,5,1.9665299654,,,
45.5000000000,5,1.9626879692,,,
45.7500000000,5,1.9639689922,,,
46.0000000000,5,1.9690920115,,,
46.2500000000,5,1.9883019924,,,
46.5000000000,5,1.9985480309,,,
46.7500000000,5,2.0100750923,,,
47.0000000000,5,2.0075130463,,,
47.2500000000,5,1.9972670078,,,
47.5000000000,5,1.9780570269,,,
47.7500000000,5,1.9511619806,,,
48.0000000000,6,1.9255470037,,,
48.2500000000,6,1.8960909843,,,
48.5000000000,6,1.8794419765,,,
48.7500000000,6,1.8589500189,,,
49.0000000000,6,1.8474240303,,,
49.2500000000,6,1.8512660265,,,
49.5000000000,6,1.8679150343,,,
49.7500000000,6,1.8909679651,,,
50.0000000000,6,1.9037749767,,,
50.2500000000,6,1.9140210152,,,
50.5000000000,6,1.9165819883,,,
50.7500000000,6,1.9101790190,,,
51.0000000000,6,1.9050559998,,,
51.2500000000,6,1.8922489882,,,
51.5000000000,6,1.8794419765,,,
51.7500000000,6,1.8704769611,,,
52.0000000000,6,1.8615119457,,,
52.2500000000,6,1.8640730381,,,
52.5000000000,6,1.8589500189,,,
52.7500000000,6,1.8627920151,,,
53.0000000000,6,1.8807220459,,,
53.2500000000,6,1.8794419765,,,
53.5000000000,6,1.8871259689,,,
53.7500000000,6,1.8781609535,,,
54.0000000000,6,1.8871259689,,,
54.2500000000,6,1.8845649958,,,
54.5000000000,6,1.8832839727,,,
54.7500000000,6,1.8871259689,,,
55.0000000000,6,1.8755999804,,,
55.2500000000,6,1.8743189573,,,
55.5000000000,6,1.8871259689,,,
55.7500000000,6,1.9217050076,,,
56.0000000000,7,1.9614069462,,,
56.2500000000,7,1.9844599962,,,
56.5000000000,7,1.9998290539,,,
56.7500000000,7,2.0011100769,,,
57.0000000000,7,1.9908640385,,,
57.2500000000,7,1.9818990231,,,
57.5000000000,7,1.9652500153,,,
57.7500000000,7,1.9473199844,,,
58.0000000000,7,1.9281090498,,,
58.2500000000,7,1.9165819883,,,
58.5000000000,7,1.9204250574,,,
58.7500000000,7,1.9229860306,,,
59.0000000000,7,1.9217050076,,,
59.2500000000,7,1.9140210152,,,
59.5000000000,7,1.9165819883,,,
59.7500000000,7,1.9140210152,,,
60.0000000000,7,1.9127399921,,,
60.2500000000,7,1.9140210152,,,
60.5000000000,7,1.9088979959,,,
60.7500000000,7,1.9101790190,,,
61.0000000000,7,1.9024950266,,,
61.2500000000,7,1.9050559998,,,
61.5000000000,7,1.9242670536,,,
61.7500000000,7,1.9357930422,,,
62.0000000000,7,1.9524420500,,,
62.2500000000,7,1.9550039768,,,
62.5000000000,7,1.9575649500,,,
62.7500000000,7,1.9588459730,,,
63.0000000000,7,1.9537229538,,,
63.2500000000,7,1.9473199844,,,
63.5000000000,7,1.9460389614,,,
63.7500000000,7,1.9703719616,,,
64.0000000000,8,2.0023899078,,,
64.2500000000,8,2.0228819847,,,
64.5000000000,8,2.0318470001,,,
64.7500000000,8,2.0305659771,,,
65.0000000000,8,2.0267241001,,,
65.2500000000,8,2.0190401077,,,
65.5000000000,8,2.0062329769,,,
65.7500000000,8,1.9921449423,,,
66.0000000000,8,1.9729340076,,,
66.2500000000,8,1.9665299654,,,
66.5000000000,8,1.9742150307,,,
66.7500000000,8,1.9883019924,,,
67.0000000000,8,2.0023899078,,,
67.2500000000,8,2.0011100769,,,
67.5000000000,8,1.9972670078,,,
67.7500000000,8,1.9921449423,,,
68.0000000000,8,1.9857410192,,,
68.2500000000,8,1.9793369770,,,
68.5000000000,8,1.9678109884,,,
68.7500000000,8,1.9601269960,,,
69.0000000000,8,1.9537229538,,,
69.2500000000,8,1.9460389614,,,
69.5000000000,8,1.9421969652,,,
69.7500000000,8,1.9357930422,,,
70.0000000000,8,1.9447580576,,,
70.2500000000,8,1.9665299654,,,
70.5000000000,8,1.9947060347,,,
70.7500000000,8,2.0216009617,,,
71.0000000000,8,2.0305659771,,,
71.2500000000,8,2.0356891155,,,
71.5000000000,8,2.0356891155,,,
71.7500000000,8,2.0484960079,,,
72.0000000000,9,2.0702679157,,,
72.2500000000,9,2.0830750465,,,
72.5000000000,9,2.0907599926,,,
72.7500000000,9,2.0830750465,,,
73.0000000000,9,2.0715489388,,,
73.2500000000,9,2.0664260387,,,
73.5000000000,9,2.0459349155,,,
73.7500000000,9,2.0331280231,,,
74.0000000000,9,2.0190401077,,,
74.2500000000,9,2.0075130463,,,
74.5000000000,9,1.9972670078,,,
74.7500000000,9,1.9895830154,,,
75.0000000000,9,1.9818990231,,,
75.2500000000,9,1.9844599962,,,
75.5000000000,9,1.9806180000,,,
75.7500000000,9,1.9716529846,,,
76.0000000000,9,1.9665299654,,,
76.2500000000,9,1.9626879692,,,
76.5000000000,9,1.9614069462,,,
76.7500000000,9,1.9729340076,,,
77.0000000000,9,1.9934250116,,,
77.2500000000,9,2.0075130463,,,
77.5000000000,9,2.0177590847,,,
77.7500000000,9,2.0318470001,,,
78.0000000000,9,2.0433731079,,,
78.2500000000,9,2.0805139542,,,
78.5000000000,9,2.1138119698,,,
78.7500000000,9,2.1547949314,,,
79.0000000000,9,2.1804099083,,,
79.2500000000,9,2.1919360161,,,
79.5000000000,9,2.1906549931,,,
79.7500000000,9,2.1944971085,,,
80.0000000000,10,2.2111470699,,,
80.2500000000,10,2.2213919163,,,
80.5000000000,10,2.2201120853,,,
80.7500000000,10,2.2213919163,,,
81.0000000000,10,2.2098660469,,,
81.2500000000,10,2.2073040009,,,
81.5000000000,10,2.1919360161,,,
81.7500000000,10,2.1778481007,,,
82.0000000000,10,2.1522340775,,,
82.2500000000,10,2.1291809082,,,
82.5000000000,10,2.1099700928,,,
82.7500000000,10,2.0869169235,,,
83.0000000000,10,2.0689868927,,,
83.2500000000,10,2.0536189079,,,
83.5000000000,10,2.0395309925,,,
83.7500000000,10,2.0331280231,,,
84.0000000000,10,2.0446538925,,,
84.2500000000,10,2.0843560696,,,
84.5000000000,10,2.1240580082,,,
84.7500000000,10,2.1535151005,,,
85.0000000000,10,2.1688830853,,,
85.2500000000,10,2.1740059853,,,
85.5000000000,10,2.1778481007,,,
85.7500000000,10,2.1791288853,,,
86.0000000000,10,2.1714448929,,,
86.2500000000,10,2.1599180698,,,
86.5000000000,10,2.1368649006,,,
86.7500000000,10,2.1227769852,,,
87.0000000000,10,2.1048469543,,,
87.2500000000,10,2.0933210850,,,
87.5000000000,10,2.0881979465,,,
87.7500000000,10,2.0779519081,,,
88.0000000000,11,2.0728290081,,,
88.2500000000,11,2.0677070618,,,
88.5000000000,11,2.0600221157,,,
88.7500000000,11,2.0574610233,,,
89.0000000000,11,2.0536189079,,,
89.2500000000,11,2.0523378849,,,
89.5000000000,11,2.0433731079,,,
89.7500000000,11,2.0395309925,,,
90.0000000000,11,2.0344080925,,,
90.2500000000,11,2.0548989773,,,
90.5000000000,11,2.1035668850,,,
90.7500000000,11,2.1535151005,,,
91.0000000000,11,2.2034618855,,,
91.2500000000,11,2.2303569317,,,
91.5000000000,11,2.2380421162,,,
91.7500000000,11,2.2457261086,,,
92.0000000000,11,2.2406029701,,,
92.2500000000,11,2.2431650162,,,
92.5000000000,11,2.2393219471,,,
92.7500000000,11,2.2265150547,,,
93.0000000000,11,2.2149889469,,,
93.2500000000,11,2.2060239315,,,
93.5000000000,11,2.2201120853,,,
93.7500000000,11,2.2406029701,,,
94.0000000000,11,2.2572519779,,,
94.2500000000,11,2.2662169933,,,
94.5000000000,11,2.2739019394,,,
94.7500000000,11,2.2713398933,,,
95.0000000000,11,2.2674980164,,,
95.2500000000,11,2.2572519779,,,
95.5000000000,11,2.2418839931,,,
95.7500000000,11,2.2265150547,,,
96.0000000000,12,2.2213919163,,,
96.2500000000,12,2.2188310623,,,
96.5000000000,12,2.2175500393,,,
96.7500000000,12,2.2111470699,,,
97.0000000000,12,2.2073040009,,,
97.2500000000,12,2.1970589161,,,
97.5000000000,12,2.1816899776,,,
97.7500000000,12,2.1740059853,,,
98.0000000000,12,2.1688830853,,,
98.2500000000,12,2.1599180698,,,
98.5000000000,12,2.1547949314,,,
98.7500000000,12,2.1445500851,,,
99.0000000000,12,2.1432690620,,,
99.2500000000,12,2.1432690620,,,
99.5000000000,12,2.1573569775,,,
99.7500000000,12,2.1919360161,,,
100.0000000000,12,2.2226729393,,,
100.2500000000,12,2.2636559010,,,
100.5000000000,12,2.2828669548,,,
100.7500000000,12,2.2918319702,,,
101.0000000000,12,2.2879900932,,,
101.2500000000,12,2.2777440548,,,
101.5000000000,12,2.2598140240,,,
101.7500000000,12,2.2418839931,,,
102.0000000000,12,2.2239539623,,,
102.2500000000,12,2.2034618855,,,
102.5000000000,12,2.1880939007,,,
102.7500000000,12,2.1714448929,,,
103.0000000000,12,2.1586380005,,,
103.2500000000,12,2.1471109390,,,
103.5000000000,12,2.1407070160,,,
103.7500000000,12,2.1355850697,,,
104.0000000000,13,2.1343040466,,,
104.2500000000,13,2.1419880390,,,
104.5000000000,13,2.1547949314,,,
104.7500000000,13,2.1688830853,,,
105.0000000000,13,2.1791288853,,,
105.2500000000,13,2.1816899776,,,
105.5000000000,13,2.1804099083,,,
105.7500000000,13,2.1727249622,,,
106.0000000000,13,2.1676020622,,,
106.2500000000,13,2.1637599468,,,
106.5000000000,13,2.1522340775,,,
106.7500000000,13,2.1483919621,,,
107.0000000000,13,2.1419880390,,,
107.2500000000,13,2.1419880390,,,
107.5000000000,13,2.1394269466,,,
107.7500000000,13,2.1381459236,,,
108.0000000000,13,2.1471109390,,,
108.2500000000,13,2.1355850697,,,
108.5000000000,13,2.1407070160,,,
108.7500000000,13,2.1330230236,,,
109.0000000000,13,2.1355850697,,,
109.2500000000,13,2.1317420006,,,
109.5000000000,13,2.1317420006,,,
109.7500000000,13,2.1330230236,,,
110.0000000000,13,2.1394269466,,,
110.2500000000,13,2.1458299160,,,
110.5000000000,13,2.1496729851,,,
110.7500000000,13,2.1471109390,,,
111.0000000000,13,2.1483919621,,,
111.2500000000,13,2.1496729851,,,
111.5000000000,13,2.1458299160,,,
111.7500000000,13,2.1471109390,,,
112.0000000000,14,2.1496729851,,,
112.2500000000,14,2.1445500851,,,
112.5000000000,14,2.1419880390,,,
112.7500000000,14,2.1419880390,,,
113.0000000000,14,2.1611990929,,,
113.2500000000,14,2.1944971085,,,
113.5000000000,14,2.2367610931,,,
113.7500000000,14,2.2610950470,,,
114.0000000000,14,2.2713398933,,,
114.2500000000,14,2.2790250778,,,
114.5000000000,14,2.2739019394,,,
114.7500000000,14,2.2726209164,,,
115.0000000000,14,2.2623751163,,,
115.2500000000,14,2.2470068932,,,
115.5000000000,14,2.2329189777,,,
115.7500000000,14,2.2137079239,,,
116.0000000000,14,2.2073040009,,,
116.2500000000,14,2.2124269009,,,
116.5000000000,14,2.2137079239,,,
116.7500000000,14,2.2213919163,,,
117.0000000000,14,2.2303569317,,,
117.2500000000,14,2.2354800701,,,
117.5000000000,14,2.2354800701,,,
117.7500000000,14,2.2303569317,,,
118.0000000000,14,2.2265150547,,,
118.2500000000,14,2.2175500393,,,
118.5000000000,14,2.2098660469,,,
118.7500000000,14,2.2073040009,,,
119.0000000000,14,2.1957778931,,,
119.2500000000,14,2.1932170391,,,
119.5000000000,14,2.2188310623,,,
119.7500000000,14,2.2521300316,,,
120.0000000000,15,2.2931129932,,,
120.2500000000,15,2.2995159626,,,
120.5000000000,15,2.2956740856,,,
120.7500000000,15,2.3187270164,,,
121.0000000000,15,2.3494639397,,,
121.2500000000,15,2.3417789936,,,
121.5000000000,15,2.3417789936,,,
121.7500000000,15,2.3622710705,,,
122.0000000000,15,2.3853240013,,,
122.2500000000,15,2.4147799015,,,
122.5000000000,15,2.4301490784,,,
122.7500000000,15,2.4184479713,,,
123.0000000000,15,2.4158871174,,,
123.2500000000,15,2.3889920712,,,
123.5000000000,15,2.3710620403,,,
123.7500000000,15,2.3556931019,,,
124.0000000000,15,2.3377630711,,,
124.2500000000,15,2.3249559402,,,
124.5000000000,15,2.3326399326,,,
124.7500000000,15,2.3556931019,,,
125.0000000000,15,2.3608160019,,,
125.2500000000,15,2.3633780479,,,
125.5000000000,15,2.3672199249,,,
125.7500000000,15,2.3697810173,,,
126.0000000000,15,2.3851499557,,,
126.2500000000,15,2.3838689327,,,
126.5000000000,15,2.3825879097,,,
126.7500000000,15,2.3646581173,,,
127.0000000000,15,2.3416049480,,,
127.2500000000,15,2.3223950863,,,
127.5000000000,15,2.2967801094,33025,127.7187500000,0.0000000000
127.7500000000,15,2.2724471092,33024,127.9062500000,0.0000000000
128.0000000000,16,2.2429900169,,,
128.2500000000,16,2.2391479015,,,
128.5000000000,16,2.2391479015,,,
128.7500000000,16,2.2455520630,33025:33024,128.8750000000:128.9375000000,0.0000000000:0.0000000000
129.0000000000,16,2.2481129169,33025:33024:33025,129.0625000000:129.1562500000:129.2187500000,0.0000000000:0.0000000000:0.0000000000
129.2500000000,16,2.2545170784,33024:33025:33024,129.2812500000:129.3750000000:129.4687500000,0.0000000000:0.0000000000:0.0000000000
129.5000000000,16,2.2634820938,33025:33024:33025,129.5312500000:129.6250000000:129.6875000000,0.0000000000:0.0000000000:0.0000000000
129.7500000000,16,2.2737269402,33024,129.7812500000,0.0000000000
130.0000000000,16,2.2801311016,33025:33024,130.0312500000:130.1250000000,0.0000000000:0.0000000000
130.2500000000,16,2.2967801094,33025:33024,130.2812500000:130.4062500000,0.0000000000:0.0000000000
130.5000000000,16,2.2980608940,,,
130.7500000000,16,2.3019030094,,,
131.0000000000,16,2.3006219864,,,
131.2500000000,16,2.2839729786,,,
131.5000000000,16,2.2762889862,,,
131.7500000000,16,2.2583589554,,,
132.0000000000,16,2.2481129169,,,
132.2500000000,16,2.2314639091,,,
132.5000000000,16,2.2199380398,,,
132.7500000000,16,2.2148149014,,,
133.0000000000,16,2.2084109783,,,
133.2500000000,16,2.2032880783,,,
133.5000000000,16,2.1930429935,,,
133.7500000000,16,2.1968851089,,,
134.0000000000,16,2.1891999245,,,
134.2500000000,16,2.1891999245,,,
134.5000000000,16,2.1904809475,,,
134.7500000000,16,2.1866390705,,,
135.0000000000,16,2.1866390705,,,
135.2500000000,16,2.1815159321,,,
135.5000000000,16,2.1776740551,,,
135.7500000000,16,2.1802349091,,,
136.0000000000,17,2.1725509167,,,
136.2500000000,17,2.1738319397,,,
136.5000000000,17,2.1776740551,,,
136.7500000000,17,2.2071299553,,,
137.0000000000,17,2.2404289246,,,
137.2500000000,17,2.2801311016,,,
137.5000000000,17,2.3070259094,,,
137.7500000000,17,2.3070259094,,,
138.0000000000,17,2.3095870018,,,
138.2500000000,17,2.3083069324,,,
138.5000000000,17,2.3006219864,,,
138.7500000000,17,2.2865350246,,,
139.0000000000,17,2.2903769016,,,
139.2500000000,17,2.3121490479,,,
139.5000000000,17,2.3185520172,,,
139.7500000000,17,2.3262369633,,,
140.0000000000,17,2.3249559402,,,
140.2500000000,17,2.3211140633,,,
140.5000000000,17,2.3108680248,,,
140.7500000000,17,2.2942190170,,,
141.0000000000,17,2.2750079632,,,
141.2500000000,17,2.2596399784,,,
141.5000000000,17,2.2468330860,,,
141.7500000000,17,2.2327449322,,,
142.0000000000,17,2.2327449322,,,
142.2500000000,17,2.2263410091,,,
142.5000000000,17,2.2224988937,,,
142.7500000000,17,2.2301828861,,,
143.0000000000,17,2.2455520630,,,
143.2500000000,17,2.2673239708,,,
143.5000000000,17,2.2775700092,,,
143.7500000000,17,2.2839729786,,,
144.0000000000,18,2.2814118862,,,
144.2500000000,18,2.2775700092,,,
144.5000000000,18,2.2711660862,,,
144.7500000000,18,2.2622010708,,,
145.0000000000,18,2.2724471092,,,
145.2500000000,18,2.2980608940,,,
145.5000000000,18,2.3313601017,,,
145.7500000000,18,2.3505699635,,,
146.0000000000,18,2.3620970249,,,
146.2500000000,18,2.3723430634,,,
146.5000000000,18,2.3774650097,,,
146.7500000000,18,2.3813080788,,,
147.0000000000,18,2.3710620403,,,
147.2500000000,18,2.3659389019,,,
147.5000000000,18,2.3159909248,,,
147.7500000000,18,2.3147099018,,,
148.0000000000,18,2.3057448864,,,
148.2500000000,18,2.2826919556,,,
148.5000000000,18,2.2737269402,,,
148.7500000000,18,2.2686049938,,,
149.0000000000,18,2.2609200478,,,
149.2500000000,18,2.2468330860,,,
149.5000000000,18,2.2929379940,,,
149.7500000000,18,2.2929379940,,,
150.0000000000,18,2.2762889862,,,
150.2500000000,18,2.2711660862,,,
150.5000000000,18,2.2788500786,,,
150.7500000000,18,2.3019030094,,,
151.0000000000,18,2.3300790787,,,
151.2500000000,18,2.3377630711,,,
151.5000000000,18,2.3467280865,,,
151.7500000000,18,2.3544130325,,,
152.0000000000,19,2.3736228943,,,
152.2500000000,19,2.3710620403,,,
152.5000000000,19,2.3800270557,,,
152.7500000000,19,2.3851499557,,,
153.0000000000,19,2.3851499557,,,
153.2500000000,19,2.3902719021,,,
153.5000000000,19,2.3966760635,,,
153.7500000000,19,2.3941149712,,,
154.0000000000,19,2.3736228943,,,
154.2500000000,19,2.3672199249,,,
154.5000000000,19,2.3838689327,,,
154.7500000000,19,2.4248518944,,,
155.0000000000,19,2.4735190868,,,
155.2500000000,19,2.5004138947,,,
155.5000000000,19,2.5221860409,,,
155.7500000000,19,2.5234670639,,,
156.0000000000,19,2.5093789101,,,
156.2500000000,19,2.4978530407,,,
156.5000000000,19,2.4760799408,,,
156.7500000000,19,2.4440619946,,,
157.0000000000,19,2.4094829559,,,
157.2500000000,19,2.3928339481,,,
157.5000000000,19,2.3697810173,,,
157.7500000000,19,2.3531320095,,,
158.0000000000,19,2.3569738865,,,
158.2500000000,19,2.3531320095,,,
158.5000000000,19,2.3518509865,,,
158.7500000000,19,2.3454480171,,,
159.0000000000,19,2.3480091095,,,
159.2500000000,19,2.3877110481,,,
159.5000000000,19,2.4338169098,,,
159.7500000000,19,2.4696769714,,,
160.0000000000,20,2.4876070023,,,
160.2500000000,20,2.4940099716,,,
160.5000000000,20,2.4824841022,,,
160.7500000000,20,2.4824841022,,,
161.0000000000,20,2.4594309330,,,
161.2500000000,20,2.4427819252,,,
161.5000000000,20,2.4146060944,,,
161.7500000000,20,2.3992369175,,,
162.0000000000,20,2.3838689327,,,
162.2500000000,20,2.3800270557,,,
162.5000000000,20,2.3684999943,,,
162.7500000000,20,2.3595349789,,,
163.0000000000,20,2.3569738865,,,
163.2500000000,20,2.3492898941,,,
163.5000000000,20,2.3684999943,,,
163.7500000000,20,2.3889920712,,,
164.0000000000,20,2.4222900867,,,
164.2500000000,20,2.4363780022,,,
164.5000000000,20,2.4376590252,,,
164.7500000000,20,2.4376590252,,,
165.0000000000,20,2.4299750328,,,
165.2500000000,20,2.4261319637,,,
165.5000000000,20,2.4222900867,,,
165.7500000000,20,2.4146060944,,,
166.0000000000,20,2.4107639790,,,
166.2500000000,20,2.3966760635,,,
166.5000000000,20,2.3889920712,,,
166.7500000000,20,2.3800270557,,,
167.0000000000,20,2.3723430634,,,
167.2500000000,20,2.3633780479,,,
167.5000000000,20,2.3595349789,,,
167.7500000000,20,2.3467280865,,,
168.0000000000,21,2.3467280865,,,
168.2500000000,21,2.3454480171,,,
168.5000000000,21,2.3620970249,,,
168.7500000000,21,2.3620970249,,,
169.0000000000,21,2.3825879097,,,
169.2500000000,21,2.4094829559,,,
169.5000000000,21,2.4427819252,,,
169.7500000000,21,2.4671149254,,,
170.0000000000,21,2.4850449562,,,
170.2500000000,21,2.4901680946,,,
170.5000000000,21,2.4850449562,,,
170.7500000000,21,2.4683959484,,,
171.0000000000,21,2.4568700790,,,
171.2500000000,21,2.4466240406,,,
171.5000000000,21,2.4543080330,,,
171.7500000000,21,2.4888880253,,,
172.0000000000,21,2.5119400024,,,
172.2500000000,21,2.5285899639,,,
172.5000000000,21,2.5273089409,,,
172.7500000000,21,2.5221860409,,,
173.0000000000,21,2.5068180561,,,
173.2500000000,21,2.4888880253,,,
173.5000000000,21,2.4696769714,,,
173.7500000000,21,2.4466240406,,,
174.0000000000,21,2.4274129868,,,
174.2500000000,21,2.4107639790,,,
174.5000000000,21,2.4043600559,,,
174.7500000000,21,2.3851499557,,,
175.0000000000,21,2.3825879097,,,
175.2500000000,21,2.3787460327,,,
175.5000000000,21,2.3736228943,,,
175.7500000000,21,2.3749039173,,,
176.0000000000,22,2.3800270557,,,
176.2500000000,22,2.3877110481,,,
176.5000000000,22,2.4017989635,,,
176.7500000000,22,2.4056410789,,,
177.0000000000,22,2.4043600559,,,
177.2500000000,22,2.4005179405,,,
177.5000000000,22,2.4005179405,,,
177.7500000000,22,2.3992369175,,,
178.0000000000,22,2.3992369175,,,
178.2500000000,22,2.4133250713,,,
178.5000000000,22,2.4222900867,,,
178.7500000000,22,2.4286940098,,,
179.0000000000,22,2.4235711098,,,
179.2500000000,22,2.4210100174,,,
179.5000000000,22,2.4210100174,,,
179.7500000000,22,2.4107639790,,,
180.0000000000,22,2.4107639790,,,
180.2500000000,22,2.3953950405,,,
180.5000000000,22,2.3902719021,,,
180.7500000000,22,2.3902719021,,,
181.0000000000,22,2.3864300251,,,
181.2500000000,22,2.3877110481,,,
181.5000000000,22,2.3838689327,,,
181.7500000000,22,2.3864300251,,,
182.0000000000,22,2.3838689327,,,
182.2500000000,22,2.3838689327,,,
182.5000000000,22,2.4184479713,,,
182.7500000000,22,2.4517469406,,,
183.0000000000,22,2.4812030792,,,
183.2500000000,22,2.4991331100,,,
183.5000000000,22,2.5029749870,,,
183.7500000000,22,2.5029749870,,,
184.0000000000,23,2.4901680946,,,
184.2500000000,23,2.4927299023,,,
184.5000000000,23,2.4991331100,,,
184.7500000000,23,2.5170629025,,,
185.0000000000,23,2.5324320793,,,
185.2500000000,23,2.5478000641,,,
185.5000000000,23,2.5631690025,,,
185.7500000000,23,2.5618879795,,,
186.0000000000,23,2.5567650795,,,
186.2500000000,23,2.5375549793,,,
186.5000000000,23,2.5273089409,,,
186.7500000000,23,2.5042560101,,,
187.0000000000,23,2.4888880253,,,
187.2500000000,23,2.5042560101,,,
187.5000000000,23,2.5362739563,,,
187.7500000000,23,2.5554850101,,,
188.0000000000,23,2.5682919025,,,
188.2500000000,23,2.5644500256,,,
188.5000000000,23,2.5606069565,,,
188.7500000000,23,2.5439579487,,,
189.0000000000,23,2.5247468948,,,
189.2500000000,23,2.5093789101,,,
189.5000000000,23,2.4863259792,,,
189.7500000000,23,2.4696769714,,,
190.0000000000,23,2.4530270100,,,
190.2500000000,23,2.4530270100,,,
190.5000000000,23,2.4748001099,,,
190.7500000000,23,2.5145020485,,,
191.0000000000,23,2.5503621101,,,
191.2500000000,23,2.5759758949,,,
191.5000000000,23,2.5900640488,,,
191.7500000000,23,2.5913450718,,,
192.0000000000,24,2.5990290642,,,
192.2500000000,24,2.5977480412,,,
192.5000000000,24,2.5836598873,,,
192.7500000000,24,2.5682919025,,,
193.0000000000,24,2.5465199947,,,
193.2500000000,24,2.5337119102,,,
193.5000000000,24,2.5080978870,,,
193.7500000000,24,2.4927299023,,,
194.0000000000,24,2.4773609638,,,
194.2500000000,24,2.4799230099,,,
194.5000000000,24,2.5068180561,,,
194.7500000000,24,2.5413970947,,,
195.0000000000,24,2.5759758949,,,
195.2500000000,24,2.5977480412,,,
195.5000000000,24,2.6015899181,,,
195.7500000000,24,2.6028709412,,,
196.0000000000,24,2.5913450718,,,
196.2500000000,24,2.5810990334,,,
196.5000000000,24,2.5695719719,,,
196.7500000000,24,2.5580461025,,,
197.0000000000,24,2.5542039871,,,
197.2500000000,24,2.5490810871,,,
197.5000000000,24,2.5426769257,,,
197.7500000000,24,2.5362739563,,,
198.0000000000,24,2.5221860409,,,
198.2500000000,24,2.5132210255,,,
198.5000000000,24,2.4991331100,,,
198.7500000000,24,2.4914491177,,,
199.0000000000,24,2.4812030792,,,
199.2500000000,24,2.4696769714,,,
199.5000000000,24,2.4645540714,,,
199.7500000000,24,2.4607119560,,,
200.0000000000,25,2.4607119560,,,
200.2500000000,25,2.4581499100,,,
200.5000000000,25,2.4479050636,,,
200.7500000000,25,2.4491848946,,,
201.0000000000,25,2.4453430176,,,
201.2500000000,25,2.4479050636,,,
201.5000000000,25,2.4645540714,,,
201.7500000000,25,2.4952909946,,,
202.0000000000,25,2.5388350487,,,
202.2500000000,25,2.5644500256,,,
202.5000000000,25,2.5849409103,,,
202.7500000000,25,2.5862219334,,,
203.0000000000,25,2.5875020027,,,
203.2500000000,25,2.5746951103,,,
203.5000000000,25,2.5606069565,,,
203.7500000000,25,2.5439579487,,,
204.0000000000,25,2.5260279179,,,
204.2500000000,25,2.5145020485,,,
204.5000000000,25,2.4991331100,,,
204.7500000000,25,2.4876070023,,,
205.0000000000,25,2.4824841022,,,
205.2500000000,25,2.4748001099,,,
205.5000000000,25,2.4748001099,,,
205.7500000000,25,2.4696769714,,,
206.0000000000,25,2.4683959484,,,
206.2500000000,25,2.4722380638,,,
206.5000000000,25,2.4696769714,,,
206.7500000000,25,2.4632730484,,,
207.0000000000,25,2.4607119560,,,
207.2500000000,25,2.4658350945,,,
207.5000000000,25,2.4619929790,,,
207.7500000000,25,2.4530270100,,,
208.0000000000,26,2.4594309330,,,
208.2500000000,26,2.4543080330,,,
208.5000000000,26,2.4581499100,,,
208.7500000000,26,2.4517469406,,,
209.0000000000,26,2.4530270100,,,
209.2500000000,26,2.4530270100,,,
209.5000000000,26,2.4466240406,,,
209.7500000000,26,2.4530270100,,,
210.0000000000,26,2.4491848946,,,
210.2500000000,26,2.4517469406,,,
210.5000000000,26,2.4555890560,,,
210.7500000000,26,2.4607119560,,,
211.0000000000,26,2.4901680946,,,
211.2500000000,26,2.5375549793,,,
211.5000000000,26,2.5875020027,,,
211.7500000000,26,2.6169590950,,,
212.0000000000,26,2.6323280334,,,
212.2500000000,26,2.6348888874,,,
212.5000000000,26,2.6348888874,,,
212.7500000000,26,2.6208009720,,,
213.0000000000,26,2.6079940796,,,
213.2500000000,26,2.5900640488,,,
213.5000000000,26,2.5682919025,,,
213.7500000000,26,2.5593268871,,,
214.0000000000,26,2.5452389717,,,
214.2500000000,26,2.5413970947,,,
214.5000000000,26,2.5324320793,,,
214.7500000000,26,2.5221860409,,,
215.0000000000,26,2.5157830715,,,
215.2500000000,26,2.5119400024,,,
215.5000000000,26,2.5093789101,,,
215.7500000000,26,2.5016949177,,,
216.0000000000,27,2.5042560101,,,
216.2500000000,27,2.5285899639,,,
216.5000000000,27,2.5503621101,,,
216.7500000000,27,2.5682919025,,,
217.0000000000,27,2.5759758949,,,
217.2500000000,27,2.5798180103,,,
217.5000000000,27,2.5721340179,,,
217.7500000000,27,2.5695719719,,,
218.0000000000,27,2.5631690025,,,
218.2500000000,27,2.5593268871,,,
218.5000000000,27,2.5721340179,,,
218.7500000000,27,2.5939059258,,,
219.0000000000,27,2.6131169796,,,
219.2500000000,27,2.6220819950,,,
219.5000000000,27,2.6208009720,,,
219.7500000000,27,2.6233630180,,,
220.0000000000,27,2.6156780720,,,
220.2500000000,27,2.6067130566,,,
220.5000000000,27,2.5913450718,,,
220.7500000000,27,2.5836598873,,,
221.0000000000,27,2.5798180103,,,
221.2500000000,27,2.5836598873,,,
221.5000000000,27,2.6041519642,,,
221.7500000000,27,2.6246430874,,,
222.0000000000,27,2.6374499798,,,
222.2500000000,27,2.6412930489,,,
222.5000000000,27,2.6464149952,,,
222.7500000000,27,2.6425731182,,,
223.0000000000,27,2.6348888874,,,
223.2500000000,27,2.6182401180,,,
223.5000000000,27,2.6003100872,,,
223.7500000000,27,2.5900640488,,,
224.0000000000,28,2.5670111179,,,
224.2500000000,28,2.5862219334,,,
224.5000000000,28,2.6476960182,,,
224.7500000000,28,2.7142930031,,,
225.0000000000,28,2.7488729954,,,
225.2500000000,28,2.7668030262,,,
225.5000000000,28,2.7642409801,,,
225.7500000000,28,2.7527151108,,,
226.0000000000,28,2.7539949417,,,
226.2500000000,28,2.7616798878,,,
226.5000000000,28,2.7796099186,,,
226.7500000000,28,2.7706449032,,,
227.0000000000,28,2.7591180801,,,
227.2500000000,28,2.7463109493,,,
227.5000000000,28,2.7206969261,,,
227.7500000000,28,2.6976439953,,,
228.0000000000,28,2.6720290184,,,
228.2500000000,28,2.6566610336,,,
228.5000000000,28,2.6323280334,,,
228.7500000000,28,2.6156780720,,,
229.0000000000,28,2.6003100872,,,
229.2500000000,28,2.5900640488,,,
229.5000000000,28,2.5862219334,,,
229.7500000000,28,2.5759758949,,,
230.0000000000,28,2.5746951103,,,
230.2500000000,28,2.5708529949,,,
230.5000000000,28,2.5708529949,,,
230.7500000000,28,2.5695719719,,,
231.0000000000,28,2.5695719719,,,
231.2500000000,28,2.5695719719,,,
231.5000000000,28,2.5721340179,,,
231.7500000000,28,2.5759758949,,,
232.0000000000,29,2.5772569180,,,
232.2500000000,29,2.5990290642,,,
232.5000000000,29,2.6348888874,,,
232.7500000000,29,2.6758720875,,,
233.0000000000,29,2.6938021183,,,
233.2500000000,29,2.7002050877,,,
233.5000000000,29,2.6989250183,,,
233.7500000000,29,2.7053279877,,,
234.0000000000,29,2.7296619415,,,
234.2500000000,29,2.7501530647,,,
234.5000000000,29,2.7565569878,,,
234.7500000000,29,2.7514340878,,,
235.0000000000,29,2.7437500954,,,
235.2500000000,29,2.7258200645,,,
235.5000000000,29,2.7066090107,,,
235.7500000000,29,2.6848371029,,,
236.0000000000,29,2.6643450260,,,
236.2500000000,29,2.6540999413,,,
236.5000000000,29,2.6451349258,,,
236.7500000000,29,2.6361699104,,,
237.0000000000,29,2.6259241104,,,
237.2500000000,29,2.6182401180,,,
237.5000000000,29,2.6143980026,,,
237.7500000000,29,2.6054329872,,,
238.0000000000,29,2.6028709412,,,
238.2500000000,29,2.6208009720,,,
238.5000000000,29,2.6425731182,,,
238.7500000000,29,2.6617839336,,,
239.0000000000,29,2.6707489491,,,
239.2500000000,29,2.6797139645,,,
239.5000000000,29,2.6745910645,,,
239.7500000000,29,2.6873979568,,,
240.0000000000,30,2.6989250183,,,
240.2500000000,30,2.6963629723,,,
240.5000000000,30,2.6912400723,,,
240.7500000000,30,2.6861169338,,,
241.0000000000,30,2.6758720875,,,
241.2500000000,30,2.6656260490,,,
241.5000000000,30,2.6579420567,,,
241.7500000000,30,2.6387310028,,,
242.0000000000,30,2.6387310028,,,
242.2500000000,30,2.6259241104,,,
242.5000000000,30,2.6323280334,,,
242.7500000000,30,2.6579420567,,,
243.0000000000,30,2.6861169338,,,
243.2500000000,30,2.7091701031,,,
243.5000000000,30,2.7130119801,,,
243.7500000000,30,2.7104508877,,,
244.0000000000,30,2.7027668953,,,
244.2500000000,30,2.7130119801,,,
244.5000000000,30,2.7283809185,,,
244.7500000000,30,2.7565569878,,,
245.0000000000,30,2.7642409801,,,
245.2500000000,30,2.7680830956,,,
245.5000000000,30,2.7629599571,,,
245.7500000000,30,2.7501530647,,,
246.0000000000,30,2.7360649109,,,
246.2500000000,30,2.7155740261,,,
246.5000000000,30,2.7002050877,,,
246.7500000000,30,2.6822750568,,,
247.0000000000,30,2.6745910645,,,
247.2500000000,30,2.6579420567,,,
247.5000000000,30,2.6502571106,,,
247.7500000000,30,2.6425731182,,,
248.0000000000,31,2.6323280334,,,
248.2500000000,31,2.6310470104,,,
248.5000000000,31,2.6246430874,,,
248.7500000000,31,2.6259241104,,,
249.0000000000,31,2.6220819950,,,
249.2500000000,31,2.6361699104,,,
249.5000000000,31,2.6451349258,,,
249.7500000000,31,2.6425731182,,,
250.0000000000,31,2.6438539028,,,
250.2500000000,31,2.6348888874,,,
250.5000000000,31,2.6323280334,,,
250.7500000000,31,2.6272048950,,,
251.0000000000,31,2.6233630180,,,
251.2500000000,31,2.6169590950,,,
251.5000000000,31,2.6195199490,,,
251.7500000000,31,2.6182401180,,,
252.0000000000,31,2.6208009720,,,
252.2500000000,31,2.6220819950,,,
252.5000000000,31,2.6208009720,,,
252.7500000000,31,2.6195199490,,,
253.0000000000,31,2.6195199490,,,
253.2500000000,31,2.6259241104,,,
253.5000000000,31,2.6361699104,,,
253.7500000000,31,2.6476960182,,,
254.0000000000,31,2.6592218876,,,
254.2500000000,31,2.6579420567,,,
254.5000000000,31,2.6605029106,,,
254.7500000000,31,2.6643450260,,,
255.0000000000,31,2.6694679260,,,
255.2500000000,31,2.6643450260,,,
255.5000000000,31,2.6643450260,,,
255.7500000000,31,2.6630649567,,,
256.0000000000,32,2.6566610336,,,
256.2500000000,32,2.6553800106,,,
256.5000000000,32,2.6476960182,,,
256.7500000000,32,2.6412930489,,,
257.0000000000,32,2.6348888874,,,
257.2500000000,32,2.6297659874,,,
257.5000000000,32,2.6284849644,,,
257.7500000000,32,2.6310470104,,,
258.0000000000,32,2.6361699104,,,
258.2500000000,32,2.6412930489,,,
258.5000000000,32,2.6515378952,,,
258.7500000000,32,2.6733100414,,,
259.0000000000,32,2.7027668953,,,
259.2500000000,32,2.7347850800,,,
259.5000000000,32,2.7488729954,,,
259.7500000000,32,2.7527151108,,,
260.0000000000,32,2.7488729954,,,
260.2500000000,32,2.7424690723,,,
260.5000000000,32,2.7322230339,,,
260.7500000000,32,2.7232580185,,,
261.0000000000,32,2.7142930031,,,
261.2500000000,32,2.7027668953,,,
261.5000000000,32,2.6950819492,,,
261.7500000000,32,2.6861169338,,,
262.0000000000,32,2.6822750568,,,
262.2500000000,32,2.6745910645,,,
262.5000000000,32,2.6733100414,,,
262.7500000000,32,2.6681869030,,,
263.0000000000,32,2.6681869030,,,
263.2500000000,32,2.6605029106,,,
263.5000000000,32,2.6617839336,,,
263.7500000000,32,2.6566610336,,,
264.0000000000,33,2.6540999413,,,
264.2500000000,33,2.6553800106,,,
264.5000000000,33,2.6540999413,,,
264.7500000000,33,2.6579420567,,,
265.0000000000,33,2.6617839336,,,
265.2500000000,33,2.6656260490,,,
265.5000000000,33,2.6617839336,,,
265.7500000000,33,2.6592218876,,,
266.0000000000,33,2.6605029106,,,
266.2500000000,33,2.6579420567,,,
266.5000000000,33,2.6579420567,,,
266.7500000000,33,2.6553800106,,,
267.0000000000,33,2.6464149952,,,
267.2500000000,33,2.6540999413,,,
267.5000000000,33,2.6387310028,,,
267.7500000000,33,2.6451349258,,,
268.0000000000,33,2.6656260490,,,
268.2500000000,33,2.7117319107,,,
268.5000000000,33,2.7501530647,,,
268.7500000000,33,2.7770481110,,,
269.0000000000,33,2.7783288956,,,
269.2500000000,33,2.7796099186,,,
269.5000000000,33,2.7706449032,,,
269.7500000000,33,2.7642409801,,,
270.0000000000,33,2.7539949417,,,
270.2500000000,33,2.7270998955,,,
270.5000000000,33,2.7104508877,,,
270.7500000000,33,2.6976439953,,,
271.0000000000,33,2.6861169338,,,
271.2500000000,33,2.6809949875,,,
271.5000000000,33,2.6643450260,,,
271.7500000000,33,2.6617839336,,,
272.0000000000,34,2.6553800106,,,
272.2500000000,34,2.6540999413,,,
272.5000000000,34,2.6464149952,,,
272.7500000000,34,2.6464149952,,,
273.0000000000,34,2.6451349258,,,
273.2500000000,34,2.6464149952,,,
273.5000000000,34,2.6502571106,,,
273.7500000000,34,2.6387310028,,,
274.0000000000,34,2.6425731182,,,
274.2500000000,34,2.6489770412,,,
274.5000000000,34,2.6553800106,,,
274.7500000000,34,2.6540999413,,,
275.0000000000,34,2.6553800106,,,
275.2500000000,34,2.6566610336,,,
275.5000000000,34,2.6528189182,,,
275.7500000000,34,2.6476960182,,,
276.0000000000,34,2.6425731182,,,
276.2500000000,34,2.6438539028,,,
276.5000000000,34,2.6387310028,,,
276.7500000000,34,2.6374499798,,,
277.0000000000,34,2.6361699104,,,
277.2500000000,34,2.6297659874,,,
277.5000000000,34,2.6297659874,,,
277.7500000000,34,2.6297659874,,,
278.0000000000,34,2.6259241104,,,
278.2500000000,34,2.6246430874,,,
278.5000000000,34,2.6272048950,,,
278.7500000000,34,2.6259241104,,,
279.0000000000,34,2.6297659874,,,
279.2500000000,34,2.6348888874,,,
279.5000000000,34,2.6592218876,,,
279.7500000000,34,2.6809949875,,,
280.0000000000,35,2.6899600029,,,
280.2500000000,35,2.6950819492,,,
280.5000000000,35,2.6950819492,,,
280.7500000000,35,2.6925210953,,,
281.0000000000,35,2.6861169338,,,
281.2500000000,35,2.6784329414,,,
281.5000000000,35,2.6681869030,,,
281.7500000000,35,2.6605029106,,,
282.0000000000,35,2.6553800106,,,
282.2500000000,35,2.6464149952,,,
282.5000000000,35,2.6425731182,,,
282.7500000000,35,2.6336081028,,,
283.0000000000,35,2.6323280334,,,
283.2500000000,35,2.6259241104,,,
283.5000000000,35,2.6220819950,,,
283.7500000000,35,2.6169590950,,,
284.0000000000,35,2.6208009720,,,
284.2500000000,35,2.6195199490,,,
284.5000000000,35,2.6195199490,,,
284.7500000000,35,2.6156780720,,,
285.0000000000,35,2.6169590950,,,
285.2500000000,35,2.6143980026,,,
285.5000000000,35,2.6131169796,,,
285.7500000000,35,2.6105549335,,,
286.0000000000,35,2.6105549335,,,
286.2500000000,35,2.6079940796,,,
286.5000000000,35,2.6067130566,,,
286.7500000000,35,2.6079940796,,,
287.0000000000,35,2.6092751026,,,
287.2500000000,35,2.6118359566,,,
287.5000000000,35,2.6067130566,,,
287.7500000000,35,2.6131169796,,,
288.0000000000,36,2.6118359566,,,
288.2500000000,36,2.6131169796,,,
288.5000000000,36,2.6092751026,,,
288.7500000000,36,2.6131169796,,,
289.0000000000,36,2.6208009720,,,
289.2500000000,36,2.6438539028,,,
289.5000000000,36,2.6745910645,,,
289.7500000000,36,2.7002050877,,,
290.0000000000,36,2.7130119801,,,
290.2500000000,36,2.7181351185,,,
290.5000000000,36,2.7181351185,,,
290.7500000000,36,2.7155740261,,,
291.0000000000,36,2.7142930031,,,
291.2500000000,36,2.7027668953,,,
291.5000000000,36,2.7002050877,,,
291.7500000000,36,2.6950819492,,,
292.0000000000,36,2.6925210953,,,
292.2500000000,36,2.6861169338,,,
292.5000000000,36,2.6976439953,,,
292.7500000000,36,2.7296619415,,,
293.0000000000,36,2.7706449032,,,
293.2500000000,36,2.8026618958,,,
293.5000000000,36,2.8218729496,,,
293.7500000000,36,2.8282771111,,,
294.0000000000,36,2.8257150650,,,
294.2500000000,36,2.8154699802,,,
294.5000000000,36,2.7975389957,,,
294.7500000000,36,2.7796099186,,,
295.0000000000,36,2.7629599571,,,
295.2500000000,36,2.7552759647,,,
295.5000000000,36,2.7885749340,,,
295.7500000000,36,2.8474869728,,,
