Time:4Hz,Epoch,Channel 1,Event Id,Event Date,Event Duration
0.0000000000,0,0.2461934984,,,
0.2500000000,0,0.2500360906,,,
0.5000000000,0,0.2474744022,,,
0.7500000000,0,0.2500360906,,,
1.0000000000,0,0.2487552017,,,
1.2500000000,0,0.2436317950,,,
1.5000000000,0,0.2449125946,,,
1.7500000000,0,0.2487552017,,,
2.0000000000,0,0.2436317950,,,
2.2500000000,0,0.2461934984,,,
2.5000000000,0,0.2474744022,,,
2.7500000000,0,0.2410700023,,,
3.0000000000,0,0.2487552017,,,
3.2500000000,0,0.2449125946,,,
3.5000000000,0,0.2474744022,,,
3.7500000000,0,0.2436317950,,,
4.0000000000,0,0.2461934984,,,
4.2500000000,0,0.2436317950,,,
4.5000000000,0,0.2423509061,,,
4.7500000000,0,0.2449125946,,,
5.0000000000,0,0.2410700023,,,
5.2500000000,0,0.2449125946,,,
5.5000000000,0,0.2385082990,,,
5.7500000000,0,0.2461934984,,,
6.0000000000,0,0.2423509061,,,
6.2500000000,0,0.2410700023,,,
6.5000000000,0,0.2423509061,,,
6.7500000000,0,0.2461934984,,,
7.0000000000,0,0.2423509061,,,
7.2500000000,0,0.2449125946,,,
7.5000000000,0,0.2397892028,,,
7.7500000000,0,0.2436317950,,,
8.0000000000,1,0.2410700023,,,
8.2500000000,1,0.2423509061,,,
8.5000000000,1,0.2410700023,,,
8.7500000000,1,0.2449125946,,,
9.0000000000,1,0.2397892028,,,
9.2500000000,1,0.2397892028,,,
9.5000000000,1,0.2410700023,,,
9.7500000000,1,0.2410700023,,,
10.0000000000,1,0.2410700023,,,
10.2500000000,1,0.2410700023,,,
10.5000000000,1,0.2385082990,,,
10.7500000000,1,0.2436317950,,,
11.0000000000,1,0.2410700023,,,
11.2500000000,1,0.2423509061,,,
11.5000000000,1,0.2385082990,,,
11.7500000000,1,0.2436317950,,,
12.0000000000,1,0.2385082990,,,
12.2500000000,1,0.2410700023,,,
12.5000000000,1,0.2359465957,,,
12.7500000000,1,0.2436317950,,,
13.0000000000,1,0.2385082990,,,
13.2500000000,1,0.2423509061,,,
13.5000000000,1,0.2397892028,,,
13.7500000000,1,0.2436317950,,,
14.0000000000,1,0.2359465957,,,
14.2500000000,1,0.2397892028,,,
14.5000000000,1,0.2346657068,,,
14.7500000000,1,0.2372273952,,,
15.0000000000,1,0.2397892028,,,
15.2500000000,1,0.2321040034,,,
15.5000000000,1,0.2410700023,,,
15.7500000000,1,0.2359465957,,,
16.0000000000,2,0.2397892028,,,
16.2500000000,2,0.2346657068,,,
16.5000000000,2,0.2385082990,,,
16.7500000000,2,0.2359465957,,,
17.0000000000,2,0.2359465957,,,
17.2500000000,2,0.2359465957,,,
17.5000000000,2,0.2410700023,,,
17.7500000000,2,0.2333848029,,,
18.0000000000,2,0.2385082990,,,
18.2500000000,2,0.2346657068,,,
18.5000000000,2,0.2346657068,,,
18.7500000000,2,0.2321040034,,,
19.0000000000,2,0.2346657068,,,
19.2500000000,2,0.2385082990,,,
19.5000000000,2,0.2333848029,,,
19.7500000000,2,0.2359465957,,,
20.0000000000,2,0.2321040034,,,
20.2500000000,2,0.2372273952,,,
20.5000000000,2,0.2346657068,,,
20.7500000000,2,0.2359465957,,,
21.0000000000,2,0.2333848029,,,
21.2500000000,2,0.2359465957,,,
21.5000000000,2,0.2321040034,,,
21.7500000000,2,0.2359465957,,,
22.0000000000,2,0.2321040034,,,
22.2500000000,2,0.2333848029,,,
22.5000000000,2,0.2321040034,,,
22.7500000000,2,0.2333848029,,,
23.0000000000,2,0.2359465957,,,
23.2500000000,2,0.2321040034,,,
23.5000000000,2,0.2321040034,,,
23.7500000000,2,0.2346657068,,,
24.0000000000,3,0.2321040034,,,
24.2500000000,3,0.2333848029,,,
24.5000000000,3,0.2282613963,,,
24.7500000000,3,0.2333848029,,,
25.0000000000,3,0.2308230996,,,
25.2500000000,3,0.2308230996,,,
25.5000000000,3,0.2346657068,,,
25.7500000000,3,0.2308230996,,,
26.0000000000,3,0.2321040034,,,
26.2500000000,3,0.2282613963,,,
26.5000000000,3,0.2333848029,,,
26.7500000000,3,0.2295421958,,,
27.0000000000,3,0.2321040034,,,
27.2500000000,3,0.2282613963,,,
27.5000000000,3,0.2321040034,,,
27.7500000000,3,0.2256996036,,,
28.0000000000,3,0.2333848029,,,
28.2500000000,3,0.2269805074,,,
28.5000000000,3,0.2333848029,,,
28.7500000000,3,0.2282613963,,,
29.0000000000,3,0.2333848029,,,
29.2500000000,3,0.2269805074,,,
29.5000000000,3,0.2295421958,,,
29.7500000000,3,0.2333848029,,,
30.0000000000,3,0.2269805074,,,
30.2500000000,3,0.2321040034,,,
30.5000000000,3,0.2282613963,,,
30.7500000000,3,0.2321040034,,,
31.0000000000,3,0.2295421958,,,
31.2500000000,3,0.2333848029,,,
31.5000000000,3,0.2282613963,,,
31.7500000000,3,0.2308230996,,,
32.0000000000,4,0.2282613963,,,
32.2500000000,4,0.2256996036,,,
32.5000000000,4,0.2321040034,,,
32.7500000000,4,0.2282613963,,,
33.0000000000,4,0.2321040034,,,
33.2500000000,4,0.2269805074,,,
33.5000000000,4,0.2308230996,,,
33.7500000000,4,0.2256996036,,,
34.0000000000,4,0.2282613963,,,
34.2500000000,4,0.2256996036,,,
34.5000000000,4,0.2295421958,,,
34.7500000000,4,0.2256996036,,,
35.0000000000,4,0.2269805074,,,
35.2500000000,4,0.2256996036,,,
35.5000000000,4,0.2308230996,,,
35.7500000000,4,0.2244186997,,,
36.0000000000,4,0.2282613963,,,
36.2500000000,4,0.2244186997,,,
36.5000000000,4,0.2282613963,,,
36.7500000000,4,0.2244186997,,,
37.0000000000,4,0.2244186997,,,
37.2500000000,4,0.2295421958,,,
37.5000000000,4,0.2256996036,,,
37.7500000000,4,0.2256996036,,,
38.0000000000,4,0.2244186997,,,
38.2500000000,4,0.2282613963,,,
38.5000000000,4,0.2244186997,,,
38.7500000000,4,0.2269805074,,,
39.0000000000,4,0.2244186997,,,
39.2500000000,4,0.2269805074,,,
39.5000000000,4,0.2231379002,,,
39.7500000000,4,0.2282613963,,,
40.0000000000,5,0.2231379002,,,
40.2500000000,5,0.2244186997,,,
40.5000000000,5,0.2205761969,,,
40.7500000000,5,0.2256996036,,,
41.0000000000,5,0.2231379002,,,
41.2500000000,5,0.2244186997,,,
41.5000000000,5,0.2231379002,,,
41.7500000000,5,0.2218569964,,,
42.0000000000,5,0.2282613963,,,
42.2500000000,5,0.2231379002,,,
42.5000000000,5,0.2256996036,,,
42.7500000000,5,0.2218569964,,,
43.0000000000,5,0.2256996036,,,
43.2500000000,5,0.2180144042,,,
43.5000000000,5,0.2256996036,,,
43.7500000000,5,0.2231379002,,,
44.0000000000,5,0.2256996036,,,
44.2500000000,5,0.2192952931,,,
44.5000000000,5,0.2269805074,,,
44.7500000000,5,0.2218569964,,,
45.0000000000,5,0.2244186997,,,
45.2500000000,5,0.2192952931,,,
45.5000000000,5,0.2244186997,,,
45.7500000000,5,0.2192952931,,,
46.0000000000,5,0.2192952931,,,
46.2500000000,5,0.2256996036,,,
46.5000000000,5,0.2218569964,,,
46.7500000000,5,0.2244186997,,,
47.0000000000,5,0.2192952931,,,
47.2500000000,5,0.2244186997,,,
47.5000000000,5,0.2205761969,,,
47.7500000000,5,0.2244186997,,,
48.0000000000,6,0.2346657068,,,
48.2500000000,6,0.2244186997,,,
48.5000000000,6,0.2180144042,,,
48.7500000000,6,0.2180144042,,,
49.0000000000,6,0.2167335004,,,
49.2500000000,6,0.2231379002,,,
49.5000000000,6,0.2180144042,,,
49.7500000000,6,0.2205761969,,,
50.0000000000,6,0.2231379002,,,
50.2500000000,6,0.2192952931,,,
50.5000000000,6,0.2231379002,,,
50.7500000000,6,0.2205761969,,,
51.0000000000,6,0.2218569964,,,
51.2500000000,6,0.2180144042,,,
51.5000000000,6,0.2218569964,,,
51.7500000000,6,0.2180144042,,,
52.0000000000,6,0.2231379002,,,
52.2500000000,6,0.2167335004,,,
52.5000000000,6,0.2180144042,,,
52.7500000000,6,0.2180144042,,,
53.0000000000,6,0.2180144042,,,
53.2500000000,6,0.2192952931,,,
53.5000000000,6,0.2154527009,,,
53.7500000000,6,0.2205761969,,,
54.0000000000,6,0.2180144042,,,
54.2500000000,6,0.2128908932,,,
54.5000000000,6,0.2167335004,,,
54.7500000000,6,0.2205761969,,,
55.0000000000,6,0.2167335004,,,
55.2500000000,6,0.2192952931,,,
55.5000000000,6,0.2141717970,,,
55.7500000000,6,0.2205761969,,,
56.0000000000,7,0.2167335004,,,
56.2500000000,7,0.2180144042,,,
56.5000000000,7,0.2154527009,,,
56.7500000000,7,0.2154527009,,,
57.0000000000,7,0.2128908932,,,
57.2500000000,7,0.2180144042,,,
57.5000000000,7,0.2128908932,,,
57.7500000000,7,0.2154527009,,,
58.0000000000,7,0.2180144042,,,
58.2500000000,7,0.2141717970,,,
58.5000000000,7,0.2180144042,,,
58.7500000000,7,0.2141717970,,,
59.0000000000,7,0.2192952931,,,
59.2500000000,7,0.2154527009,,,
59.5000000000,7,0.2128908932,,,
59.7500000000,7,0.2116100937,,,
60.0000000000,7,0.2180144042,,,
60.2500000000,7,0.2128908932,,,
60.5000000000,7,0.2180144042,,,
60.7500000000,7,0.2116100937,,,
61.0000000000,7,0.2192952931,,,
61.2500000000,7,0.2128908932,,,
61.5000000000,7,0.2128908932,,,
61.7500000000,7,0.2154527009,,,
62.0000000000,7,0.2128908932,,,
62.2500000000,7,0.2154527009,,,
62.5000000000,7,0.2128908932,,,
62.7500000000,7,0.2180144042,,,
63.0000000000,7,0.2128908932,,,
63.2500000000,7,0.2167335004,,,
63.5000000000,7,0.2103292048,,,
63.7500000000,7,0.2141717970,,,
64.0000000000,8,0.2128908932,,,
64.2500000000,8,0.2128908932,,,
64.5000000000,8,0.2167335004,,,
64.7500000000,8,0.2141717970,,,
65.0000000000,8,0.2167335004,,,
65.2500000000,8,0.2077675015,,,
65.5000000000,8,0.2154527009,,,
65.7500000000,8,0.2116100937,,,
66.0000000000,8,0.2141717970,,,
66.2500000000,8,0.2128908932,,,
66.5000000000,8,0.2141717970,,,
66.7500000000,8,0.2128908932,,,
67.0000000000,8,0.2141717970,,,
67.2500000000,8,0.2103292048,,,
67.5000000000,8,0.2128908932,,,
67.7500000000,8,0.2103292048,,,
68.0000000000,8,0.2103292048,,,
68.2500000000,8,0.2103292048,,,
68.5000000000,8,0.2141717970,,,
68.7500000000,8,0.2103292048,,,
69.0000000000,8,0.2128908932,,,
69.2500000000,8,0.2128908932,,,
69.5000000000,8,0.2090483010,,,
69.7500000000,8,0.2141717970,,,
70.0000000000,8,0.2077675015,,,
70.2500000000,8,0.2116100937,,,
70.5000000000,8,0.2090483010,,,
70.7500000000,8,0.2090483010,,,
71.0000000000,8,0.2090483010,,,
71.2500000000,8,0.2128908932,,,
71.5000000000,8,0.2090483010,,,
71.7500000000,8,0.2128908932,,,
72.0000000000,9,0.2077675015,,,
72.2500000000,9,0.2103292048,,,
72.5000000000,9,0.2077675015,,,
72.7500000000,9,0.2064865977,,,
73.0000000000,9,0.2141717970,,,
73.2500000000,9,0.2077675015,,,
73.5000000000,9,0.2064865977,,,
73.7500000000,9,0.2090483010,,,
74.0000000000,9,0.2128908932,,,
74.2500000000,9,0.2064865977,,,
74.5000000000,9,0.2128908932,,,
74.7500000000,9,0.2077675015,,,
75.0000000000,9,0.2128908932,,,
75.2500000000,9,0.2090483010,,,
75.5000000000,9,0.2128908932,,,
75.7500000000,9,0.2090483010,,,
76.0000000000,9,0.2116100937,,,
76.2500000000,9,0.2039248943,,,
76.5000000000,9,0.2103292048,,,
76.7500000000,9,0.2077675015,,,
77.0000000000,9,0.2090483010,,,
77.2500000000,9,0.2116100937,,,
77.5000000000,9,0.2077675015,,,
77.7500000000,9,0.2128908932,,,
78.0000000000,9,0.2077675015,,,
78.2500000000,9,0.2090483010,,,
78.5000000000,9,0.2090483010,,,
78.7500000000,9,0.2077675015,,,
79.0000000000,9,0.2052056938,,,
79.2500000000,9,0.2103292048,,,
79.5000000000,9,0.2077675015,,,
79.7500000000,9,0.2090483010,,,
80.0000000000,10,0.2077675015,,,
80.2500000000,10,0.2077675015,,,
80.5000000000,10,0.2039248943,,,
80.7500000000,10,0.2090483010,,,
81.0000000000,10,0.2052056938,,,
81.2500000000,10,0.2077675015,,,
81.5000000000,10,0.2064865977,,,
81.7500000000,10,0.2026440054,,,
82.0000000000,10,0.2090483010,,,
82.2500000000,10,0.2064865977,,,
82.5000000000,10,0.2090483010,,,
82.7500000000,10,0.2064865977,,,
83.0000000000,10,0.2090483010,,,
83.2500000000,10,0.2052056938,,,
83.5000000000,10,0.2077675015,,,
83.7500000000,10,0.2064865977,,,
84.0000000000,10,0.2103292048,,,
84.2500000000,10,0.2039248943,,,
84.5000000000,10,0.2090483010,,,
84.7500000000,10,0.2064865977,,,
85.0000000000,10,0.2090483010,,,
85.2500000000,10,0.2026440054,,,
85.5000000000,10,0.2103292048,,,
85.7500000000,10,0.2039248943,,,
86.0000000000,10,0.2077675015,,,
86.2500000000,10,0.2077675015,,,
86.5000000000,10,0.2052056938,,,
86.7500000000,10,0.2077675015,,,
87.0000000000,10,0.2026440054,,,
87.2500000000,10,0.2052056938,,,
87.5000000000,10,0.2039248943,,,
87.7500000000,10,0.2090483010,,,
88.0000000000,11,0.2039248943,,,
88.2500000000,11,0.2077675015,,,
88.5000000000,11,0.2013631016,,,
88.7500000000,11,0.2077675015,,,
89.0000000000,11,0.2039248943,,,
89.2500000000,11,0.2077675015,,,
89.5000000000,11,0.2039248943,,,
89.7500000000,11,0.2077675015,,,
90.0000000000,11,0.1988013983,,,
90.2500000000,11,0.2077675015,,,
90.5000000000,11,0.2064865977,,,
90.7500000000,11,0.2026440054,,,
91.0000000000,11,0.2077675015,,,
91.2500000000,11,0.2039248943,,,
91.5000000000,11,0.2039248943,,,
91.7500000000,11,0.2026440054,,,
92.0000000000,11,0.2064865977,,,
92.2500000000,11,0.2026440054,,,
92.5000000000,11,0.2052056938,,,
92.7500000000,11,0.2026440054,,,
93.0000000000,11,0.2039248943,,,
93.2500000000,11,0.2000823021,,,
93.5000000000,11,0.2052056938,,,
93.7500000000,11,0.2013631016,,,
94.0000000000,11,0.2077675015,,,
94.2500000000,11,0.2013631016,,,
94.5000000000,11,0.2052056938,,,
94.7500000000,11,0.2000823021,,,
95.0000000000,11,0.2026440054,,,
95.2500000000,11,0.2013631016,,,
95.5000000000,11,0.2000823021,,,
95.7500000000,11,0.2039248943,,,
96.0000000000,12,0.2013631016,,,
96.2500000000,12,0.2052056938,,,
96.5000000000,12,0.2026440054,,,
96.7500000000,12,0.2039248943,,,
97.0000000000,12,0.2026440054,,,
97.2500000000,12,0.2026440054,,,
97.5000000000,12,0.2000823021,,,
97.7500000000,12,0.2039248943,,,
98.0000000000,12,0.2013631016,,,
98.2500000000,12,0.2026440054,,,
98.5000000000,12,0.2000823021,,,
98.7500000000,12,0.2026440054,,,
99.0000000000,12,0.1988013983,,,
99.2500000000,12,0.2026440054,,,
99.5000000000,12,0.1988013983,,,
99.7500000000,12,0.1988013983,,,
100.0000000000,12,0.2064865977,,,
100.2500000000,12,0.2013631016,,,
100.5000000000,12,0.2052056938,,,
100.7500000000,12,0.2039248943,,,
101.0000000000,12,0.1975204945,,,
101.2500000000,12,0.1988013983,,,
101.5000000000,12,0.2039248943,,,
101.7500000000,12,0.1988013983,,,
102.0000000000,12,0.2026440054,,,
102.2500000000,12,0.1975204945,,,
102.5000000000,12,0.2039248943,,,
102.7500000000,12,0.1975204945,,,
103.0000000000,12,0.1988013983,,,
103.2500000000,12,0.2013631016,,,
103.5000000000,12,0.1975204945,,,
103.7500000000,12,0.1988013983,,,
104.0000000000,13,0.1962396950,,,
104.2500000000,13,0.2013631016,,,
104.5000000000,13,0.1975204945,,,
104.7500000000,13,0.2000823021,,,
105.0000000000,13,0.1988013983,,,
105.2500000000,13,0.2013631016,,,
105.5000000000,13,0.1975204945,,,
105.7500000000,13,0.2026440054,,,
106.0000000000,13,0.1975204945,,,
106.2500000000,13,0.2000823021,,,
106.5000000000,13,0.1936779022,,,
106.7500000000,13,0.2013631016,,,
107.0000000000,13,0.1975204945,,,
107.2500000000,13,0.1988013983,,,
107.5000000000,13,0.2039248943,,,
107.7500000000,13,0.1975204945,,,
108.0000000000,13,0.2013631016,,,
108.2500000000,13,0.1975204945,,,
108.5000000000,13,0.2000823021,,,
108.7500000000,13,0.1988013983,,,
109.0000000000,13,0.2000823021,,,
109.2500000000,13,0.1962396950,,,
109.5000000000,13,0.1988013983,,,
109.7500000000,13,0.2000823021,,,
110.0000000000,13,0.1962396950,,,
110.2500000000,13,0.2013631016,,,
110.5000000000,13,0.1962396950,,,
110.7500000000,13,0.2013631016,,,
111.0000000000,13,0.1988013983,,,
111.2500000000,13,0.2180144042,,,
111.5000000000,13,0.1962396950,,,
111.7500000000,13,0.2013631016,,,
112.0000000000,14,0.1936779022,,,
112.2500000000,14,0.1975204945,,,
112.5000000000,14,0.2000823021,33025:33024,112.5312500000:112.6875000000,0.0000000000:0.0000000000
112.7500000000,14,0.1962396950,,,
113.0000000000,14,0.1975204945,,,
113.2500000000,14,0.1975204945,,,
113.5000000000,14,0.2000823021,,,
113.7500000000,14,0.1975204945,,,
114.0000000000,14,0.2013631016,,,
114.2500000000,14,0.1962396950,,,
114.5000000000,14,0.1962396950,,,
114.7500000000,14,0.1975204945,,,
115.0000000000,14,0.1962396950,,,
115.2500000000,14,0.1988013983,,,
115.5000000000,14,0.1949588060,,,
115.7500000000,14,0.1936779022,,,
116.0000000000,14,0.1949588060,,,
116.2500000000,14,0.2013631016,,,
116.5000000000,14,0.1949588060,,,
116.7500000000,14,0.2013631016,,,
117.0000000000,14,0.1949588060,,,
117.2500000000,14,0.1975204945,,,
117.5000000000,14,0.1936779022,,,
117.7500000000,14,0.1962396950,,,
118.0000000000,14,0.2000823021,,,
118.2500000000,14,0.1949588060,,,
118.5000000000,14,0.2000823021,,,
118.7500000000,14,0.1962396950,,,
119.0000000000,14,0.2000823021,,,
119.2500000000,14,0.1962396950,,,
119.5000000000,14,0.2000823021,,,
119.7500000000,14,0.1949588060,,,
120.0000000000,15,0.1975204945,,,
120.2500000000,15,0.1949588060,,,
120.5000000000,15,0.1988013983,,,
120.7500000000,15,0.1923969984,,,
121.0000000000,15,0.1988013983,,,
121.2500000000,15,0.1936779022,,,
121.5000000000,15,0.1949588060,,,
121.7500000000,15,0.1988013983,,,
122.0000000000,15,0.1962396950,,,
122.2500000000,15,0.2000823021,,,
122.5000000000,15,0.1936779022,,,
122.7500000000,15,0.1975204945,,,
123.0000000000,15,0.1936779022,,,
123.2500000000,15,0.1988013983,,,
123.5000000000,15,0.1949588060,,,
123.7500000000,15,0.1988013983,,,
124.0000000000,15,0.1936779022,,,
124.2500000000,15,0.1936779022,,,
124.5000000000,15,0.1975204945,,,
124.7500000000,15,0.1949588060,,,
125.0000000000,15,0.1988013983,,,
125.2500000000,15,0.1949588060,,,
125.5000000000,15,0.1988013983,,,
125.7500000000,15,0.1911161989,,,
126.0000000000,15,0.1988013983,,,
126.2500000000,15,0.1885544062,,,
126.5000000000,15,0.1975204945,,,
126.7500000000,15,0.1936779022,,,
127.0000000000,15,0.1975204945,,,
127.2500000000,15,0.1949588060,,,
127.5000000000,15,0.1949588060,,,
127.7500000000,15,0.1975204945,,,
128.0000000000,16,0.1936779022,,,
128.2500000000,16,0.1962396950,,,
128.5000000000,16,0.1898352951,,,
128.7500000000,16,0.1975204945,,,
129.0000000000,16,0.1923969984,,,
129.2500000000,16,0.1962396950,,,
129.5000000000,16,0.1936779022,,,
129.7500000000,16,0.1962396950,,,
130.0000000000,16,0.1936779022,,,
130.2500000000,16,0.1988013983,,,
130.5000000000,16,0.1936779022,,,
130.7500000000,16,0.1962396950,,,
131.0000000000,16,0.1923969984,,,
131.2500000000,16,0.1872736067,,,
131.5000000000,16,0.1975204945,,,
131.7500000000,16,0.1936779022,,,
132.0000000000,16,0.1975204945,,,
132.2500000000,16,0.1936779022,,,
132.5000000000,16,0.1975204945,,,
132.7500000000,16,0.1923969984,,,
133.0000000000,16,0.1949588060,,,
133.2500000000,16,0.1911161989,,,
133.5000000000,16,0.1949588060,,,
133.7500000000,16,0.1949588060,,,
134.0000000000,16,0.1962396950,,,
134.2500000000,16,0.1936779022,,,
134.5000000000,16,0.1962396950,,,
134.7500000000,16,0.1923969984,,,
135.0000000000,16,0.1975204945,,,
135.2500000000,16,0.1923969984,,,
135.5000000000,16,0.1975204945,,,
135.7500000000,16,0.1898352951,,,
136.0000000000,17,0.1962396950,,,
136.2500000000,17,0.1923969984,,,
136.5000000000,17,0.1936779022,,,
136.7500000000,17,0.1898352951,,,
137.0000000000,17,0.1936779022,,,
137.2500000000,17,0.1949588060,,,
137.5000000000,17,0.1923969984,,,
137.7500000000,17,0.1975204945,,,
138.0000000000,17,0.1936779022,,,
138.2500000000,17,0.1949588060,,,
138.5000000000,17,0.1923969984,,,
138.7500000000,17,0.1975204945,,,
139.0000000000,17,0.1936779022,,,
139.2500000000,17,0.1911161989,,,
139.5000000000,17,0.1898352951,,,
139.7500000000,17,0.1949588060,,,
140.0000000000,17,0.1911161989,,,
140.2500000000,17,0.1975204945,,,
140.5000000000,17,0.1911161989,,,
140.7500000000,17,0.1962396950,,,
141.0000000000,17,0.1911161989,,,
141.2500000000,17,0.1962396950,,,
141.5000000000,17,0.1923969984,,,
141.7500000000,17,0.1962396950,,,
142.0000000000,17,0.1936779022,,,
142.2500000000,17,0.1936779022,,,
142.5000000000,17,0.1911161989,,,
142.7500000000,17,0.1911161989,,,
143.0000000000,17,0.1911161989,,,
143.2500000000,17,0.1923969984,,,
143.5000000000,17,0.1949588060,,,
143.7500000000,17,0.1923969984,,,
144.0000000000,18,0.1949588060,,,
144.2500000000,18,0.1911161989,,,
144.5000000000,18,0.1936779022,,,
144.7500000000,18,0.1911161989,,,
145.0000000000,18,0.1898352951,,,
145.2500000000,18,0.1898352951,,,
145.5000000000,18,0.1949588060,,,
145.7500000000,18,0.1936779022,,,
146.0000000000,18,0.1962396950,,,
146.2500000000,18,0.1923969984,,,
146.5000000000,18,0.1975204945,,,
146.7500000000,18,0.1936779022,,,
147.0000000000,18,0.1949588060,,,
147.2500000000,18,0.1923969984,,,
147.5000000000,18,0.1962396950,,,
147.7500000000,18,0.1885544062,,,
148.0000000000,18,0.1949588060,,,
148.2500000000,18,0.1923969984,,,
148.5000000000,18,0.1923969984,,,
148.7500000000,18,0.1898352951,,,
149.0000000000,18,0.1911161989,,,
149.2500000000,18,0.1936779022,,,
149.5000000000,18,0.1923969984,,,
149.7500000000,18,0.1949588060,,,
150.0000000000,18,0.1911161989,,,
150.2500000000,18,0.1936779022,,,
150.5000000000,18,0.1911161989,,,
150.7500000000,18,0.1962396950,,,
151.0000000000,18,0.1898352951,,,
151.2500000000,18,0.1923969984,,,
151.5000000000,18,0.1898352951,,,
151.7500000000,18,0.1911161989,,,
152.0000000000,19,0.1885544062,,,
152.2500000000,19,0.1923969984,,,
152.5000000000,19,0.1898352951,,,
152.7500000000,19,0.1898352951,,,
153.0000000000,19,0.1936779022,,,
153.2500000000,19,0.1872736067,,,
153.5000000000,19,0.1923969984,,,
153.7500000000,19,0.1885544062,,,
154.0000000000,19,0.1923969984,,,
154.2500000000,19,0.1911161989,,,
154.5000000000,19,0.1949588060,,,
154.7500000000,19,0.1898352951,,,
155.0000000000,19,0.1936779022,,,
155.2500000000,19,0.1898352951,,,
155.5000000000,19,0.1936779022,,,
155.7500000000,19,0.1898352951,,,
156.0000000000,19,0.1923969984,,,
156.2500000000,19,0.1885544062,,,
156.5000000000,19,0.1923969984,,,
156.7500000000,19,0.1898352951,,,
157.0000000000,19,0.1898352951,,,
157.2500000000,19,0.1936779022,,,
157.5000000000,19,0.1885544062,,,
157.7500000000,19,0.1936779022,,,
158.0000000000,19,0.1898352951,,,
158.2500000000,19,0.1923969984,,,
158.5000000000,19,0.1885544062,,,
158.7500000000,19,0.1885544062,,,
159.0000000000,19,0.1885544062,,,
159.2500000000,19,0.1911161989,,,
159.5000000000,19,0.1859927028,,,
159.7500000000,19,0.1911161989,,,
160.0000000000,20,0.1872736067,,,
160.2500000000,20,0.1911161989,,,
160.5000000000,20,0.1847117990,,,
160.7500000000,20,0.1885544062,,,
161.0000000000,20,0.1898352951,,,
161.2500000000,20,0.1859927028,,,
161.5000000000,20,0.1872736067,,,
161.7500000000,20,0.1847117990,,,
162.0000000000,20,0.1911161989,,,
162.2500000000,20,0.1859927028,,,
162.5000000000,20,0.1911161989,,,
162.7500000000,20,0.1885544062,,,
163.0000000000,20,0.1923969984,,,
163.2500000000,20,0.1911161989,,,
163.5000000000,20,0.1885544062,,,
163.7500000000,20,0.1859927028,,,
164.0000000000,20,0.1911161989,,,
164.2500000000,20,0.1795884073,,,
164.5000000000,20,0.1923969984,,,
164.7500000000,20,0.1885544062,,,
165.0000000000,20,0.1898352951,,,
165.2500000000,20,0.1872736067,,,
165.5000000000,20,0.1885544062,,,
165.7500000000,20,0.1847117990,,,
166.0000000000,20,0.1885544062,,,
166.2500000000,20,0.1859927028,,,
166.5000000000,20,0.1859927028,,,
166.7500000000,20,0.1898352951,,,
167.0000000000,20,0.1795884073,,,
167.2500000000,20,0.1885544062,,,
167.5000000000,20,0.1859927028,,,
167.7500000000,20,0.1911161989,,,
168.0000000000,21,0.1847117990,,,
168.2500000000,21,0.1898352951,,,
168.5000000000,21,0.1847117990,,,
168.7500000000,21,0.1885544062,,,
169.0000000000,21,0.1847117990,,,
169.2500000000,21,0.1885544062,,,
169.5000000000,21,0.1847117990,,,
169.7500000000,21,0.1872736067,,,
170.0000000000,21,0.1847117990,,,
170.2500000000,21,0.1898352951,,,
170.5000000000,21,0.1834309995,,,
170.7500000000,21,0.1898352951,,,
171.0000000000,21,0.1847117990,,,
171.2500000000,21,0.1859927028,,,
171.5000000000,21,0.1898352951,,,
171.7500000000,21,0.1834309995,,,
172.0000000000,21,0.1885544062,,,
172.2500000000,21,0.1834309995,,,
172.5000000000,21,0.1859927028,,,
172.7500000000,21,0.1859927028,,,
173.0000000000,21,0.1821500957,,,
173.2500000000,21,0.1847117990,,,
173.5000000000,21,0.1885544062,,,
173.7500000000,21,0.1847117990,,,
174.0000000000,21,0.1872736067,,,
174.2500000000,21,0.1834309995,,,
174.5000000000,21,0.1885544062,,,
174.7500000000,21,0.1872736067,,,
175.0000000000,21,0.1898352951,,,
175.2500000000,21,0.1808692068,,,
175.5000000000,21,0.1872736067,,,
175.7500000000,21,0.1834309995,,,
176.0000000000,22,0.1834309995,,,
176.2500000000,22,0.1872736067,,,
176.5000000000,22,0.1834309995,,,
176.7500000000,22,0.1872736067,,,
177.0000000000,22,0.1834309995,,,
177.2500000000,22,0.1872736067,,,
177.5000000000,22,0.1847117990,,,
177.7500000000,22,0.1872736067,,,
178.0000000000,22,0.1795884073,,,
178.2500000000,22,0.1872736067,,,
178.5000000000,22,0.1847117990,,,
178.7500000000,22,0.1834309995,,,
179.0000000000,22,0.1834309995,,,
179.2500000000,22,0.1885544062,,,
179.5000000000,22,0.1821500957,,,
179.7500000000,22,0.1872736067,,,
180.0000000000,22,0.1847117990,,,
180.2500000000,22,0.1872736067,,,
180.5000000000,22,0.1834309995,,,
180.7500000000,22,0.1808692068,,,
181.0000000000,22,0.1872736067,,,
181.2500000000,22,0.1834309995,,,
181.5000000000,22,0.1872736067,,,
181.7500000000,22,0.1821500957,,,
182.0000000000,22,0.1821500957,,,
182.2500000000,22,0.1834309995,,,
182.5000000000,22,0.1859927028,,,
182.7500000000,22,0.1847117990,,,
183.0000000000,22,0.1885544062,,,
183.2500000000,22,0.1821500957,,,
183.5000000000,22,0.1821500957,,,
183.7500000000,22,0.1821500957,,,
184.0000000000,23,0.1834309995,,,
184.2500000000,23,0.1808692068,,,
184.5000000000,23,0.1808692068,,,
184.7500000000,23,0.1872736067,,,
185.0000000000,23,0.1821500957,,,
185.2500000000,23,0.1859927028,,,
185.5000000000,23,0.1834309995,,,
185.7500000000,23,0.1859927028,,,
186.0000000000,23,0.1808692068,,,
186.2500000000,23,0.1808692068,,,
186.5000000000,23,0.1821500957,,,
186.7500000000,23,0.1847117990,,,
187.0000000000,23,0.1795884073,,,
187.2500000000,23,0.1834309995,,,
187.5000000000,23,0.1821500957,,,
187.7500000000,23,0.1834309995,,,
188.0000000000,23,0.1821500957,,,
188.2500000000,23,0.2000823021,,,
188.5000000000,23,0.1795884073,,,
188.7500000000,23,0.1821500957,,,
189.0000000000,23,0.1847117990,,,
189.2500000000,23,0.1821500957,,,
189.5000000000,23,0.1859927028,,,
189.7500000000,23,0.1821500957,,,
190.0000000000,23,0.1847117990,,,
190.2500000000,23,0.1821500957,,,
190.5000000000,23,0.1859927028,,,
190.7500000000,23,0.1795884073,,,
191.0000000000,23,0.1795884073,,,
191.2500000000,23,0.1808692068,,,
191.5000000000,23,0.1834309995,,,
191.7500000000,23,0.1757458001,,,
192.0000000000,24,0.1834309995,,,
192.2500000000,24,0.1795884073,,,
192.5000000000,24,0.1821500957,,,
192.7500000000,24,0.1795884073,,,
193.0000000000,24,0.1847117990,,,
193.2500000000,24,0.1783075035,,,
193.5000000000,24,0.1821500957,,,
193.7500000000,24,0.1783075035,,,
194.0000000000,24,0.1821500957,,,
194.2500000000,24,0.1770265996,,,
194.5000000000,24,0.1821500957,,,
194.7500000000,24,0.1795884073,,,
195.0000000000,24,0.1808692068,,,
195.2500000000,24,0.1783075035,,,
195.5000000000,24,0.1834309995,,,
195.7500000000,24,0.1783075035,,,
196.0000000000,24,0.1847117990,,,
196.2500000000,24,0.1783075035,,,
196.5000000000,24,0.1834309995,,,
196.7500000000,24,0.1783075035,,,
197.0000000000,24,0.1847117990,,,
197.2500000000,24,0.1757458001,,,
197.5000000000,24,0.1795884073,,,
197.7500000000,24,0.1821500957,,,
198.0000000000,24,0.1783075035,,,
198.2500000000,24,0.1808692068,,,
198.5000000000,24,0.1783075035,,,
198.7500000000,24,0.1821500957,,,
199.0000000000,24,0.1783075035,,,
199.2500000000,24,0.1808692068,,,
199.5000000000,24,0.1795884073,,,
199.7500000000,24,0.1808692068,,,
200.0000000000,25,0.1757458001,,,
200.2500000000,25,0.1834309995,,,
200.5000000000,25,0.1783075035,,,
200.7500000000,25,0.1821500957,,,
201.0000000000,25,0.1783075035,,,
201.2500000000,25,0.1821500957,,,
201.5000000000,25,0.1795884073,,,
201.7500000000,25,0.1808692068,,,
202.0000000000,25,0.1783075035,,,
202.2500000000,25,0.1808692068,,,
202.5000000000,25,0.1770265996,,,
202.7500000000,25,0.1795884073,,,
203.0000000000,25,0.1770265996,,,
203.2500000000,25,0.1795884073,,,
203.5000000000,25,0.1770265996,,,
203.7500000000,25,0.1808692068,,,
204.0000000000,25,0.1757458001,,,
204.2500000000,25,0.1821500957,,,
204.5000000000,25,0.1783075035,,,
204.7500000000,25,0.1795884073,,,
205.0000000000,25,0.1783075035,,,
205.2500000000,25,0.1808692068,,,
205.5000000000,25,0.1783075035,,,
205.7500000000,25,0.1821500957,,,
206.0000000000,25,0.1783075035,,,
206.2500000000,25,0.1795884073,,,
206.5000000000,25,0.1770265996,,,
206.7500000000,25,0.1795884073,,,
207.0000000000,25,0.1770265996,,,
207.2500000000,25,0.1757458001,,,
207.5000000000,25,0.1770265996,,,
207.7500000000,25,0.1770265996,,,
208.0000000000,26,0.1770265996,,,
208.2500000000,26,0.1744648963,,,
208.5000000000,26,0.1757458001,,,
208.7500000000,26,0.1808692068,,,
209.0000000000,26,0.1757458001,,,
209.2500000000,26,0.1795884073,,,
209.5000000000,26,0.1757458001,,,
209.7500000000,26,0.1808692068,,,
210.0000000000,26,0.1757458001,,,
210.2500000000,26,0.1795884073,,,
210.5000000000,26,0.1770265996,,,
210.7500000000,26,0.1795884073,,,
211.0000000000,26,0.1693414003,,,
211.2500000000,26,0.1770265996,,,
211.5000000000,26,0.1757458001,,,
211.7500000000,26,0.1808692068,,,
212.0000000000,26,0.1744648963,,,
212.2500000000,26,0.1808692068,,,
212.5000000000,26,0.1757458001,,,
212.7500000000,26,0.1783075035,,,
213.0000000000,26,0.1923969984,,,
213.2500000000,26,0.1795884073,,,
213.5000000000,26,0.1744648963,,,
213.7500000000,26,0.1757458001,,,
214.0000000000,26,0.1783075035,,,
214.2500000000,26,0.1795884073,,,
214.5000000000,26,0.1757458001,,,
214.7500000000,26,0.1783075035,,,
215.0000000000,26,0.1744648963,,,
215.2500000000,26,0.1783075035,,,
215.5000000000,26,0.1744648963,,,
215.7500000000,26,0.1795884073,,,
216.0000000000,27,0.1744648963,,,
216.2500000000,27,0.1770265996,,,
216.5000000000,27,0.1706223041,,,
216.7500000000,27,0.1757458001,,,
217.0000000000,27,0.1757458001,,,
217.2500000000,27,0.1757458001,,,
217.5000000000,27,0.1757458001,,,
217.7500000000,27,0.1744648963,,,
218.0000000000,27,0.1731840074,,,
218.2500000000,27,0.1757458001,,,
218.5000000000,27,0.1731840074,,,
218.7500000000,27,0.1757458001,,,
219.0000000000,27,0.1757458001,,,
219.2500000000,27,0.1731840074,,,
219.5000000000,27,0.1783075035,,,
219.7500000000,27,0.1731840074,,,
220.0000000000,27,0.1783075035,,,
220.2500000000,27,0.1757458001,,,
220.5000000000,27,0.1795884073,,,
220.7500000000,27,0.1744648963,,,
221.0000000000,27,0.1783075035,,,
221.2500000000,27,0.1744648963,,,
221.5000000000,27,0.1795884073,,,
221.7500000000,27,0.1757458001,,,
222.0000000000,27,0.1770265996,,,
222.2500000000,27,0.1757458001,,,
222.5000000000,27,0.1808692068,,,
222.7500000000,27,0.1744648963,,,
223.0000000000,27,0.1783075035,,,
223.2500000000,27,0.1757458001,,,
223.5000000000,27,0.1783075035,,,
223.7500000000,27,0.1783075035,,,
224.0000000000,28,0.1783075035,,,
224.2500000000,28,0.1757458001,,,
224.5000000000,28,0.1757458001,,,
224.7500000000,28,0.1680604964,,,
225.0000000000,28,0.1770265996,,,
225.2500000000,28,0.1744648963,,,
225.5000000000,28,0.1808692068,,,
225.7500000000,28,0.1744648963,,,
226.0000000000,28,0.1770265996,,,
226.2500000000,28,0.1770265996,,,
226.5000000000,28,0.1783075035,,,
226.7500000000,28,0.1744648963,,,
227.0000000000,28,0.1783075035,,,
227.2500000000,28,0.1744648963,,,
227.5000000000,28,0.1706223041,,,
227.7500000000,28,0.1770265996,,,
228.0000000000,28,0.1757458001,,,
228.2500000000,28,0.1795884073,,,
228.5000000000,28,0.1757458001,,,
228.7500000000,28,0.1770265996,,,
229.0000000000,28,0.1744648963,,,
229.2500000000,28,0.1770265996,,,
229.5000000000,28,0.1757458001,,,
229.7500000000,28,0.1795884073,,,
230.0000000000,28,0.1744648963,,,
230.2500000000,28,0.1693414003,,,
230.5000000000,28,0.1719031036,,,
230.7500000000,28,0.1770265996,,,
231.0000000000,28,0.1757458001,,,
231.2500000000,28,0.1770265996,,,
231.5000000000,28,0.1731840074,,,
231.7500000000,28,0.1783075035,,,
232.0000000000,29,0.1731840074,,,
232.2500000000,29,0.1783075035,,,
232.5000000000,29,0.1744648963,,,
232.7500000000,29,0.1770265996,,,
233.0000000000,29,0.1706223041,,,
233.2500000000,29,0.1770265996,,,
233.5000000000,29,0.1719031036,,,
233.7500000000,29,0.1770265996,,,
234.0000000000,29,0.1719031036,,,
234.2500000000,29,0.1757458001,,,
234.5000000000,29,0.1731840074,,,
234.7500000000,29,0.1770265996,,,
235.0000000000,29,0.1731840074,,,
235.2500000000,29,0.1731840074,,,
235.5000000000,29,0.1719031036,,,
235.7500000000,29,0.1744648963,,,
236.0000000000,29,0.1719031036,,,
236.2500000000,29,0.1731840074,,,
236.5000000000,29,0.1706223041,,,
236.7500000000,29,0.1719031036,,,
237.0000000000,29,0.1770265996,,,
237.2500000000,29,0.1706223041,,,
237.5000000000,29,0.1770265996,,,
237.7500000000,29,0.1706223041,,,
238.0000000000,29,0.1757458001,,,
238.2500000000,29,0.1706223041,,,
238.5000000000,29,0.1719031036,,,
238.7500000000,29,0.1706223041,,,
239.0000000000,29,0.1757458001,,,
239.2500000000,29,0.1706223041,,,
239.5000000000,29,0.1731840074,,,
239.7500000000,29,0.1719031036,,,
240.0000000000,30,0.1757458001,,,
240.2500000000,30,0.1693414003,,,
240.5000000000,30,0.1731840074,,,
240.7500000000,30,0.1680604964,,,
241.0000000000,30,0.1744648963,,,
241.2500000000,30,0.1667796969,,,
241.5000000000,30,0.1744648963,,,
241.7500000000,30,0.1706223041,,,
242.0000000000,30,0.1731840074,,,
242.2500000000,30,0.1706223041,,,
242.5000000000,30,0.1757458001,,,
242.7500000000,30,0.1693414003,,,
243.0000000000,30,0.1731840074,,,
243.2500000000,30,0.1872736067,,,
243.5000000000,30,0.1706223041,,,
243.7500000000,30,0.1757458001,,,
244.0000000000,30,0.1654987931,,,
244.2500000000,30,0.1744648963,,,
244.5000000000,30,0.1693414003,,,
244.7500000000,30,0.1731840074,,,
245.0000000000,30,0.1693414003,,,
245.2500000000,30,0.1719031036,,,
245.5000000000,30,0.1706223041,,,
245.7500000000,30,0.1744648963,,,
246.0000000000,30,0.1693414003,,,
246.2500000000,30,0.1731840074,,,
246.5000000000,30,0.1693414003,,,
246.7500000000,30,0.1706223041,,,
247.0000000000,30,0.1706223041,,,
247.2500000000,30,0.1744648963,,,
247.5000000000,30,0.1693414003,,,
247.7500000000,30,0.1693414003,,,
248.0000000000,31,0.1744648963,,,
248.2500000000,31,0.1693414003,,,
248.5000000000,31,0.1744648963,,,
248.7500000000,31,0.1706223041,,,
249.0000000000,31,0.1731840074,,,
249.2500000000,31,0.1680604964,,,
249.5000000000,31,0.1719031036,,,
249.7500000000,31,0.1693414003,,,
250.0000000000,31,0.1719031036,,,
250.2500000000,31,0.1693414003,,,
250.5000000000,31,0.1731840074,,,
250.7500000000,31,0.1693414003,,,
251.0000000000,31,0.1731840074,,,
251.2500000000,31,0.1680604964,,,
251.5000000000,31,0.1706223041,,,
251.7500000000,31,0.1680604964,,,
252.0000000000,31,0.1667796969,,,
252.2500000000,31,0.1616562009,,,
252.5000000000,31,0.1719031036,,,
252.7500000000,31,0.1693414003,,,
253.0000000000,31,0.1693414003,,,
253.2500000000,31,0.1706223041,,,
253.5000000000,31,0.1693414003,,,
253.7500000000,31,0.1731840074,,,
254.0000000000,31,0.1693414003,,,
254.2500000000,31,0.1719031036,,,
254.5000000000,31,0.1731840074,,,
254.7500000000,31,0.1693414003,,,
255.0000000000,31,0.1616562009,,,
255.2500000000,31,0.1719031036,,,
255.5000000000,31,0.1680604964,,,
255.7500000000,31,0.1706223041,,,
256.0000000000,32,0.1667796969,,,
256.2500000000,32,0.1731840074,,,
256.5000000000,32,0.1667796969,,,
256.7500000000,32,0.1693414003,,,
257.0000000000,32,0.1680604964,,,
257.2500000000,32,0.1719031036,,,
257.5000000000,32,0.1667796969,,,
257.7500000000,32,0.1693414003,,,
258.0000000000,32,0.1693414003,,,
258.2500000000,32,0.1719031036,,,
258.5000000000,32,0.1680604964,,,
258.7500000000,32,0.1693414003,,,
259.0000000000,32,0.1693414003,,,
259.2500000000,32,0.1680604964,,,
259.5000000000,32,0.1719031036,,,
259.7500000000,32,0.1680604964,,,
260.0000000000,32,0.1731840074,,,
260.2500000000,32,0.1680604964,,,
260.5000000000,32,0.1693414003,,,
260.7500000000,32,0.1706223041,,,
261.0000000000,32,0.1693414003,,,
261.2500000000,32,0.1680604964,,,
261.5000000000,32,0.1719031036,,,
261.7500000000,32,0.1654987931,,,
262.0000000000,32,0.1731840074,,,
262.2500000000,32,0.1667796969,,,
262.5000000000,32,0.1719031036,,,
262.7500000000,32,0.1680604964,,,
263.0000000000,32,0.1719031036,,,
263.2500000000,32,0.1667796969,,,
263.5000000000,32,0.1719031036,,,
263.7500000000,32,0.1667796969,,,
264.0000000000,33,0.1680604964,,,
264.2500000000,33,0.1654987931,,,
264.5000000000,33,0.1654987931,,,
264.7500000000,33,0.1719031036,,,
265.0000000000,33,0.1680604964,,,
265.2500000000,33,0.1719031036,,,
265.5000000000,33,0.1667796969,,,
265.7500000000,33,0.1693414003,,,
266.0000000000,33,0.1603752971,,,
266.2500000000,33,0.1719031036,,,
266.5000000000,33,0.1667796969,,,
266.7500000000,33,0.1693414003,,,
267.0000000000,33,0.1667796969,,,
267.2500000000,33,0.1693414003,,,
267.5000000000,33,0.1654987931,,,
267.7500000000,33,0.1731840074,,,
268.0000000000,33,0.1654987931,,,
268.2500000000,33,0.1693414003,,,
268.5000000000,33,0.1654987931,,,
268.7500000000,33,0.1680604964,,,
269.0000000000,33,0.1667796969,,,
269.2500000000,33,0.1680604964,,,
269.5000000000,33,0.1654987931,,,
269.7500000000,33,0.1667796969,,,
270.0000000000,33,0.1654987931,,,
270.2500000000,33,0.1654987931,,,
270.5000000000,33,0.1693414003,,,
270.7500000000,33,0.1667796969,,,
271.0000000000,33,0.1706223041,,,
271.2500000000,33,0.1667796969,,,
271.5000000000,33,0.1667796969,,,
271.7500000000,33,0.1667796969,,,
272.0000000000,34,0.1706223041,,,
272.2500000000,34,0.1654987931,,,
272.5000000000,34,0.1719031036,,,
272.7500000000,34,0.1680604964,,,
273.0000000000,34,0.1693414003,,,
273.2500000000,34,0.1654987931,,,
273.5000000000,34,0.1693414003,,,
273.7500000000,34,0.1629371047,,,
274.0000000000,34,0.1693414003,,,
274.2500000000,34,0.1642179042,,,
274.5000000000,34,0.1667796969,,,
274.7500000000,34,0.1706223041,,,
275.0000000000,34,0.1654987931,,,
275.2500000000,34,0.1667796969,,,
275.5000000000,34,0.1667796969,,,
275.7500000000,34,0.1693414003,,,
276.0000000000,34,0.1642179042,,,
276.2500000000,34,0.1680604964,,,
276.5000000000,34,0.1642179042,,,
276.7500000000,34,0.1667796969,,,
277.0000000000,34,0.1629371047,,,
277.2500000000,34,0.1680604964,,,
277.5000000000,34,0.1616562009,,,
277.7500000000,34,0.1693414003,,,
278.0000000000,34,0.1629371047,,,
278.2500000000,34,0.1642179042,,,
278.5000000000,34,0.1667796969,,,
278.7500000000,34,0.1642179042,,,
279.0000000000,34,0.1680604964,,,
279.2500000000,34,0.1642179042,,,
279.5000000000,34,0.1680604964,,,
279.7500000000,34,0.1603752971,,,
280.0000000000,35,0.1680604964,,,
280.2500000000,35,0.1603752971,,,
280.5000000000,35,0.1680604964,,,
280.7500000000,35,0.1642179042,,,
281.0000000000,35,0.1667796969,,,
281.2500000000,35,0.1629371047,,,
281.5000000000,35,0.1654987931,,,
281.7500000000,35,0.1680604964,,,
282.0000000000,35,0.1654987931,,,
282.2500000000,35,0.1680604964,,,
282.5000000000,35,0.1616562009,,,
282.7500000000,35,0.1680604964,,,
283.0000000000,35,0.1654987931,,,
283.2500000000,35,0.1680604964,,,
283.5000000000,35,0.1642179042,,,
283.7500000000,35,0.1654987931,,,
284.0000000000,35,0.1642179042,,,
284.2500000000,35,0.1680604964,,,
284.5000000000,35,0.1642179042,,,
284.7500000000,35,0.1680604964,,,
285.0000000000,35,0.1616562009,,,
285.2500000000,35,0.1616562009,,,
285.5000000000,35,0.1629371047,,,
285.7500000000,35,0.1629371047,,,
286.0000000000,35,0.1680604964,,,
286.2500000000,35,0.1629371047,,,
286.5000000000,35,0.1693414003,,,
286.7500000000,35,0.1642179042,,,
287.0000000000,35,0.1667796969,,,
287.2500000000,35,0.1629371047,,,
287.5000000000,35,0.1680604964,,,
287.7500000000,35,0.1629371047,,,
288.0000000000,36,0.1642179042,,,
288.2500000000,36,0.1629371047,,,
288.5000000000,36,0.1680604964,,,
288.7500000000,36,0.1642179042,,,
289.0000000000,36,0.1680604964,,,
289.2500000000,36,0.1642179042,,,
289.5000000000,36,0.1667796969,,,
289.7500000000,36,0.1629371047,,,
290.0000000000,36,0.1642179042,,,
290.2500000000,36,0.1654987931,,,
290.5000000000,36,0.1629371047,,,
290.7500000000,36,0.1654987931,,,
291.0000000000,36,0.1616562009,,,
291.2500000000,36,0.1667796969,,,
291.5000000000,36,0.1629371047,,,
291.7500000000,36,0.1654987931,,,
292.0000000000,36,0.1616562009,,,
292.2500000000,36,0.1667796969,,,
292.5000000000,36,0.1629371047,,,
292.7500000000,36,0.1680604964,,,
293.0000000000,36,0.1642179042,,,
293.2500000000,36,0.1654987931,,,
293.5000000000,36,0.1578135937,,,
293.7500000000,36,0.1667796969,,,
294.0000000000,36,0.1603752971,,,
294.2500000000,36,0.1667796969,,,
294.5000000000,36,0.1629371047,,,
294.7500000000,36,0.1667796969,,,
295.0000000000,36,0.1603752971,,,
295.2500000000,36,0.1629371047,,,
295.5000000000,36,0.1616562009,,,
295.7500000000,36,0.1642179042,,,
