Time:4Hz,Epoch,Channel 1,Event Id,Event Date,Event Duration
0.0000000000,0,0.0486700311,,,
0.2500000000,0,0.0525123999,,,
0.5000000000,0,0.0473892391,,,
0.7500000000,0,0.0499508195,,,
1.0000000000,0,0.0525123999,,,
1.2500000000,0,0.0486700311,,,
1.5000000000,0,0.0486700311,,,
1.7500000000,0,0.0486700311,,,
2.0000000000,0,0.0525123999,,,
2.2500000000,0,0.0499508195,,,
2.5000000000,0,0.0525123999,,,
2.7500000000,0,0.0537931882,,,
3.0000000000,0,0.0499508195,,,
3.2500000000,0,0.0525123999,,,
3.5000000000,0,0.0499508195,,,
3.7500000000,0,0.0537931882,,,
4.0000000000,0,0.0512316115,,,
4.2500000000,0,0.0537931882,,,
4.5000000000,0,0.0525123999,,,
4.7500000000,0,0.0499508195,,,
5.0000000000,0,0.0537931882,,,
5.2500000000,0,0.0666011125,,,
5.5000000000,0,0.0525123999,,,
5.7500000000,0,0.0512316115,,,
6.0000000000,0,0.0525123999,,,
6.2500000000,0,0.0499508195,,,
6.5000000000,0,0.0512316115,,,
6.7500000000,0,0.0537931882,,,
7.0000000000,0,0.0499508195,,,
7.2500000000,0,0.0525123999,,,
7.5000000000,0,0.0499508195,,,
7.7500000000,0,0.0550739802,,,
8.0000000000,1,0.0512316115,,,
8.2500000000,1,0.0537931882,,,
8.5000000000,1,0.0512316115,,,
8.7500000000,1,0.0473892391,,,
9.0000000000,1,0.0537931882,,,
9.2500000000,1,0.0512316115,,,
9.5000000000,1,0.0537931882,,,
9.7500000000,1,0.0512316115,,,
10.0000000000,1,0.0537931882,,,
10.2500000000,1,0.0512316115,,,
10.5000000000,1,0.0537931882,,,
10.7500000000,1,0.0499508195,,,
11.0000000000,1,0.0525123999,,,
11.2500000000,1,0.0537931882,,,
11.5000000000,1,0.0499508195,,,
11.7500000000,1,0.0550739802,,,
12.0000000000,1,0.0512316115,,,
12.2500000000,1,0.0537931882,,,
12.5000000000,1,0.0512316115,,,
12.7500000000,1,0.0537931882,,,
13.0000000000,1,0.0512316115,,,
13.2500000000,1,0.0550739802,,,
13.5000000000,1,0.0512316115,,,
13.7500000000,1,0.0499508195,,,
14.0000000000,1,0.0512316115,,,
14.2500000000,1,0.0409852788,,,
14.5000000000,1,0.0486700311,,,
14.7500000000,1,0.0435468592,,,
15.0000000000,1,0.0486700311,,,
15.2500000000,1,0.0422660708,,,
15.5000000000,1,0.0435468592,,,
15.7500000000,1,0.0409852788,,,
16.0000000000,2,0.0435468592,,,
16.2500000000,2,0.0422660708,,,
16.5000000000,2,0.0435468592,,,
16.7500000000,2,0.0461084396,,,
17.0000000000,2,0.0397044905,,,
17.2500000000,2,0.0461084396,,,
17.5000000000,2,0.0435468592,,,
17.7500000000,2,0.0473892391,,,
18.0000000000,2,0.0435468592,,,
18.2500000000,2,0.0461084396,,,
18.5000000000,2,0.0435468592,,,
18.7500000000,2,0.0473892391,,,
19.0000000000,2,0.0461084396,,,
19.2500000000,2,0.0512316115,,,
19.5000000000,2,0.0486700311,,,
19.7500000000,2,0.0486700311,,,
20.0000000000,2,0.0499508195,,,
20.2500000000,2,0.0512316115,,,
20.5000000000,2,0.0537931882,,,
20.7500000000,2,0.0499508195,,,
21.0000000000,2,0.0525123999,,,
21.2500000000,2,0.0499508195,,,
21.5000000000,2,0.0537931882,,,
21.7500000000,2,0.0499508195,,,
22.0000000000,2,0.0550739802,,,
22.2500000000,2,0.0512316115,,,
22.5000000000,2,0.0473892391,,,
22.7500000000,2,0.0537931882,,,
23.0000000000,2,0.0512316115,,,
23.2500000000,2,0.0537931882,,,
23.5000000000,2,0.0499508195,,,
23.7500000000,2,0.0537931882,,,
24.0000000000,3,0.0512316115,,,
24.2500000000,3,0.0550739802,,,
24.5000000000,3,0.0512316115,,,
24.7500000000,3,0.0550739802,,,
25.0000000000,3,0.0563547798,,,
25.2500000000,3,0.0486700311,,,
25.5000000000,3,0.0563547798,,,
25.7500000000,3,0.0525123999,,,
26.0000000000,3,0.0563547798,,,
26.2500000000,3,0.0525123999,,,
26.5000000000,3,0.0550739802,,,
26.7500000000,3,0.0525123999,,,
27.0000000000,3,0.0576355606,,,
27.2500000000,3,0.0537931882,,,
27.5000000000,3,0.0550739802,,,
27.7500000000,3,0.0576355606,,,
28.0000000000,3,0.0537931882,,,
28.2500000000,3,0.0563547798,,,
28.5000000000,3,0.0550739802,,,
28.7500000000,3,0.0576355606,,,
29.0000000000,3,0.0537931882,,,
29.2500000000,3,0.0550739802,,,
29.5000000000,3,0.0576355606,,,
29.7500000000,3,0.0537931882,,,
30.0000000000,3,0.0563547798,,,
30.2500000000,3,0.0537931882,,,
30.5000000000,3,0.0576355606,,,
30.7500000000,3,0.0550739802,,,
31.0000000000,3,0.0550739802,,,
31.2500000000,3,0.0576355606,,,
31.5000000000,3,0.0550739802,,,
31.7500000000,3,0.0576355606,,,
32.0000000000,4,0.0537931882,,,
32.2500000000,4,0.0576355606,,,
32.5000000000,4,0.0550739802,,,
32.7500000000,4,0.0550739802,,,
33.0000000000,4,0.0589163601,,,
33.2500000000,4,0.0550739802,,,
33.5000000000,4,0.0537931882,,,
33.7500000000,4,0.0550739802,,,
34.0000000000,4,0.0563547798,,,
34.2500000000,4,0.0550739802,,,
34.5000000000,4,0.0576355606,,,
34.7500000000,4,0.0589163601,,,
35.0000000000,4,0.0563547798,,,
35.2500000000,4,0.0589163601,,,
35.5000000000,4,0.0563547798,,,
35.7500000000,4,0.0601971485,,,
36.0000000000,4,0.0563547798,,,
36.2500000000,4,0.0576355606,,,
36.5000000000,4,0.0563547798,,,
36.7500000000,4,0.0550739802,,,
37.0000000000,4,0.0589163601,,,
37.2500000000,4,0.0563547798,,,
37.5000000000,4,0.0589163601,,,
37.7500000000,4,0.0563547798,,,
38.0000000000,4,0.0601971485,,,
38.2500000000,4,0.0730050579,,,
38.5000000000,4,0.0589163601,,,
38.7500000000,4,0.0589163601,,,
39.0000000000,4,0.0550739802,,,
39.2500000000,4,0.0601971485,,,
39.5000000000,4,0.0576355606,,,
39.7500000000,4,0.0589163601,,,
40.0000000000,5,0.0563547798,,,
40.2500000000,5,0.0601971485,,,
40.5000000000,5,0.0576355606,,,
40.7500000000,5,0.0576355606,,,
41.0000000000,5,0.0601971485,,,
41.2500000000,5,0.0576355606,,,
41.5000000000,5,0.0601971485,,,
41.7500000000,5,0.0563547798,,,
42.0000000000,5,0.0601971485,,,
42.2500000000,5,0.0576355606,,,
42.5000000000,5,0.0601971485,,,
42.7500000000,5,0.0576355606,,,
43.0000000000,5,0.0576355606,,,
43.2500000000,5,0.0614779405,,,
43.5000000000,5,0.0589163601,,,
43.7500000000,5,0.0601971485,,,
44.0000000000,5,0.0576355606,,,
44.2500000000,5,0.0614779405,,,
44.5000000000,5,0.0576355606,,,
44.7500000000,5,0.0589163601,,,
45.0000000000,5,0.0614779405,,,
45.2500000000,5,0.0589163601,,,
45.5000000000,5,0.0614779405,,,
45.7500000000,5,0.0589163601,,,
46.0000000000,5,0.0627587289,,,
46.2500000000,5,0.0589163601,,,
46.5000000000,5,0.0614779405,,,
46.7500000000,5,0.0589163601,,,
47.0000000000,5,0.0589163601,,,
47.2500000000,5,0.0563547798,,,
47.5000000000,5,0.0589163601,,,
47.7500000000,5,0.0627587289,,,
48.0000000000,6,0.0589163601,,,
48.2500000000,6,0.0614779405,,,
48.5000000000,6,0.0589163601,,,
48.7500000000,6,0.0627587289,,,
49.0000000000,6,0.0627587289,,,
49.2500000000,6,0.0601971485,,,
49.5000000000,6,0.0640395209,,,
49.7500000000,6,0.0601971485,,,
50.0000000000,6,0.0627587289,,,
50.2500000000,6,0.0601971485,,,
50.5000000000,6,0.0589163601,,,
50.7500000000,6,0.0589163601,,,
51.0000000000,6,0.0627587289,,,
51.2500000000,6,0.0589163601,,,
51.5000000000,6,0.0601971485,,,
51.7500000000,6,0.0640395209,,,
52.0000000000,6,0.0601971485,,,
52.2500000000,6,0.0640395209,,,
52.5000000000,6,0.0601971485,,,
52.7500000000,6,0.0563547798,,,
53.0000000000,6,0.0601971485,,,
53.2500000000,6,0.0640395209,,,
53.5000000000,6,0.0601971485,,,
53.7500000000,6,0.0627587289,,,
54.0000000000,6,0.0601971485,,,
54.2500000000,6,0.0601971485,,,
54.5000000000,6,0.0640395209,,,
54.7500000000,6,0.0601971485,,,
55.0000000000,6,0.0640395209,,,
55.2500000000,6,0.0601971485,,,
55.5000000000,6,0.0627587289,,,
55.7500000000,6,0.0614779405,,,
56.0000000000,7,0.0627587289,,,
56.2500000000,7,0.0601971485,,,
56.5000000000,7,0.0601971485,,,
56.7500000000,7,0.0640395209,,,
57.0000000000,7,0.0601971485,,,
57.2500000000,7,0.0640395209,,,
57.5000000000,7,0.0601971485,,,
57.7500000000,7,0.0640395209,,,
58.0000000000,7,0.0601971485,,,
58.2500000000,7,0.0601971485,,,
58.5000000000,7,0.0601971485,,,
58.7500000000,7,0.0653203130,,,
59.0000000000,7,0.0601971485,,,
59.2500000000,7,0.0614779405,,,
59.5000000000,7,0.0640395209,,,
59.7500000000,7,0.0614779405,,,
60.0000000000,7,0.0640395209,,,
60.2500000000,7,0.0614779405,,,
60.5000000000,7,0.0640395209,,,
60.7500000000,7,0.0614779405,,,
61.0000000000,7,0.0627587289,,,
61.2500000000,7,0.0640395209,,,
61.5000000000,7,0.0589163601,,,
61.7500000000,7,0.0653203130,,,
62.0000000000,7,0.0614779405,,,
62.2500000000,7,0.0653203130,,,
62.5000000000,7,0.0614779405,,,
62.7500000000,7,0.0653203130,,,
63.0000000000,7,0.0614779405,,,
63.2500000000,7,0.0653203130,,,
63.5000000000,7,0.0627587289,,,
63.7500000000,7,0.0601971485,,,
64.0000000000,8,0.0640395209,,,
64.2500000000,8,0.0627587289,,,
64.5000000000,8,0.0614779405,,,
64.7500000000,8,0.0614779405,,,
65.0000000000,8,0.0640395209,,,
65.2500000000,8,0.0614779405,,,
65.5000000000,8,0.0653203130,,,
65.7500000000,8,0.0614779405,,,
66.0000000000,8,0.0627587289,,,
66.2500000000,8,0.0653203130,,,
66.5000000000,8,0.0601971485,,,
66.7500000000,8,0.0653203130,,,
67.0000000000,8,0.0627587289,,,
67.2500000000,8,0.0653203130,,,
67.5000000000,8,0.0614779405,,,
67.7500000000,8,0.0653203130,,,
68.0000000000,8,0.0614779405,,,
68.2500000000,8,0.0640395209,,,
68.5000000000,8,0.0614779405,,,
68.7500000000,8,0.0614779405,,,
69.0000000000,8,0.0666011125,,,
69.2500000000,8,0.0601971485,,,
69.5000000000,8,0.0653203130,,,
69.7500000000,8,0.0627587289,,,
70.0000000000,8,0.0640395209,,,
70.2500000000,8,0.0614779405,,,
70.5000000000,8,0.0640395209,,,
70.7500000000,8,0.0614779405,,,
71.0000000000,8,0.0627587289,,,
71.2500000000,8,0.0666011125,,,
71.5000000000,8,0.0627587289,,,
71.7500000000,8,0.0653203130,,,
72.0000000000,9,0.0640395209,,,
72.2500000000,9,0.0653203130,,,
72.5000000000,9,0.0627587289,,,
72.7500000000,9,0.0653203130,,,
73.0000000000,9,0.0614779405,,,
73.2500000000,9,0.0627587289,,,
73.5000000000,9,0.0653203130,,,
73.7500000000,9,0.0627587289,,,
74.0000000000,9,0.0653203130,,,
74.2500000000,9,0.0627587289,,,
74.5000000000,9,0.0653203130,,,
74.7500000000,9,0.0576355606,,,
75.0000000000,9,0.0653203130,,,
75.2500000000,9,0.0589163601,,,
75.5000000000,9,0.0627587289,,,
75.7500000000,9,0.0653203130,,,
76.0000000000,9,0.0627587289,,,
76.2500000000,9,0.0653203130,,,
76.5000000000,9,0.0627587289,,,
76.7500000000,9,0.0653203130,,,
77.0000000000,9,0.0627587289,,,
77.2500000000,9,0.0653203130,,,
77.5000000000,9,0.0589163601,,,
77.7500000000,9,0.0627587289,,,
78.0000000000,9,0.0653203130,,,
78.2500000000,9,0.0627587289,,,
78.5000000000,9,0.0627587289,,,
78.7500000000,9,0.0627587289,,,
79.0000000000,9,0.0666011125,,,
79.2500000000,9,0.0627587289,,,
79.5000000000,9,0.0653203130,,,
79.7500000000,9,0.0627587289,,,
80.0000000000,10,0.0627587289,,,
80.2500000000,10,0.0627587289,,,
80.5000000000,10,0.0627587289,,,
80.7500000000,10,0.0666011125,,,
81.0000000000,10,0.0627587289,,,
81.2500000000,10,0.0653203130,,,
81.5000000000,10,0.0627587289,,,
81.7500000000,10,0.0653203130,,,
82.0000000000,10,0.0627587289,,,
82.2500000000,10,0.0640395209,,,
82.5000000000,10,0.0666011125,,,
82.7500000000,10,0.0627587289,,,
83.0000000000,10,0.0640395209,,,
83.2500000000,10,0.0627587289,,,
83.5000000000,10,0.0666011125,,,
83.7500000000,10,0.0627587289,,,
84.0000000000,10,0.0653203130,,,
84.2500000000,10,0.0627587289,,,
84.5000000000,10,0.0666011125,,,
84.7500000000,10,0.0627587289,,,
85.0000000000,10,0.0666011125,,,
85.2500000000,10,0.0640395209,,,
85.5000000000,10,0.0640395209,,,
85.7500000000,10,0.0653203130,,,
86.0000000000,10,0.0640395209,,,
86.2500000000,10,0.0678818971,,,
86.5000000000,10,0.0640395209,,,
86.7500000000,10,0.0653203130,,,
87.0000000000,10,0.0640395209,,,
87.2500000000,10,0.0678818971,,,
87.5000000000,10,0.0653203130,,,
87.7500000000,10,0.0832513869,,,
88.0000000000,11,0.0640395209,,,
88.2500000000,11,0.0666011125,,,
88.5000000000,11,0.0627587289,,,
88.7500000000,11,0.0640395209,,,
89.0000000000,11,0.0678818971,,,
89.2500000000,11,0.0640395209,,,
89.5000000000,11,0.0678818971,,,
89.7500000000,11,0.0627587289,,,
90.0000000000,11,0.0678818971,,,
90.2500000000,11,0.0627587289,,,
90.5000000000,11,0.0653203130,,,
90.7500000000,11,0.0627587289,,,
91.0000000000,11,0.0640395209,,,
91.2500000000,11,0.0640395209,,,
91.5000000000,11,0.0640395209,,,
91.7500000000,11,0.0653203130,,,
92.0000000000,11,0.0640395209,,,
92.2500000000,11,0.0666011125,,,
92.5000000000,11,0.0640395209,,,
92.7500000000,11,0.0678818971,,,
93.0000000000,11,0.0640395209,,,
93.2500000000,11,0.0691626891,,,
93.5000000000,11,0.0653203130,,,
93.7500000000,11,0.0678818971,,,
94.0000000000,11,0.0614779405,,,
94.2500000000,11,0.0666011125,,,
94.5000000000,11,0.0640395209,,,
94.7500000000,11,0.0640395209,,,
95.0000000000,11,0.0691626891,,,
95.2500000000,11,0.0640395209,,,
95.5000000000,11,0.0691626891,,,
95.7500000000,11,0.0653203130,,,
96.0000000000,12,0.0678818971,,,
96.2500000000,12,0.0666011125,,,
96.5000000000,12,0.0704434812,,,
96.7500000000,12,0.0614779405,,,
97.0000000000,12,0.0691626891,,,
97.2500000000,12,0.0678818971,,,
97.5000000000,12,0.0717242733,,,
97.7500000000,12,0.0717242733,,,
98.0000000000,12,0.0781282336,,,
98.2500000000,12,0.0768474266,,,
98.5000000000,12,0.0768474266,,,
98.7500000000,12,0.0794090182,,,
99.0000000000,12,0.0768474266,,,
99.2500000000,12,0.0794090182,,,
99.5000000000,12,0.0730050579,,,
99.7500000000,12,0.0794090182,,,
100.0000000000,12,0.0768474266,,,
100.2500000000,12,0.0755666420,,,
100.5000000000,12,0.0768474266,,,
100.7500000000,12,0.0806898102,,,
101.0000000000,12,0.0768474266,,,
101.2500000000,12,0.0806898102,,,
101.5000000000,12,0.0781282336,,,
101.7500000000,12,0.0806898102,,,
102.0000000000,12,0.0781282336,,,
102.2500000000,12,0.0781282336,,,
102.5000000000,12,0.0781282336,,,
102.7500000000,12,0.0781282336,,,
103.0000000000,12,0.0806898102,,,
103.2500000000,12,0.0781282336,,,
103.5000000000,12,0.0819706023,,,
103.7500000000,12,0.0781282336,,,
104.0000000000,13,0.0819706023,,,
104.2500000000,13,0.0781282336,,,
104.5000000000,13,0.0806898102,,,
104.7500000000,13,0.0781282336,,,
105.0000000000,13,0.1088671982,,,
105.2500000000,13,0.1063055992,33025,105.4062500000,0.0000000000
105.5000000000,13,0.1037440971,33024:33025:33024,105.5000000000:105.5937500000:105.6562500000,0.0000000000:0.0000000000:0.0000000000
105.7500000000,13,0.1011824980,,,
106.0000000000,13,0.1063055992,,,
106.2500000000,13,0.1024632975,,,
106.5000000000,13,0.1063055992,,,
106.7500000000,13,0.1011824980,,,
107.0000000000,13,0.1037440971,,,
107.2500000000,13,0.1011824980,,,
107.5000000000,13,0.1050247997,,,
107.7500000000,13,0.0986208767,,,
108.0000000000,13,0.1050247997,,,
108.2500000000,13,0.1024632975,,,
108.5000000000,13,0.1037440971,,,
108.7500000000,13,0.1063055992,,,
109.0000000000,13,0.1037440971,,,
109.2500000000,13,0.1063055992,,,
109.5000000000,13,0.1037440971,,,
109.7500000000,13,0.1075863987,,,
110.0000000000,13,0.1050247997,,,
110.2500000000,13,0.1063055992,,,
110.5000000000,13,0.1037440971,,,
110.7500000000,13,0.1075863987,,,
111.0000000000,13,0.1050247997,,,
111.2500000000,13,0.1075863987,,,
111.5000000000,13,0.1050247997,,,
111.7500000000,13,0.1050247997,,,
112.0000000000,14,0.1088671982,,,
112.2500000000,14,0.1050247997,,,
112.5000000000,14,0.1075863987,,,
112.7500000000,14,0.1063055992,,,
113.0000000000,14,0.1088671982,,,
113.2500000000,14,0.1037440971,,,
113.5000000000,14,0.1088671982,,,
113.7500000000,14,0.1063055992,,,
114.0000000000,14,0.1101479977,,,
114.2500000000,14,0.1063055992,,,
114.5000000000,14,0.1063055992,,,
114.7500000000,14,0.1088671982,,,
115.0000000000,14,0.1063055992,,,
115.2500000000,14,0.1088671982,,,
115.5000000000,14,0.1050247997,,,
115.7500000000,14,0.1075863987,,,
116.0000000000,14,0.1024632975,,,
116.2500000000,14,0.1075863987,,,
116.5000000000,14,0.1011824980,,,
116.7500000000,14,0.1050247997,,,
117.0000000000,14,0.1075863987,,,
117.2500000000,14,0.1037440971,,,
117.5000000000,14,0.1063055992,,,
117.7500000000,14,0.1037440971,,,
118.0000000000,14,0.1063055992,,,
118.2500000000,14,0.1024632975,,,
118.5000000000,14,0.1050247997,,,
118.7500000000,14,0.0986208767,,,
119.0000000000,14,0.1037440971,,,
119.2500000000,14,0.1011824980,,,
119.5000000000,14,0.1024632975,,,
119.7500000000,14,0.1037440971,,,
120.0000000000,15,0.1011824980,,,
120.2500000000,15,0.1011824980,,,
120.5000000000,15,0.0999016836,,,
120.7500000000,15,0.1037440971,,,
121.0000000000,15,0.1011824980,,,
121.2500000000,15,0.1024632975,,,
121.5000000000,15,0.0973400921,,,
121.7500000000,15,0.0999016836,,,
122.0000000000,15,0.1024632975,,,
122.2500000000,15,0.1011824980,,,
122.5000000000,15,0.1024632975,,,
122.7500000000,15,0.0986208767,,,
123.0000000000,15,0.1024632975,,,
123.2500000000,15,0.0986208767,,,
123.5000000000,15,0.1011824980,,,
123.7500000000,15,0.1011824980,,,
124.0000000000,15,0.0986208767,,,
124.2500000000,15,0.0973400921,,,
124.5000000000,15,0.0986208767,,,
124.7500000000,15,0.0986208767,,,
125.0000000000,15,0.0999016836,,,
125.2500000000,15,0.1011824980,,,
125.5000000000,15,0.1024632975,,,
125.7500000000,15,0.0999016836,,,
126.0000000000,15,0.1024632975,,,
126.2500000000,15,0.1011824980,,,
126.5000000000,15,0.1037440971,,,
126.7500000000,15,0.1011824980,,,
127.0000000000,15,0.1024632975,,,
127.2500000000,15,0.0999016836,,,
127.5000000000,15,0.1011824980,,,
127.7500000000,15,0.1050247997,,,
128.0000000000,16,0.1011824980,,,
128.2500000000,16,0.1037440971,,,
128.5000000000,16,0.1011824980,,,
128.7500000000,16,0.1037440971,,,
129.0000000000,16,0.0999016836,,,
129.2500000000,16,0.1024632975,,,
129.5000000000,16,0.1037440971,,,
129.7500000000,16,0.0986208767,,,
130.0000000000,16,0.1037440971,,,
130.2500000000,16,0.1011824980,,,
130.5000000000,16,0.1037440971,,,
130.7500000000,16,0.1011824980,,,
131.0000000000,16,0.1037440971,,,
131.2500000000,16,0.1011824980,,,
131.5000000000,16,0.1037440971,,,
131.7500000000,16,0.1037440971,,,
132.0000000000,16,0.1011824980,,,
132.2500000000,16,0.1037440971,,,
132.5000000000,16,0.0999016836,,,
132.7500000000,16,0.1037440971,,,
133.0000000000,16,0.1024632975,,,
133.2500000000,16,0.1037440971,,,
133.5000000000,16,0.0999016836,,,
133.7500000000,16,0.1037440971,,,
134.0000000000,16,0.0999016836,,,
134.2500000000,16,0.0999016836,,,
134.5000000000,16,0.1024632975,,,
134.7500000000,16,0.0999016836,,,
135.0000000000,16,0.1011824980,,,
135.2500000000,16,0.0973400921,,,
135.5000000000,16,0.1024632975,,,
135.7500000000,16,0.0999016836,,,
136.0000000000,17,0.1024632975,,,
136.2500000000,17,0.0999016836,,,
136.5000000000,17,0.0999016836,,,
136.7500000000,17,0.1024632975,,,
137.0000000000,17,0.0999016836,,,
137.2500000000,17,0.1024632975,,,
137.5000000000,17,0.0999016836,,,
137.7500000000,17,0.1037440971,,,
138.0000000000,17,0.0960593000,,,
138.2500000000,17,0.1024632975,,,
138.5000000000,17,0.0999016836,,,
138.7500000000,17,0.1024632975,,,
139.0000000000,17,0.0986208767,,,
139.2500000000,17,0.0986208767,,,
139.5000000000,17,0.1011824980,,,
139.7500000000,17,0.1050247997,,,
140.0000000000,17,0.1216750965,,,
140.2500000000,17,0.1011824980,,,
140.5000000000,17,0.1037440971,,,
140.7500000000,17,0.0986208767,,,
141.0000000000,17,0.1075863987,,,
141.2500000000,17,0.1037440971,,,
141.5000000000,17,0.1101479977,,,
141.7500000000,17,0.1088671982,,,
142.0000000000,17,0.1088671982,,,
142.2500000000,17,0.1127095968,,,
142.5000000000,17,0.1101479977,,,
142.7500000000,17,0.1127095968,,,
143.0000000000,17,0.1101479977,,,
143.2500000000,17,0.1139904037,,,
143.5000000000,17,0.1088671982,,,
143.7500000000,17,0.1139904037,,,
144.0000000000,18,0.1114287972,,,
144.2500000000,18,0.1152712032,,,
144.5000000000,18,0.1114287972,,,
144.7500000000,18,0.1139904037,,,
145.0000000000,18,0.1178328022,,,
145.2500000000,18,0.1152712032,,,
145.5000000000,18,0.1191134974,,,
145.7500000000,18,0.1152712032,,,
146.0000000000,18,0.1165520027,,,
146.2500000000,18,0.1114287972,,,
146.5000000000,18,0.1178328022,,,
146.7500000000,18,0.1139904037,,,
147.0000000000,18,0.1139904037,,,
147.2500000000,18,0.1178328022,,,
147.5000000000,18,0.1152712032,,,
147.7500000000,18,0.1191134974,,,
148.0000000000,18,0.1165520027,,,
148.2500000000,18,0.1178328022,,,
148.5000000000,18,0.1165520027,,,
148.7500000000,18,0.1191134974,,,
149.0000000000,18,0.1152712032,,,
149.2500000000,18,0.1203942969,,,
149.5000000000,18,0.1165520027,,,
149.7500000000,18,0.1178328022,,,
150.0000000000,18,0.1203942969,,,
150.2500000000,18,0.1178328022,,,
150.5000000000,18,0.1191134974,,,
150.7500000000,18,0.1165520027,,,
151.0000000000,18,0.1191134974,,,
151.2500000000,18,0.1152712032,,,
151.5000000000,18,0.1191134974,,,
151.7500000000,18,0.1127095968,,,
152.0000000000,19,0.1152712032,,,
152.2500000000,19,0.1191134974,,,
152.5000000000,19,0.1165520027,,,
152.7500000000,19,0.1191134974,,,
153.0000000000,19,0.1152712032,,,
153.2500000000,19,0.1178328022,,,
153.5000000000,19,0.1165520027,,,
153.7500000000,19,0.1191134974,,,
154.0000000000,19,0.1165520027,,,
154.2500000000,19,0.1152712032,,,
154.5000000000,19,0.1127095968,,,
154.7500000000,19,0.1152712032,,,
155.0000000000,19,0.1191134974,,,
155.2500000000,19,0.1152712032,,,
155.5000000000,19,0.1178328022,,,
155.7500000000,19,0.1152712032,,,
156.0000000000,19,0.1216750965,,,
156.2500000000,19,0.1178328022,,,
156.5000000000,19,0.1191134974,,,
156.7500000000,19,0.1216750965,,,
157.0000000000,19,0.1203942969,,,
157.2500000000,19,0.1178328022,,,
157.5000000000,19,0.1216750965,,,
157.7500000000,19,0.1242367029,,,
158.0000000000,19,0.1203942969,,,
158.2500000000,19,0.1203942969,,,
158.5000000000,19,0.1229559034,,,
158.7500000000,19,0.1203942969,,,
159.0000000000,19,0.1216750965,,,
159.2500000000,19,0.1203942969,,,
159.5000000000,19,0.1229559034,,,
159.7500000000,19,0.1203942969,,,
160.0000000000,20,0.1165520027,,,
160.2500000000,20,0.1229559034,,,
160.5000000000,20,0.1203942969,,,
160.7500000000,20,0.1216750965,,,
161.0000000000,20,0.1191134974,,,
161.2500000000,20,0.1229559034,,,
161.5000000000,20,0.1191134974,,,
161.7500000000,20,0.1216750965,,,
162.0000000000,20,0.1178328022,,,
162.2500000000,20,0.1191134974,,,
162.5000000000,20,0.1203942969,,,
162.7500000000,20,0.1165520027,,,
163.0000000000,20,0.1203942969,,,
163.2500000000,20,0.1191134974,,,
163.5000000000,20,0.1191134974,,,
163.7500000000,20,0.1178328022,,,
164.0000000000,20,0.1191134974,,,
164.2500000000,20,0.1165520027,,,
164.5000000000,20,0.1203942969,,,
164.7500000000,20,0.1203942969,,,
165.0000000000,20,0.1165520027,,,
165.2500000000,20,0.1191134974,,,
165.5000000000,20,0.1139904037,,,
165.7500000000,20,0.1165520027,,,
166.0000000000,20,0.1127095968,,,
166.2500000000,20,0.1178328022,,,
166.5000000000,20,0.1139904037,,,
166.7500000000,20,0.1165520027,,,
167.0000000000,20,0.1127095968,,,
167.2500000000,20,0.1165520027,,,
167.5000000000,20,0.1139904037,,,
167.7500000000,20,0.1139904037,,,
168.0000000000,21,0.1178328022,,,
168.2500000000,21,0.1114287972,,,
168.5000000000,21,0.1152712032,,,
168.7500000000,21,0.1139904037,,,
169.0000000000,21,0.1152712032,,,
169.2500000000,21,0.1127095968,,,
169.5000000000,21,0.1165520027,,,
169.7500000000,21,0.1152712032,,,
170.0000000000,21,0.1127095968,,,
170.2500000000,21,0.1152712032,,,
170.5000000000,21,0.1114287972,,,
170.7500000000,21,0.1152712032,,,
171.0000000000,21,0.1101479977,,,
171.2500000000,21,0.1139904037,,,
171.5000000000,21,0.1114287972,,,
171.7500000000,21,0.1152712032,,,
172.0000000000,21,0.1114287972,,,
172.2500000000,21,0.1114287972,,,
172.5000000000,21,0.1152712032,,,
172.7500000000,21,0.1127095968,,,
173.0000000000,21,0.1152712032,,,
173.2500000000,21,0.1114287972,,,
173.5000000000,21,0.1152712032,,,
173.7500000000,21,0.1075863987,,,
174.0000000000,21,0.1127095968,,,
174.2500000000,21,0.1114287972,,,
174.5000000000,21,0.1114287972,,,
174.7500000000,21,0.1152712032,,,
175.0000000000,21,0.1114287972,,,
175.2500000000,21,0.1139904037,,,
175.5000000000,21,0.1101479977,,,
175.7500000000,21,0.1139904037,,,
176.0000000000,22,0.1101479977,,,
176.2500000000,22,0.1152712032,,,
176.5000000000,22,0.1088671982,,,
176.7500000000,22,0.1114287972,,,
177.0000000000,22,0.1344829947,,,
177.2500000000,22,0.1293599010,,,
177.5000000000,22,0.1319215000,,,
177.7500000000,22,0.1293599010,,,
178.0000000000,22,0.1319215000,,,
178.2500000000,22,0.1280791014,,,
178.5000000000,22,0.1319215000,,,
178.7500000000,22,0.1306407005,,,
179.0000000000,22,0.1280791014,,,
179.2500000000,22,0.1280791014,,,
179.5000000000,22,0.1280791014,,,
179.7500000000,22,0.1319215000,,,
180.0000000000,22,0.1280791014,,,
180.2500000000,22,0.1306407005,,,
180.5000000000,22,0.1280791014,,,
180.7500000000,22,0.1280791014,,,
181.0000000000,22,0.1255175024,,,
181.2500000000,22,0.1267983019,,,
181.5000000000,22,0.1280791014,,,
181.7500000000,22,0.1229559034,,,
182.0000000000,22,0.1242367029,,,
182.2500000000,22,0.1216750965,,,
182.5000000000,22,0.1255175024,,,
182.7500000000,22,0.1203942969,,,
183.0000000000,22,0.1229559034,,,
183.2500000000,22,0.1191134974,,,
183.5000000000,22,0.1216750965,,,
183.7500000000,22,0.1178328022,,,
184.0000000000,23,0.1178328022,,,
184.2500000000,23,0.1203942969,,,
184.5000000000,23,0.1165520027,,,
184.7500000000,23,0.1165520027,,,
185.0000000000,23,0.1178328022,,,
185.2500000000,23,0.1191134974,,,
185.5000000000,23,0.1165520027,,,
185.7500000000,23,0.1178328022,,,
186.0000000000,23,0.1165520027,,,
186.2500000000,23,0.1191134974,,,
186.5000000000,23,0.1152712032,,,
186.7500000000,23,0.1178328022,,,
187.0000000000,23,0.1178328022,,,
187.2500000000,23,0.1152712032,,,
187.5000000000,23,0.1152712032,,,
187.7500000000,23,0.1152712032,,,
188.0000000000,23,0.1152712032,,,
188.2500000000,23,0.1139904037,,,
188.5000000000,23,0.1165520027,,,
188.7500000000,23,0.1139904037,,,
189.0000000000,23,0.1165520027,,,
189.2500000000,23,0.1127095968,,,
189.5000000000,23,0.1152712032,,,
189.7500000000,23,0.1165520027,,,
190.0000000000,23,0.1127095968,,,
190.2500000000,23,0.1127095968,,,
190.5000000000,23,0.1114287972,,,
190.7500000000,23,0.1152712032,,,
191.0000000000,23,0.1114287972,,,
191.2500000000,23,0.1127095968,,,
191.5000000000,23,0.1114287972,,,
191.7500000000,23,0.1127095968,,,
192.0000000000,24,0.1101479977,,,
192.2500000000,24,0.1127095968,,,
192.5000000000,24,0.1127095968,,,
192.7500000000,24,0.1114287972,,,
193.0000000000,24,0.1127095968,,,
193.2500000000,24,0.1139904037,,,
193.5000000000,24,0.1152712032,,,
193.7500000000,24,0.1114287972,,,
194.0000000000,24,0.1165520027,,,
194.2500000000,24,0.1114287972,,,
194.5000000000,24,0.1152712032,,,
194.7500000000,24,0.1114287972,,,
195.0000000000,24,0.1152712032,,,
195.2500000000,24,0.1114287972,,,
195.5000000000,24,0.1139904037,,,
195.7500000000,24,0.1088671982,,,
196.0000000000,24,0.1114287972,,,
196.2500000000,24,0.1139904037,,,
196.5000000000,24,0.1114287972,,,
196.7500000000,24,0.1139904037,,,
197.0000000000,24,0.1127095968,,,
197.2500000000,24,0.1127095968,,,
197.5000000000,24,0.1101479977,,,
197.7500000000,24,0.1139904037,,,
198.0000000000,24,0.1114287972,,,
198.2500000000,24,0.1139904037,,,
198.5000000000,24,0.1075863987,,,
198.7500000000,24,0.1139904037,,,
199.0000000000,24,0.1127095968,,,
199.2500000000,24,0.1127095968,,,
199.5000000000,24,0.1152712032,,,
199.7500000000,24,0.1127095968,,,
200.0000000000,25,0.1165520027,,,
200.2500000000,25,0.1127095968,,,
200.5000000000,25,0.1152712032,,,
200.7500000000,25,0.1152712032,,,
201.0000000000,25,0.1165520027,,,
201.2500000000,25,0.1114287972,,,
201.5000000000,25,0.1165520027,,,
201.7500000000,25,0.1139904037,,,
202.0000000000,25,0.1152712032,,,
202.2500000000,25,0.1114287972,,,
202.5000000000,25,0.1139904037,,,
202.7500000000,25,0.1114287972,,,
203.0000000000,25,0.1127095968,,,
203.2500000000,25,0.1319215000,,,
203.5000000000,25,0.1127095968,,,
203.7500000000,25,0.1152712032,,,
204.0000000000,25,0.1101479977,,,
204.2500000000,25,0.1152712032,,,
204.5000000000,25,0.1127095968,,,
204.7500000000,25,0.1139904037,,,
205.0000000000,25,0.1114287972,,,
205.2500000000,25,0.1139904037,,,
205.5000000000,25,0.1114287972,,,
205.7500000000,25,0.1152712032,,,
206.0000000000,25,0.1101479977,,,
206.2500000000,25,0.1139904037,,,
206.5000000000,25,0.1101479977,,,
206.7500000000,25,0.1088671982,,,
207.0000000000,25,0.1139904037,,,
207.2500000000,25,0.1088671982,,,
207.5000000000,25,0.1139904037,,,
207.7500000000,25,0.1101479977,,,
208.0000000000,26,0.1139904037,,,
208.2500000000,26,0.1101479977,,,
208.5000000000,26,0.1139904037,,,
208.7500000000,26,0.1101479977,,,
209.0000000000,26,0.1127095968,,,
209.2500000000,26,0.1101479977,,,
209.5000000000,26,0.1088671982,,,
209.7500000000,26,0.1139904037,,,
210.0000000000,26,0.1101479977,,,
210.2500000000,26,0.1127095968,,,
210.5000000000,26,0.1088671982,,,
210.7500000000,26,0.1101479977,,,
211.0000000000,26,0.1101479977,,,
211.2500000000,26,0.1127095968,,,
211.5000000000,26,0.1088671982,,,
211.7500000000,26,0.1127095968,,,
212.0000000000,26,0.1088671982,,,
212.2500000000,26,0.1114287972,,,
212.5000000000,26,0.1101479977,,,
212.7500000000,26,0.1075863987,,,
213.0000000000,26,0.1127095968,,,
213.2500000000,26,0.1101479977,,,
213.5000000000,26,0.1114287972,,,
213.7500000000,26,0.1088671982,,,
214.0000000000,26,0.1127095968,,,
214.2500000000,26,0.1101479977,,,
214.5000000000,26,0.1139904037,,,
214.7500000000,26,0.1088671982,,,
215.0000000000,26,0.1075863987,,,
215.2500000000,26,0.1127095968,,,
215.5000000000,26,0.1114287972,,,
215.7500000000,26,0.1101479977,,,
216.0000000000,27,0.1088671982,,,
216.2500000000,27,0.1114287972,,,
216.5000000000,27,0.1088671982,,,
216.7500000000,27,0.1127095968,,,
217.0000000000,27,0.1101479977,,,
217.2500000000,27,0.1101479977,,,
217.5000000000,27,0.1114287972,,,
217.7500000000,27,0.1075863987,,,
218.0000000000,27,0.1127095968,,,
218.2500000000,27,0.1088671982,,,
218.5000000000,27,0.1127095968,,,
218.7500000000,27,0.1088671982,,,
219.0000000000,27,0.1127095968,,,
219.2500000000,27,0.1088671982,,,
219.5000000000,27,0.1101479977,,,
219.7500000000,27,0.1127095968,,,
220.0000000000,27,0.1101479977,,,
220.2500000000,27,0.1114287972,,,
220.5000000000,27,0.1075863987,,,
220.7500000000,27,0.1127095968,,,
221.0000000000,27,0.1101479977,,,
221.2500000000,27,0.1127095968,,,
221.5000000000,27,0.1101479977,,,
221.7500000000,27,0.1101479977,,,
222.0000000000,27,0.1127095968,,,
222.2500000000,27,0.1101479977,,,
222.5000000000,27,0.1127095968,,,
222.7500000000,27,0.1101479977,,,
223.0000000000,27,0.1127095968,,,
223.2500000000,27,0.1063055992,,,
223.5000000000,27,0.1101479977,,,
223.7500000000,27,0.1114287972,,,
224.0000000000,28,0.1101479977,,,
224.2500000000,28,0.1114287972,,,
224.5000000000,28,0.1101479977,,,
224.7500000000,28,0.1127095968,,,
225.0000000000,28,0.1101479977,,,
225.2500000000,28,0.1127095968,,,
225.5000000000,28,0.1088671982,,,
225.7500000000,28,0.1101479977,,,
226.0000000000,28,0.1127095968,,,
226.2500000000,28,0.1114287972,,,
226.5000000000,28,0.1127095968,,,
226.7500000000,28,0.1088671982,,,
227.0000000000,28,0.1127095968,,,
227.2500000000,28,0.1088671982,,,
227.5000000000,28,0.1101479977,,,
227.7500000000,28,0.1127095968,,,
228.0000000000,28,0.1101479977,,,
228.2500000000,28,0.1114287972,,,
228.5000000000,28,0.1088671982,,,
228.7500000000,28,0.1075863987,,,
229.0000000000,28,0.1088671982,,,
229.2500000000,28,0.1088671982,,,
229.5000000000,28,0.1114287972,,,
229.7500000000,28,0.1088671982,,,
230.0000000000,28,0.1114287972,,,
230.2500000000,28,0.1088671982,,,
230.5000000000,28,0.1127095968,,,
230.7500000000,28,0.1088671982,,,
231.0000000000,28,0.1114287972,,,
231.2500000000,28,0.1127095968,,,
231.5000000000,28,0.1075863987,,,
231.7500000000,28,0.1127095968,,,
232.0000000000,29,0.1088671982,,,
232.2500000000,29,0.1114287972,,,
232.5000000000,29,0.1101479977,,,
232.7500000000,29,0.1114287972,,,
233.0000000000,29,0.1088671982,,,
233.2500000000,29,0.1127095968,,,
233.5000000000,29,0.1088671982,,,
233.7500000000,29,0.1101479977,,,
234.0000000000,29,0.1114287972,,,
234.2500000000,29,0.1075863987,,,
234.5000000000,29,0.1114287972,,,
234.7500000000,29,0.1101479977,,,
235.0000000000,29,0.1127095968,,,
235.2500000000,29,0.1101479977,,,
235.5000000000,29,0.1127095968,,,
235.7500000000,29,0.1101479977,,,
236.0000000000,29,0.1114287972,,,
236.2500000000,29,0.1088671982,,,
236.5000000000,29,0.1101479977,,,
236.7500000000,29,0.1127095968,,,
237.0000000000,29,0.1063055992,,,
237.2500000000,29,0.1127095968,,,
237.5000000000,29,0.1101479977,,,
237.7500000000,29,0.1127095968,,,
238.0000000000,29,0.1101479977,,,
238.2500000000,29,0.1127095968,,,
238.5000000000,29,0.1101479977,,,
238.7500000000,29,0.1114287972,,,
239.0000000000,29,0.1088671982,,,
239.2500000000,29,0.1101479977,,,
239.5000000000,29,0.1127095968,,,
239.7500000000,29,0.1075863987,,,
240.0000000000,30,0.1088671982,,,
240.2500000000,30,0.1101479977,,,
240.5000000000,30,0.1127095968,,,
240.7500000000,30,0.1101479977,,,
241.0000000000,30,0.1114287972,,,
241.2500000000,30,0.1088671982,,,
241.5000000000,30,0.1101479977,,,
241.7500000000,30,0.1139904037,,,
242.0000000000,30,0.1101479977,,,
242.2500000000,30,0.1127095968,,,
242.5000000000,30,0.1088671982,,,
242.7500000000,30,0.1114287972,,,
243.0000000000,30,0.1101479977,,,
243.2500000000,30,0.1127095968,,,
243.5000000000,30,0.1101479977,,,
243.7500000000,30,0.1127095968,,,
244.0000000000,30,0.1101479977,,,
244.2500000000,30,0.1101479977,,,
244.5000000000,30,0.1127095968,,,
244.7500000000,30,0.1101479977,,,
245.0000000000,30,0.1127095968,,,
245.2500000000,30,0.1075863987,,,
245.5000000000,30,0.1127095968,,,
245.7500000000,30,0.1101479977,,,
246.0000000000,30,0.1127095968,,,
246.2500000000,30,0.1101479977,,,
246.5000000000,30,0.1127095968,,,
246.7500000000,30,0.1088671982,,,
247.0000000000,30,0.1101479977,,,
247.2500000000,30,0.1139904037,,,
247.5000000000,30,0.1101479977,,,
247.7500000000,30,0.1127095968,,,
248.0000000000,31,0.1075863987,,,
248.2500000000,31,0.1127095968,,,
248.5000000000,31,0.1063055992,,,
248.7500000000,31,0.1127095968,,,
249.0000000000,31,0.1088671982,,,
249.2500000000,31,0.1139904037,,,
249.5000000000,31,0.1088671982,,,
249.7500000000,31,0.1088671982,,,
250.0000000000,31,0.1114287972,,,
250.2500000000,31,0.1101479977,,,
250.5000000000,31,0.1127095968,,,
250.7500000000,31,0.1101479977,,,
251.0000000000,31,0.1114287972,,,
251.2500000000,31,0.1075863987,,,
251.5000000000,31,0.1127095968,,,
251.7500000000,31,0.1088671982,,,
252.0000000000,31,0.1114287972,,,
252.2500000000,31,0.1088671982,,,
252.5000000000,31,0.1101479977,,,
252.7500000000,31,0.1127095968,,,
253.0000000000,31,0.1101479977,,,
253.2500000000,31,0.1114287972,,,
253.5000000000,31,0.1075863987,,,
253.7500000000,31,0.1114287972,,,
254.0000000000,31,0.1088671982,,,
254.2500000000,31,0.1101479977,,,
254.5000000000,31,0.1127095968,,,
254.7500000000,31,0.1101479977,,,
255.0000000000,31,0.1114287972,,,
255.2500000000,31,0.1114287972,,,
255.5000000000,31,0.1114287972,,,
255.7500000000,31,0.1088671982,,,
256.0000000000,32,0.1127095968,,,
256.2500000000,32,0.1050247997,,,
256.5000000000,32,0.1114287972,,,
256.7500000000,32,0.1088671982,,,
257.0000000000,32,0.1127095968,,,
257.2500000000,32,0.1088671982,,,
257.5000000000,32,0.1101479977,,,
257.7500000000,32,0.1139904037,,,
258.0000000000,32,0.1101479977,,,
258.2500000000,32,0.1127095968,,,
258.5000000000,32,0.1101479977,,,
258.7500000000,32,0.1088671982,,,
259.0000000000,32,0.1088671982,,,
259.2500000000,32,0.1127095968,,,
259.5000000000,32,0.1088671982,,,
259.7500000000,32,0.1127095968,,,
260.0000000000,32,0.1088671982,,,
260.2500000000,32,0.1139904037,,,
260.5000000000,32,0.1088671982,,,
260.7500000000,32,0.1101479977,,,
261.0000000000,32,0.1114287972,,,
261.2500000000,32,0.1101479977,,,
261.5000000000,32,0.1114287972,,,
261.7500000000,32,0.1050247997,,,
262.0000000000,32,0.1127095968,,,
262.2500000000,32,0.1101479977,,,
262.5000000000,32,0.1127095968,,,
262.7500000000,32,0.1088671982,,,
263.0000000000,32,0.1127095968,,,
263.2500000000,32,0.1088671982,,,
263.5000000000,32,0.1101479977,,,
263.7500000000,32,0.1127095968,,,
264.0000000000,33,0.1101479977,,,
264.2500000000,33,0.1127095968,,,
264.5000000000,33,0.1075863987,,,
264.7500000000,33,0.1114287972,,,
265.0000000000,33,0.1114287972,,,
265.2500000000,33,0.1114287972,,,
265.5000000000,33,0.1088671982,,,
265.7500000000,33,0.1139904037,,,
266.0000000000,33,0.1088671982,,,
266.2500000000,33,0.1101479977,,,
266.5000000000,33,0.1127095968,,,
266.7500000000,33,0.1101479977,,,
267.0000000000,33,0.1139904037,,,
267.2500000000,33,0.1075863987,,,
267.5000000000,33,0.1088671982,,,
267.7500000000,33,0.1101479977,,,
268.0000000000,33,0.1127095968,,,
268.2500000000,33,0.1101479977,,,
268.5000000000,33,0.1127095968,,,
268.7500000000,33,0.1101479977,,,
269.0000000000,33,0.1114287972,,,
269.2500000000,33,0.1101479977,,,
269.5000000000,33,0.1101479977,,,
269.7500000000,33,0.1127095968,,,
270.0000000000,33,0.1075863987,,,
270.2500000000,33,0.1127095968,,,
270.5000000000,33,0.1101479977,,,
270.7500000000,33,0.1114287972,,,
271.0000000000,33,0.1101479977,,,
271.2500000000,33,0.1127095968,,,
271.5000000000,33,0.1101479977,,,
271.7500000000,33,0.1139904037,,,
