Time:4Hz,Epoch,Channel 1,Event Id,Event Date,Event Duration
0.0000000000,0,0.0832513869,,,
0.2500000000,0,0.0794090182,,,
0.5000000000,0,0.0832513869,,,
0.7500000000,0,0.0806898102,,,
1.0000000000,0,0.0819706023,,,
1.2500000000,0,0.0858129710,,,
1.5000000000,0,0.0832513869,,,
1.7500000000,0,0.0832513869,,,
2.0000000000,0,0.0819706023,,,
2.2500000000,0,0.0858129710,,,
2.5000000000,0,0.0819706023,,,
2.7500000000,0,0.0832513869,,,
3.0000000000,0,0.0806898102,,,
3.2500000000,0,0.0858129710,,,
3.5000000000,0,0.0832513869,,,
3.7500000000,0,0.0870937631,,,
4.0000000000,0,0.0845321789,,,
4.2500000000,0,0.0870937631,,,
4.5000000000,0,0.0832513869,,,
4.7500000000,0,0.0870937631,,,
5.0000000000,0,0.0832513869,,,
5.2500000000,0,0.0845321789,,,
5.5000000000,0,0.0858129710,,,
5.7500000000,0,0.0819706023,,,
6.0000000000,0,0.0883745626,,,
6.2500000000,0,0.0845321789,,,
6.5000000000,0,0.0858129710,,,
6.7500000000,0,0.0845321789,,,
7.0000000000,0,0.0883745626,,,
7.2500000000,0,0.0858129710,,,
7.5000000000,0,0.0883745626,,,
7.7500000000,0,0.0845321789,,,
8.0000000000,1,0.0870937631,,,
8.2500000000,1,0.0845321789,,,
8.5000000000,1,0.0870937631,,,
8.7500000000,1,0.0858129710,,,
9.0000000000,1,0.0870937631,,,
9.2500000000,1,0.0870937631,,,
9.5000000000,1,0.0858129710,,,
9.7500000000,1,0.0883745626,,,
10.0000000000,1,0.0858129710,,,
10.2500000000,1,0.0883745626,,,
10.5000000000,1,0.0858129710,,,
10.7500000000,1,0.0896553472,,,
11.0000000000,1,0.0870937631,,,
11.2500000000,1,0.0870937631,,,
11.5000000000,1,0.0858129710,,,
11.7500000000,1,0.0870937631,,,
12.0000000000,1,0.0858129710,,,
12.2500000000,1,0.0858129710,,,
12.5000000000,1,0.0883745626,,,
12.7500000000,1,0.0858129710,,,
13.0000000000,1,0.0909361392,,,
13.2500000000,1,0.0870937631,,,
13.5000000000,1,0.0909361392,,,
13.7500000000,1,0.0870937631,,,
14.0000000000,1,0.0858129710,,,
14.2500000000,1,0.0870937631,,,
14.5000000000,1,0.0909361392,,,
14.7500000000,1,0.0858129710,,,
15.0000000000,1,0.0883745626,,,
15.2500000000,1,0.0883745626,,,
15.5000000000,1,0.0870937631,,,
15.7500000000,1,0.0883745626,,,
16.0000000000,2,0.0858129710,,,
16.2500000000,2,0.0896553472,,,
16.5000000000,2,0.0870937631,,,
16.7500000000,2,0.0858129710,,,
17.0000000000,2,0.0870937631,,,
17.2500000000,2,0.0909361392,,,
17.5000000000,2,0.0870937631,,,
17.7500000000,2,0.0909361392,,,
18.0000000000,2,0.0870937631,,,
18.2500000000,2,0.0909361392,,,
18.5000000000,2,0.0870937631,,,
18.7500000000,2,0.0909361392,,,
19.0000000000,2,0.0909361392,,,
19.2500000000,2,0.0883745626,,,
19.5000000000,2,0.0870937631,,,
19.7500000000,2,0.0883745626,,,
20.0000000000,2,0.0909361392,,,
20.2500000000,2,0.0883745626,,,
20.5000000000,2,0.0909361392,,,
20.7500000000,2,0.0883745626,,,
21.0000000000,2,0.0922169313,,,
21.2500000000,2,0.0870937631,,,
21.5000000000,2,0.0922169313,,,
21.7500000000,2,0.0883745626,,,
22.0000000000,2,0.0896553472,,,
22.2500000000,2,0.0909361392,,,
22.5000000000,2,0.0896553472,,,
22.7500000000,2,0.0934977233,,,
23.0000000000,2,0.0896553472,,,
23.2500000000,2,0.0909361392,,,
23.5000000000,2,0.0896553472,,,
23.7500000000,2,0.0947785079,,,
24.0000000000,3,0.0922169313,,,
24.2500000000,3,0.0934977233,,,
24.5000000000,3,0.0909361392,,,
24.7500000000,3,0.0934977233,,,
25.0000000000,3,0.0883745626,,,
25.2500000000,3,0.0922169313,,,
25.5000000000,3,0.0934977233,,,
25.7500000000,3,0.0922169313,,,
26.0000000000,3,0.0960593000,,,
26.2500000000,3,0.0922169313,,,
26.5000000000,3,0.0934977233,,,
26.7500000000,3,0.0922169313,,,
27.0000000000,3,0.0960593000,,,
27.2500000000,3,0.0922169313,,,
27.5000000000,3,0.0947785079,,,
27.7500000000,3,0.0909361392,,,
28.0000000000,3,0.0934977233,,,
28.2500000000,3,0.0960593000,,,
28.5000000000,3,0.0934977233,,,
28.7500000000,3,0.0960593000,,,
29.0000000000,3,0.0934977233,,,
29.2500000000,3,0.0973400921,,,
29.5000000000,3,0.0934977233,,,
29.7500000000,3,0.0947785079,,,
30.0000000000,3,0.0934977233,,,
30.2500000000,3,0.0960593000,,,
30.5000000000,3,0.0909361392,,,
30.7500000000,3,0.0960593000,,,
31.0000000000,3,0.0934977233,,,
31.2500000000,3,0.0973400921,,,
31.5000000000,3,0.0934977233,,,
31.7500000000,3,0.0973400921,,,
32.0000000000,4,0.0934977233,,,
32.2500000000,4,0.0973400921,,,
32.5000000000,4,0.0934977233,,,
32.7500000000,4,0.0973400921,,,
33.0000000000,4,0.0947785079,,,
33.2500000000,4,0.0973400921,,,
33.5000000000,4,0.0934977233,,,
33.7500000000,4,0.0947785079,,,
34.0000000000,4,0.0973400921,,,
34.2500000000,4,0.0947785079,,,
34.5000000000,4,0.0973400921,,,
34.7500000000,4,0.0947785079,,,
35.0000000000,4,0.0973400921,,,
35.2500000000,4,0.0947785079,,,
35.5000000000,4,0.0973400921,,,
35.7500000000,4,0.0947785079,,,
36.0000000000,4,0.0947785079,,,
36.2500000000,4,0.0947785079,,,
36.5000000000,4,0.0999016836,,,
36.7500000000,4,0.0960593000,,,
37.0000000000,4,0.0999016836,,,
37.2500000000,4,0.0960593000,,,
37.5000000000,4,0.0999016836,,,
37.7500000000,4,0.0973400921,,,
38.0000000000,4,0.0973400921,,,
38.2500000000,4,0.0999016836,,,
38.5000000000,4,0.0960593000,,,
38.7500000000,4,0.0960593000,,,
39.0000000000,4,0.0973400921,,,
39.2500000000,4,0.0999016836,,,
39.5000000000,4,0.0973400921,,,
39.7500000000,4,0.0999016836,,,
40.0000000000,5,0.0973400921,,,
40.2500000000,5,0.1011824980,,,
40.5000000000,5,0.0973400921,,,
40.7500000000,5,0.1011824980,,,
41.0000000000,5,0.0973400921,,,
41.2500000000,5,0.1011824980,,,
41.5000000000,5,0.0934977233,,,
41.7500000000,5,0.1011824980,,,
42.0000000000,5,0.0986208767,,,
42.2500000000,5,0.0986208767,,,
42.5000000000,5,0.0999016836,,,
42.7500000000,5,0.0960593000,,,
43.0000000000,5,0.0999016836,,,
43.2500000000,5,0.0973400921,,,
43.5000000000,5,0.1203942969,,,
43.7500000000,5,0.0986208767,,,
44.0000000000,5,0.1011824980,,,
44.2500000000,5,0.0960593000,,,
44.5000000000,5,0.0999016836,,,
44.7500000000,5,0.0973400921,,,
45.0000000000,5,0.0999016836,,,
45.2500000000,5,0.0973400921,,,
45.5000000000,5,0.1011824980,,,
45.7500000000,5,0.0986208767,,,
46.0000000000,5,0.1011824980,,,
46.2500000000,5,0.0999016836,,,
46.5000000000,5,0.1011824980,,,
46.7500000000,5,0.0973400921,,,
47.0000000000,5,0.0999016836,,,
47.2500000000,5,0.0999016836,,,
47.5000000000,5,0.0999016836,,,
47.7500000000,5,0.0973400921,,,
48.0000000000,6,0.0986208767,,,
48.2500000000,6,0.1011824980,,,
48.5000000000,6,0.0986208767,,,
48.7500000000,6,0.1024632975,,,
49.0000000000,6,0.1011824980,,,
49.2500000000,6,0.1011824980,,,
49.5000000000,6,0.0986208767,,,
49.7500000000,6,0.0999016836,,,
50.0000000000,6,0.0986208767,,,
50.2500000000,6,0.1024632975,,,
50.5000000000,6,0.0986208767,,,
50.7500000000,6,0.1011824980,,,
51.0000000000,6,0.0973400921,,,
51.2500000000,6,0.0986208767,,,
51.5000000000,6,0.1011824980,,,
51.7500000000,6,0.0986208767,,,
52.0000000000,6,0.1024632975,,,
52.2500000000,6,0.0986208767,,,
52.5000000000,6,0.1011824980,,,
52.7500000000,6,0.0999016836,,,
53.0000000000,6,0.1037440971,,,
53.2500000000,6,0.0999016836,,,
53.5000000000,6,0.1024632975,,,
53.7500000000,6,0.1011824980,,,
54.0000000000,6,0.1075863987,,,
54.2500000000,6,0.1050247997,,,
54.5000000000,6,0.1088671982,,,
54.7500000000,6,0.1063055992,,,
55.0000000000,6,0.1063055992,,,
55.2500000000,6,0.1088671982,,,
55.5000000000,6,0.1075863987,,,
55.7500000000,6,0.1114287972,,,
56.0000000000,7,0.1063055992,,,
56.2500000000,7,0.1101479977,,,
56.5000000000,7,0.1063055992,,,
56.7500000000,7,0.1088671982,,,
57.0000000000,7,0.1063055992,,,
57.2500000000,7,0.1101479977,,,
57.5000000000,7,0.1075863987,,,
57.7500000000,7,0.1101479977,,,
58.0000000000,7,0.1050247997,,,
58.2500000000,7,0.1101479977,,,
58.5000000000,7,0.1050247997,,,
58.7500000000,7,0.1075863987,,,
59.0000000000,7,0.1088671982,,,
59.2500000000,7,0.1063055992,,,
59.5000000000,7,0.1101479977,,,
59.7500000000,7,0.1063055992,,,
60.0000000000,7,0.1088671982,,,
60.2500000000,7,0.1063055992,,,
60.5000000000,7,0.1101479977,,,
60.7500000000,7,0.1024632975,,,
61.0000000000,7,0.1088671982,,,
61.2500000000,7,0.1050247997,,,
61.5000000000,7,0.1101479977,,,
61.7500000000,7,0.1063055992,,,
62.0000000000,7,0.1101479977,,,
62.2500000000,7,0.1063055992,,,
62.5000000000,7,0.1075863987,,,
62.7500000000,7,0.1063055992,,,
63.0000000000,7,0.1063055992,,,
63.2500000000,7,0.1101479977,,,
63.5000000000,7,0.1024632975,,,
63.7500000000,7,0.1088671982,,,
64.0000000000,8,0.1063055992,,,
64.2500000000,8,0.1088671982,,,
64.5000000000,8,0.1063055992,,,
64.7500000000,8,0.1088671982,,,
65.0000000000,8,0.1063055992,,,
65.2500000000,8,0.1075863987,,,
65.5000000000,8,0.1050247997,,,
65.7500000000,8,0.1075863987,,,
66.0000000000,8,0.1050247997,,,
66.2500000000,8,0.1088671982,,,
66.5000000000,8,0.1050247997,,,
66.7500000000,8,0.1088671982,,,
67.0000000000,8,0.1037440971,,,
67.2500000000,8,0.1037440971,,,
67.5000000000,8,0.1063055992,,,
67.7500000000,8,0.1063055992,,,
68.0000000000,8,0.1063055992,,,
68.2500000000,8,0.1037440971,,,
68.5000000000,8,0.1063055992,,,
68.7500000000,8,0.1050247997,,,
69.0000000000,8,0.1037440971,,,
69.2500000000,8,0.1024632975,,,
69.5000000000,8,0.1063055992,,,
69.7500000000,8,0.1063055992,,,
70.0000000000,8,0.1024632975,,,
70.2500000000,8,0.1037440971,,,
70.5000000000,8,0.1024632975,,,
70.7500000000,8,0.1050247997,,,
71.0000000000,8,0.1024632975,,,
71.2500000000,8,0.1063055992,,,
71.5000000000,8,0.1024632975,,,
71.7500000000,8,0.1063055992,,,
72.0000000000,9,0.1088671982,,,
72.2500000000,9,0.1165520027,,,
72.5000000000,9,0.1152712032,,,
72.7500000000,9,0.1216750965,,,
73.0000000000,9,0.1191134974,,,
73.2500000000,9,0.1242367029,,,
73.5000000000,9,0.1216750965,,,
73.7500000000,9,0.1229559034,,,
74.0000000000,9,0.1267983019,,,
74.2500000000,9,0.1242367029,,,
74.5000000000,9,0.1242367029,,,
74.7500000000,9,0.1267983019,,,
75.0000000000,9,0.1306407005,,,
75.2500000000,9,0.1267983019,,,
75.5000000000,9,0.1242367029,,,
75.7500000000,9,0.1242367029,,,
76.0000000000,9,0.1267983019,,,
76.2500000000,9,0.1242367029,,,
76.5000000000,9,0.1267983019,,,
76.7500000000,9,0.1242367029,,,
77.0000000000,9,0.1280791014,,,
77.2500000000,9,0.1216750965,,,
77.5000000000,9,0.1267983019,,,
77.7500000000,9,0.1242367029,,,
78.0000000000,9,0.1242367029,,,
78.2500000000,9,0.1280791014,,,
78.5000000000,9,0.1242367029,,,
78.7500000000,9,0.1267983019,,,
79.0000000000,9,0.1242367029,,,
79.2500000000,9,0.1267983019,,,
79.5000000000,9,0.1242367029,,,
79.7500000000,9,0.1255175024,,,
80.0000000000,10,0.1203942969,,,
80.2500000000,10,0.1267983019,,,
80.5000000000,10,0.1229559034,,,
80.7500000000,10,0.1267983019,,,
81.0000000000,10,0.1229559034,,,
81.2500000000,10,0.1267983019,,,
81.5000000000,10,0.1216750965,,,
81.7500000000,10,0.1203942969,,,
82.0000000000,10,0.1267983019,,,
82.2500000000,10,0.1229559034,,,
82.5000000000,10,0.1242367029,,,
82.7500000000,10,0.1178328022,,,
83.0000000000,10,0.1242367029,,,
83.2500000000,10,0.1191134974,,,
83.5000000000,10,0.1255175024,,,
83.7500000000,10,0.1216750965,,,
84.0000000000,10,0.1242367029,,,
84.2500000000,10,0.1216750965,,,
84.5000000000,10,0.1242367029,,,
84.7500000000,10,0.1216750965,,,
85.0000000000,10,0.1242367029,,,
85.2500000000,10,0.1216750965,,,
85.5000000000,10,0.1242367029,,,
85.7500000000,10,0.1216750965,,,
86.0000000000,10,0.1216750965,,,
86.2500000000,10,0.1242367029,,,
86.5000000000,10,0.1216750965,,,
86.7500000000,10,0.1255175024,,,
87.0000000000,10,0.1216750965,,,
87.2500000000,10,0.1242367029,,,
87.5000000000,10,0.1203942969,,,
87.7500000000,10,0.1242367029,,,
88.0000000000,11,0.1203942969,,,
88.2500000000,11,0.1229559034,,,
88.5000000000,11,0.1203942969,,,
88.7500000000,11,0.1191134974,,,
89.0000000000,11,0.1191134974,,,
89.2500000000,11,0.1216750965,,,
89.5000000000,11,0.1191134974,,,
89.7500000000,11,0.1191134974,,,
90.0000000000,11,0.1216750965,,,
90.2500000000,11,0.1178328022,,,
90.5000000000,11,0.1203942969,,,
90.7500000000,11,0.1178328022,,,
91.0000000000,11,0.1178328022,,,
91.2500000000,11,0.1178328022,,,
91.5000000000,11,0.1203942969,,,
91.7500000000,11,0.1178328022,,,
92.0000000000,11,0.1191134974,,,
92.2500000000,11,0.1165520027,,,
92.5000000000,11,0.1191134974,,,
92.7500000000,11,0.1165520027,,,
93.0000000000,11,0.1178328022,,,
93.2500000000,11,0.1203942969,,,
93.5000000000,11,0.1165520027,,,
93.7500000000,11,0.1178328022,,,
94.0000000000,11,0.1165520027,,,
94.2500000000,11,0.1191134974,,,
94.5000000000,11,0.1152712032,,,
94.7500000000,11,0.1178328022,,,
95.0000000000,11,0.1152712032,,,
95.2500000000,11,0.1178328022,,,
95.5000000000,11,0.1139904037,,,
95.7500000000,11,0.1178328022,,,
96.0000000000,12,0.1152712032,,,
96.2500000000,12,0.1165520027,,,
96.5000000000,12,0.1114287972,,,
96.7500000000,12,0.1152712032,,,
97.0000000000,12,0.1127095968,,,
97.2500000000,12,0.1165520027,,,
97.5000000000,12,0.1127095968,,,
97.7500000000,12,0.1127095968,,,
98.0000000000,12,0.1139904037,,,
98.2500000000,12,0.1127095968,,,
98.5000000000,12,0.1139904037,,,
98.7500000000,12,0.1139904037,,,
99.0000000000,12,0.1114287972,,,
99.2500000000,12,0.1088671982,,,
99.5000000000,12,0.1139904037,,,
99.7500000000,12,0.1088671982,,,
100.0000000000,12,0.1127095968,,,
100.2500000000,12,0.1101479977,,,
100.5000000000,12,0.1114287972,,,
100.7500000000,12,0.1088671982,,,
101.0000000000,12,0.1114287972,,,
101.2500000000,12,0.1127095968,,,
101.5000000000,12,0.1101479977,,,
101.7500000000,12,0.1139904037,,,
102.0000000000,12,0.1063055992,,,
102.2500000000,12,0.1127095968,,,
102.5000000000,12,0.1101479977,,,
102.7500000000,12,0.1139904037,,,
103.0000000000,12,0.1139904037,,,
103.2500000000,12,0.1178328022,,,
103.5000000000,12,0.1216750965,,,
103.7500000000,12,0.1293599010,,,
104.0000000000,13,0.1306407005,,,
104.2500000000,13,0.1357637942,,,
104.5000000000,13,0.1332021952,,,
104.7500000000,13,0.1357637942,,,
105.0000000000,13,0.1344829947,,,
105.2500000000,13,0.1383253932,,,
105.5000000000,13,0.1344829947,,,
105.7500000000,13,0.1370445937,,,
106.0000000000,13,0.1383253932,,,
106.2500000000,13,0.1357637942,,,
106.5000000000,13,0.1370445937,,,
106.7500000000,13,0.1344829947,,,
107.0000000000,13,0.1383253932,,,
107.2500000000,13,0.1357637942,,,
107.5000000000,13,0.1357637942,33025,107.5937500000,0.0000000000
107.7500000000,13,0.1344829947,33024:33025,107.8125000000:107.9687500000,0.0000000000:0.0000000000
108.0000000000,13,0.1370445937,33024,108.1875000000,0.0000000000
108.2500000000,13,0.1344829947,,,
108.5000000000,13,0.1357637942,,,
108.7500000000,13,0.1332021952,,,
109.0000000000,13,0.1357637942,,,
109.2500000000,13,0.1332021952,,,
109.5000000000,13,0.1370445937,,,
109.7500000000,13,0.1370445937,,,
110.0000000000,13,0.1434486061,,,
110.2500000000,13,0.1472909003,,,
110.5000000000,13,0.1652220041,,,
110.7500000000,13,0.1639412045,,,
111.0000000000,13,0.1665028036,,,
111.2500000000,13,0.1613796949,,,
111.5000000000,13,0.1626604050,,,
111.7500000000,13,0.1600988954,,,
112.0000000000,14,0.1665028036,,,
112.2500000000,14,0.1613796949,,,
112.5000000000,14,0.1626604050,,,
112.7500000000,14,0.1575372964,,,
113.0000000000,14,0.1575372964,,,
113.2500000000,14,0.1549756974,,,
113.5000000000,14,0.1588180959,,,
113.7500000000,14,0.1549756974,,,
114.0000000000,14,0.1600988954,,,
114.2500000000,14,0.1562564969,,,
114.5000000000,14,0.1600988954,,,
114.7500000000,14,0.1600988954,,,
115.0000000000,14,0.1600988954,,,
115.2500000000,14,0.1588180959,,,
115.5000000000,14,0.1600988954,,,
115.7500000000,14,0.1600988954,,,
116.0000000000,14,0.1600988954,,,
116.2500000000,14,0.1626604050,,,
116.5000000000,14,0.1613796949,,,
116.7500000000,14,0.1626604050,,,
117.0000000000,14,0.1600988954,,,
117.2500000000,14,0.1626604050,,,
117.5000000000,14,0.1600988954,,,
117.7500000000,14,0.1626604050,,,
118.0000000000,14,0.1639412045,,,
118.2500000000,14,0.1741876006,,,
118.5000000000,14,0.1741876006,,,
118.7500000000,14,0.1818722934,,,
119.0000000000,14,0.1895571053,,,
119.2500000000,14,0.1895571053,,,
119.5000000000,14,0.1895571053,,,
119.7500000000,14,0.2062073052,,,
120.0000000000,15,0.2036457956,,,
120.2500000000,15,0.2138921022,,,
120.5000000000,15,0.2292616069,,,
120.7500000000,15,0.2074881047,,,
121.0000000000,15,0.1998033971,,,
121.2500000000,15,0.1998033971,,,
121.5000000000,15,0.2087689042,,,
121.7500000000,15,0.2305424064,,,
122.0000000000,15,0.2728084922,,,
122.2500000000,15,0.2843356133,,,
122.5000000000,15,0.2792123854,,,
122.7500000000,15,0.2753700912,,,
123.0000000000,15,0.2715277076,,,
123.2500000000,15,0.2715277076,,,
123.5000000000,15,0.2638429105,,,
123.7500000000,15,0.2625621855,,,
124.0000000000,15,0.2561582029,,,
124.2500000000,15,0.2535966039,,,
124.5000000000,15,0.2510350049,,,
124.7500000000,15,0.2510350049,,,
125.0000000000,15,0.2535966039,,,
125.2500000000,15,0.2548773885,,,
125.5000000000,15,0.2561582029,,,
125.7500000000,15,0.2523157895,,,
126.0000000000,15,0.2535966039,,,
126.2500000000,15,0.2471926957,,,
126.5000000000,15,0.2471926957,,,
126.7500000000,15,0.2446310967,,,
127.0000000000,15,0.2523157895,,,
127.2500000000,15,0.2484734952,,,
127.5000000000,15,0.2574389875,,,
127.7500000000,15,0.2574389875,,,
128.0000000000,16,0.2638429105,,,
128.2500000000,16,0.2638429105,,,
128.5000000000,16,0.2676852942,,,
128.7500000000,16,0.2651238143,,,
129.0000000000,16,0.2638429105,,,
129.2500000000,16,0.2638429105,,,
129.5000000000,16,0.2612814009,,,
129.7500000000,16,0.2728084922,,,
130.0000000000,16,0.2728084922,,,
130.2500000000,16,0.2792123854,,,
130.5000000000,16,0.2792123854,,,
130.7500000000,16,0.2817740142,,,
131.0000000000,16,0.2792123854,,,
131.2500000000,16,0.2817740142,,,
131.5000000000,16,0.2753700912,,,
131.7500000000,16,0.2753700912,,,
132.0000000000,16,0.2715277076,,,
132.2500000000,16,0.2715277076,,,
132.5000000000,16,0.2702468932,,,
132.7500000000,16,0.2804931998,,,
133.0000000000,16,0.2933011055,,,
133.2500000000,16,0.2958627045,,,
133.5000000000,16,0.2971434891,,,
133.7500000000,16,0.3009859025,,,
134.0000000000,16,0.3022666872,,,
134.2500000000,16,0.2997050881,,,
134.5000000000,16,0.3073898852,,,
134.7500000000,16,0.3150745928,,,
135.0000000000,16,0.3317249119,,,
135.2500000000,16,0.3368481100,,,
135.5000000000,16,0.3381288052,,,
135.7500000000,16,0.3317249119,,,
136.0000000000,17,0.3266017139,,,
136.2500000000,17,0.3201977909,,,
136.5000000000,17,0.3137938082,,,
136.7500000000,17,0.3125129938,,,
137.0000000000,17,0.3099513948,,,
137.2500000000,17,0.3137938082,,,
137.5000000000,17,0.3150745928,,,
137.7500000000,17,0.3240401149,,,
138.0000000000,17,0.3278824985,,,
138.2500000000,17,0.3317249119,,,
138.5000000000,17,0.3330056965,,,
138.7500000000,17,0.3342865109,,,
139.0000000000,17,0.3317249119,,,
139.2500000000,17,0.3342865109,,,
139.5000000000,17,0.3342865109,,,
139.7500000000,17,0.3291633129,,,
140.0000000000,17,0.3317249119,,,
140.2500000000,17,0.3291633129,,,
140.5000000000,17,0.3355672956,,,
140.7500000000,17,0.3458136022,,,
141.0000000000,17,0.3573406935,,,
141.2500000000,17,0.3637447059,,,
141.5000000000,17,0.3663061857,,,
141.7500000000,17,0.3637447059,,,
142.0000000000,17,0.3650254905,,,
142.2500000000,17,0.3778333962,,,
142.5000000000,17,0.3714294136,,,
142.7500000000,17,0.3701485991,,,
143.0000000000,17,0.3624638915,,,
143.2500000000,17,0.3599022925,,,
143.5000000000,17,0.3547790945,,,
143.7500000000,17,0.3560599089,,,
144.0000000000,18,0.3522176147,,,
144.2500000000,18,0.3534983099,,,
144.5000000000,18,0.3509367108,,,
144.7500000000,18,0.3534983099,,,
145.0000000000,18,0.3483752012,,,
145.2500000000,18,0.3470943868,,,
145.5000000000,18,0.3470943868,,,
145.7500000000,18,0.3419711888,,,
146.0000000000,18,0.3406904042,,,
146.2500000000,18,0.3381288052,,,
146.5000000000,18,0.3368481100,,,
146.7500000000,18,0.3342865109,,,
147.0000000000,18,0.3355672956,,,
147.2500000000,18,0.3330056965,,,
147.5000000000,18,0.3330056965,,,
147.7500000000,18,0.3278824985,,,
148.0000000000,18,0.3304440975,,,
148.2500000000,18,0.3291633129,,,
148.5000000000,18,0.3253208995,,,
148.7500000000,18,0.3214784861,,,
149.0000000000,18,0.3201977909,,,
149.2500000000,18,0.3214784861,,,
149.5000000000,18,0.3189170063,,,
149.7500000000,18,0.3176361918,,,
150.0000000000,18,0.3176361918,,,
150.2500000000,18,0.3201977909,,,
150.5000000000,18,0.3150745928,,,
150.7500000000,18,0.3176361918,,,
151.0000000000,18,0.3125129938,,,
151.2500000000,18,0.3150745928,,,
151.5000000000,18,0.3099513948,,,
151.7500000000,18,0.3112322092,,,
152.0000000000,19,0.3163554072,,,
152.2500000000,19,0.3163554072,,,
152.5000000000,19,0.3227593899,,,
152.7500000000,19,0.3227593899,,,
153.0000000000,19,0.3278824985,,,
153.2500000000,19,0.3253208995,,,
153.5000000000,19,0.3266017139,,,
153.7500000000,19,0.3240401149,,,
154.0000000000,19,0.3266017139,,,
154.2500000000,19,0.3253208995,,,
154.5000000000,19,0.3368481100,,,
154.7500000000,19,0.3355672956,,,
155.0000000000,19,0.3368481100,,,
155.2500000000,19,0.3330056965,,,
155.5000000000,19,0.3342865109,,,
155.7500000000,19,0.3342865109,,,
156.0000000000,19,0.3317249119,,,
156.2500000000,19,0.3330056965,,,
156.5000000000,19,0.3291633129,,,
156.7500000000,19,0.3304440975,,,
157.0000000000,19,0.3240401149,,,
157.2500000000,19,0.3291633129,,,
157.5000000000,19,0.3266017139,,,
157.7500000000,19,0.3291633129,,,
158.0000000000,19,0.3266017139,,,
158.2500000000,19,0.3291633129,,,
158.5000000000,19,0.3278824985,,,
158.7500000000,19,0.3317249119,,,
159.0000000000,19,0.3278824985,,,
159.2500000000,19,0.3304440975,,,
159.5000000000,19,0.3253208995,,,
159.7500000000,19,0.3253208995,,,
160.0000000000,20,0.3240401149,,,
160.2500000000,20,0.3266017139,,,
160.5000000000,20,0.3227593899,,,
160.7500000000,20,0.3214784861,,,
161.0000000000,20,0.3227593899,,,
161.2500000000,20,0.3189170063,,,
161.5000000000,20,0.3201977909,,,
161.7500000000,20,0.3189170063,,,
162.0000000000,20,0.3240401149,,,
162.2500000000,20,0.3278824985,,,
162.5000000000,20,0.3406904042,,,
162.7500000000,20,0.3483752012,,,
163.0000000000,20,0.3599022925,,,
163.2500000000,20,0.3611831069,,,
163.5000000000,20,0.3675870001,,,
163.7500000000,20,0.3688678145,,,
164.0000000000,20,0.3816758096,,,
164.2500000000,20,0.3816758096,,,
164.5000000000,20,0.3944836855,,,
164.7500000000,20,0.4072915912,,,
165.0000000000,20,0.4252226055,,,
165.2500000000,20,0.4649271965,,,
165.5000000000,20,0.4764542878,,,
165.7500000000,20,0.4713310897,,,
166.0000000000,20,0.4649271965,,,
166.2500000000,20,0.4585232139,,,
166.5000000000,20,0.4457153082,,,
166.7500000000,20,0.4393113852,,,
167.0000000000,20,0.4329074025,,,
167.2500000000,20,0.4316265881,,,
167.5000000000,20,0.4265033901,,,
167.7500000000,20,0.4265033901,,,
168.0000000000,21,0.4213803113,,,
168.2500000000,21,0.4265033901,,,
168.5000000000,21,0.4329074025,,,
168.7500000000,21,0.4265033901,,,
169.0000000000,21,0.4175378978,,,
169.2500000000,21,0.4149762988,,,
169.5000000000,21,0.4085722864,,,
169.7500000000,21,0.4072915912,,,
170.0000000000,21,0.3996067941,,,
170.2500000000,21,0.3996067941,,,
170.5000000000,21,0.3944836855,,,
170.7500000000,21,0.3906413019,,,
171.0000000000,21,0.3919220865,,,
171.2500000000,21,0.3880797029,,,
171.5000000000,21,0.3880797029,,,
171.7500000000,21,0.3855181038,,,
172.0000000000,21,0.3867988884,,,
172.2500000000,21,0.3855181038,,,
172.5000000000,21,0.3855181038,,,
172.7500000000,21,0.3842372894,,,
173.0000000000,21,0.3867988884,,,
173.2500000000,21,0.3842372894,,,
173.5000000000,21,0.3842372894,,,
173.7500000000,21,0.3816758096,,,
174.0000000000,21,0.3842372894,,,
174.2500000000,21,0.3816758096,,,
174.5000000000,21,0.3816758096,,,
174.7500000000,21,0.3855181038,,,
175.0000000000,21,0.3842372894,,,
175.2500000000,21,0.3855181038,,,
175.5000000000,21,0.3829565048,,,
175.7500000000,21,0.3829565048,,,
176.0000000000,22,0.3791142106,,,
176.2500000000,22,0.3778333962,,,
176.5000000000,22,0.3752717972,,,
176.7500000000,22,0.3765526116,,,
177.0000000000,22,0.3727101982,,,
177.2500000000,22,0.3727101982,,,
177.5000000000,22,0.3688678145,,,
177.7500000000,22,0.3701485991,,,
178.0000000000,22,0.3675870001,,,
178.2500000000,22,0.3675870001,,,
178.5000000000,22,0.3650254905,,,
178.7500000000,22,0.3637447059,,,
179.0000000000,22,0.3650254905,,,
179.2500000000,22,0.3624638915,,,
179.5000000000,22,0.3637447059,,,
179.7500000000,22,0.3611831069,,,
180.0000000000,22,0.3637447059,,,
180.2500000000,22,0.3624638915,,,
180.5000000000,22,0.3637447059,,,
180.7500000000,22,0.3611831069,,,
181.0000000000,22,0.3637447059,,,
181.2500000000,22,0.3599022925,,,
181.5000000000,22,0.3624638915,,,
181.7500000000,22,0.3586215079,,,
182.0000000000,22,0.3611831069,,,
182.2500000000,22,0.3586215079,,,
182.5000000000,22,0.3637447059,,,
182.7500000000,22,0.3586215079,,,
183.0000000000,22,0.3611831069,,,
183.2500000000,22,0.3586215079,,,
183.5000000000,22,0.3560599089,,,
183.7500000000,22,0.3586215079,,,
184.0000000000,23,0.3547790945,,,
184.2500000000,23,0.3560599089,,,
184.5000000000,23,0.3522176147,,,
184.7500000000,23,0.3560599089,,,
185.0000000000,23,0.3522176147,,,
185.2500000000,23,0.3534983099,,,
185.5000000000,23,0.3496559858,,,
185.7500000000,23,0.3509367108,,,
186.0000000000,23,0.3470943868,,,
186.2500000000,23,0.3496559858,,,
186.5000000000,23,0.3445327878,,,
186.7500000000,23,0.3458136022,,,
187.0000000000,23,0.3432520032,,,
187.2500000000,23,0.3445327878,,,
187.5000000000,23,0.3419711888,,,
187.7500000000,23,0.3445327878,,,
188.0000000000,23,0.3406904042,,,
188.2500000000,23,0.3432520032,,,
188.5000000000,23,0.3419711888,,,
188.7500000000,23,0.3432520032,,,
189.0000000000,23,0.3496559858,,,
189.2500000000,23,0.3470943868,,,
189.5000000000,23,0.3483752012,,,
189.7500000000,23,0.3470943868,,,
190.0000000000,23,0.3445327878,,,
190.2500000000,23,0.3445327878,,,
190.5000000000,23,0.3458136022,,,
190.7500000000,23,0.3432520032,,,
191.0000000000,23,0.3458136022,,,
191.2500000000,23,0.3419711888,,,
191.5000000000,23,0.3445327878,,,
191.7500000000,23,0.3406904042,,,
192.0000000000,24,0.3419711888,,,
192.2500000000,24,0.3381288052,,,
192.5000000000,24,0.3381288052,,,
192.7500000000,24,0.3368481100,,,
193.0000000000,24,0.3355672956,,,
193.2500000000,24,0.3406904042,,,
193.5000000000,24,0.3355672956,,,
193.7500000000,24,0.3355672956,,,
194.0000000000,24,0.3342865109,,,
194.2500000000,24,0.3368481100,,,
194.5000000000,24,0.3330056965,,,
194.7500000000,24,0.3355672956,,,
195.0000000000,24,0.3317249119,,,
195.2500000000,24,0.3342865109,,,
195.5000000000,24,0.3304440975,,,
195.7500000000,24,0.3368481100,,,
196.0000000000,24,0.3381288052,,,
196.2500000000,24,0.3394095898,,,
196.5000000000,24,0.3445327878,,,
196.7500000000,24,0.3534983099,,,
197.0000000000,24,0.3611831069,,,
197.2500000000,24,0.3650254905,,,
197.5000000000,24,0.3714294136,,,
197.7500000000,24,0.3701485991,,,
198.0000000000,24,0.3701485991,,,
198.2500000000,24,0.3663061857,,,
198.5000000000,24,0.3663061857,,,
198.7500000000,24,0.3637447059,,,
199.0000000000,24,0.3624638915,,,
199.2500000000,24,0.3611831069,,,
199.5000000000,24,0.3599022925,,,
199.7500000000,24,0.3586215079,,,
200.0000000000,25,0.3624638915,,,
200.2500000000,25,0.3586215079,,,
200.5000000000,25,0.3599022925,,,
200.7500000000,25,0.3599022925,,,
201.0000000000,25,0.3637447059,,,
201.2500000000,25,0.3650254905,,,
201.5000000000,25,0.3701485991,,,
201.7500000000,25,0.3727101982,,,
202.0000000000,25,0.3778333962,,,
202.2500000000,25,0.3752717972,,,
202.5000000000,25,0.3803949952,,,
202.7500000000,25,0.3739910126,,,
203.0000000000,25,0.3791142106,,,
203.2500000000,25,0.3778333962,,,
203.5000000000,25,0.3791142106,,,
203.7500000000,25,0.3791142106,,,
204.0000000000,25,0.3803949952,,,
204.2500000000,25,0.3803949952,,,
204.5000000000,25,0.3765526116,,,
204.7500000000,25,0.3778333962,,,
205.0000000000,25,0.3727101982,,,
205.2500000000,25,0.3727101982,,,
205.5000000000,25,0.3714294136,,,
205.7500000000,25,0.3739910126,,,
206.0000000000,25,0.3714294136,,,
206.2500000000,25,0.3727101982,,,
206.5000000000,25,0.3688678145,,,
206.7500000000,25,0.3739910126,,,
207.0000000000,25,0.3701485991,,,
207.2500000000,25,0.3727101982,,,
207.5000000000,25,0.3675870001,,,
207.7500000000,25,0.3701485991,,,
208.0000000000,26,0.3675870001,,,
208.2500000000,26,0.3675870001,,,
208.5000000000,26,0.3637447059,,,
208.7500000000,26,0.3637447059,,,
209.0000000000,26,0.3611831069,,,
209.2500000000,26,0.3624638915,,,
209.5000000000,26,0.3599022925,,,
209.7500000000,26,0.3599022925,,,
210.0000000000,26,0.3624638915,,,
210.2500000000,26,0.3701485991,,,
210.5000000000,26,0.4021683931,,,
210.7500000000,26,0.4598039985,,,
211.0000000000,26,0.4854198098,,,
211.2500000000,26,0.5200011730,,,
211.5000000000,26,0.5404937863,,,
211.7500000000,26,0.5417745709,,,
212.0000000000,26,0.5392131209,,,
212.2500000000,26,0.5328090787,,,
212.5000000000,26,0.5251243711,,,
212.7500000000,26,0.5135971904,,,
213.0000000000,26,0.5071933270,,,
213.2500000000,26,0.4995085001,,,
213.5000000000,26,0.4931046069,,,
213.7500000000,26,0.4867005944,,,
214.0000000000,26,0.4879814088,,,
214.2500000000,26,0.4905430079,,,
214.5000000000,26,0.5046316981,,,
214.7500000000,26,0.5187203884,,,
215.0000000000,26,0.5264052153,,,
215.2500000000,26,0.5276858807,,,
215.5000000000,26,0.5276858807,,,
215.7500000000,26,0.5225628018,,,
216.0000000000,27,0.5148779750,,,
216.2500000000,27,0.5097547770,,,
216.5000000000,27,0.5020701289,,,
216.7500000000,27,0.4995085001,,,
217.0000000000,27,0.4918237925,,,
217.2500000000,27,0.4892621934,,,
217.5000000000,27,0.4854198098,,,
217.7500000000,27,0.4867005944,,,
218.0000000000,27,0.4905430079,,,
218.2500000000,27,0.5135971904,,,
218.5000000000,27,0.5725135803,,,
218.7500000000,27,0.6173412800,,,
219.0000000000,27,0.6506419182,,,
219.2500000000,27,0.6557651162,,,
219.5000000000,27,0.6570457816,,,
219.7500000000,27,0.6532034874,,,
220.0000000000,27,0.6391147971,,,
220.2500000000,27,0.6250259876,,,
220.5000000000,27,0.6147797704,,,
220.7500000000,27,0.6019718051,,,
221.0000000000,27,0.5942870975,,,
221.2500000000,27,0.5853214860,,,
221.5000000000,27,0.5814791918,,,
221.7500000000,27,0.5763559937,,,
222.0000000000,27,0.5725135803,,,
222.2500000000,27,0.5673903823,,,
222.5000000000,27,0.5648288727,,,
222.7500000000,27,0.5609865189,,,
223.0000000000,27,0.5597056746,,,
223.2500000000,27,0.5545824766,,,
223.5000000000,27,0.5520210266,,,
223.7500000000,27,0.5481786132,,,
224.0000000000,28,0.5494593978,,,
224.2500000000,28,0.5443361998,,,
224.5000000000,28,0.5430554152,,,
224.7500000000,28,0.5392131209,,,
225.0000000000,28,0.5379322767,,,
225.2500000000,28,0.5404937863,,,
225.5000000000,28,0.5673903823,,,
225.7500000000,28,0.5699520707,,,
226.0000000000,28,0.5712329149,,,
226.2500000000,28,0.5661097169,,,
226.5000000000,28,0.5661097169,,,
226.7500000000,28,0.5609865189,,,
227.0000000000,28,0.5597056746,,,
227.2500000000,28,0.5545824766,,,
227.5000000000,28,0.5533018112,,,
227.7500000000,28,0.5481786132,,,
228.0000000000,28,0.5468978286,,,
228.2500000000,28,0.5417745709,,,
228.5000000000,28,0.5404937863,,,
228.7500000000,28,0.5353707075,,,
229.0000000000,28,0.5366514921,,,
229.2500000000,28,0.5328090787,,,
229.5000000000,28,0.5379322767,,,
229.7500000000,28,0.5468978286,,,
230.0000000000,28,0.5609865189,,,
230.2500000000,28,0.5750752091,,,
230.5000000000,28,0.5891638994,,,
230.7500000000,28,0.5930063128,,,
231.0000000000,28,0.5955678821,,,
231.2500000000,28,0.6058142185,,,
231.5000000000,28,0.6506419182,,,
231.7500000000,28,0.6775385141,,,
232.0000000000,29,0.5843076110,,,
232.2500000000,29,0.5561301112,,,
232.5000000000,29,0.5599725246,,,
232.7500000000,29,0.5548493266,,,
233.0000000000,29,0.5458837748,,,
233.2500000000,29,0.5356374979,,,
233.5000000000,29,0.5215486884,,,
233.7500000000,29,0.5061792731,,,
234.0000000000,29,0.4908097982,,,
234.2500000000,29,0.4882481992,,,
234.5000000000,29,0.4780018926,,,
234.7500000000,29,0.4741595089,,,
235.0000000000,29,0.4651939869,,,
235.2500000000,29,0.4664747119,,,
235.5000000000,29,0.4600707889,,,
235.7500000000,29,0.4626323879,,,
236.0000000000,29,0.4575091898,,,
236.2500000000,29,0.4562284052,,,
236.5000000000,29,0.4523861110,,,
236.7500000000,29,0.4523861110,,,
237.0000000000,29,0.4472629130,,,
237.2500000000,29,0.4472629130,,,
237.5000000000,29,0.4434204996,,,
237.7500000000,29,0.4434204996,,,
238.0000000000,29,0.4357357919,,,
238.2500000000,29,0.4408589005,,,
238.5000000000,29,0.4357357919,,,
238.7500000000,29,0.4357357919,,,
239.0000000000,29,0.4306125939,,,
239.2500000000,29,0.4318934083,,,
239.5000000000,29,0.4229278862,,,
239.7500000000,29,0.4254893959,,,
240.0000000000,30,0.4178046882,,,
240.2500000000,30,0.4254893959,,,
240.5000000000,30,0.4190855026,,,
240.7500000000,30,0.4203662872,,,
241.0000000000,30,0.4126814902,,,
241.2500000000,30,0.4152430892,,,
241.5000000000,30,0.4114007056,,,
241.7500000000,30,0.4190855026,,,
242.0000000000,30,0.4190855026,,,
242.2500000000,30,0.4203662872,,,
242.5000000000,30,0.4242086112,,,
242.7500000000,30,0.4267702103,,,
243.0000000000,30,0.4229278862,,,
243.2500000000,30,0.4242086112,,,
243.5000000000,30,0.4165239036,,,
243.7500000000,30,0.4203662872,,,
244.0000000000,30,0.4178046882,,,
244.2500000000,30,0.4203662872,,,
244.5000000000,30,0.4139623046,,,
244.7500000000,30,0.4152430892,,,
245.0000000000,30,0.4114007056,,,
245.2500000000,30,0.4126814902,,,
245.5000000000,30,0.4139623046,,,
245.7500000000,30,0.4382973015,,,
246.0000000000,30,0.4370164871,,,
246.2500000000,30,0.4344550073,,,
246.5000000000,30,0.4344550073,,,
246.7500000000,30,0.4306125939,,,
247.0000000000,30,0.4357357919,,,
247.2500000000,30,0.4434204996,,,
247.5000000000,30,0.4664747119,,,
247.7500000000,30,0.4908097982,,,
248.0000000000,31,0.5241103768,,,
248.2500000000,31,0.5356374979,,,
248.5000000000,31,0.5625340939,,,
248.7500000000,31,0.5599725246,,,
249.0000000000,31,0.5625340939,,,
249.2500000000,31,0.5535684824,,,
249.5000000000,31,0.5574108958,,,
249.7500000000,31,0.5510069728,,,
250.0000000000,31,0.5535684824,,,
250.2500000000,31,0.5535684824,,,
250.5000000000,31,0.5510069728,,,
250.7500000000,31,0.5625340939,,,
251.0000000000,31,0.5932731032,,,
251.2500000000,31,0.6355391741,,,
251.5000000000,31,0.6573125720,,,
251.7500000000,31,0.7047019005,,,
252.0000000000,31,0.7047019005,,,
252.2500000000,31,0.7008594871,,,
252.5000000000,31,0.6842092276,,,
252.7500000000,31,0.6714013219,,,
253.0000000000,31,0.6611549854,,,
253.2500000000,31,0.6521894932,,,
253.5000000000,31,0.6496279240,,,
253.7500000000,31,0.6509087086,,,
254.0000000000,31,0.6483470798,,,
254.2500000000,31,0.6496279240,,,
254.5000000000,31,0.6496279240,,,
254.7500000000,31,0.6521894932,,,
255.0000000000,31,0.6534702778,,,
255.2500000000,31,0.6573125720,,,
255.5000000000,31,0.6560317874,,,
255.7500000000,31,0.6611549854,,,
256.0000000000,32,0.6573125720,,,
256.2500000000,32,0.6598742008,,,
256.5000000000,32,0.6534702778,,,
256.7500000000,32,0.6534702778,,,
257.0000000000,32,0.6483470798,,,
257.2500000000,32,0.6509087086,,,
257.5000000000,32,0.6457855105,,,
257.7500000000,32,0.6445047259,,,
258.0000000000,32,0.6457855105,,,
258.2500000000,32,0.6406623721,,,
258.5000000000,32,0.6419432163,,,
258.7500000000,32,0.6381006837,,,
259.0000000000,32,0.6406623721,,,
259.2500000000,32,0.6342583895,,,
259.5000000000,32,0.6355391741,,,
259.7500000000,32,0.6329776049,,,
260.0000000000,32,0.6316968203,,,
260.2500000000,32,0.6278545260,,,
260.5000000000,32,0.6291353106,,,
260.7500000000,32,0.6252927780,,,
261.0000000000,32,0.6252927780,,,
261.2500000000,32,0.6227313280,,,
261.5000000000,32,0.6240121126,,,
261.7500000000,32,0.6188889146,,,
262.0000000000,32,0.6227313280,,,
262.2500000000,32,0.6188889146,,,
262.5000000000,32,0.6214504838,,,
262.7500000000,32,0.6150465012,,,
263.0000000000,32,0.6188889146,,,
263.2500000000,32,0.6150465012,,,
263.5000000000,32,0.6176080704,,,
263.7500000000,32,0.6124848723,,,
264.0000000000,33,0.6137657166,,,
264.2500000000,33,0.6112040877,,,
264.5000000000,33,0.6163272858,,,
264.7500000000,33,0.6124848723,,,
265.0000000000,33,0.6124848723,,,
265.2500000000,33,0.6086425781,,,
265.5000000000,33,0.6086425781,,,
265.7500000000,33,0.6073617935,,,
266.0000000000,33,0.6035193801,,,
266.2500000000,33,0.6022385955,,,
266.5000000000,33,0.5996770263,,,
266.7500000000,33,0.5983961821,,,
267.0000000000,33,0.5983961821,,,
267.2500000000,33,0.5958346725,,,
267.5000000000,33,0.5958346725,,,
267.7500000000,33,0.5932731032,,,
268.0000000000,33,0.5932731032,,,
268.2500000000,33,0.5881499052,,,
268.5000000000,33,0.5881499052,,,
268.7500000000,33,0.5855882764,,,
269.0000000000,33,0.5855882764,,,
269.2500000000,33,0.5830268264,,,
269.5000000000,33,0.5830268264,,,
269.7500000000,33,0.5753419995,,,
270.0000000000,33,0.5766227841,,,
270.2500000000,33,0.5753419995,,,
270.5000000000,33,0.5753419995,,,
270.7500000000,33,0.5714995861,,,
271.0000000000,33,0.5740612149,,,
271.2500000000,33,0.5727803707,,,
271.5000000000,33,0.5727803707,,,
271.7500000000,33,0.5714995861,,,
272.0000000000,34,0.5714995861,,,
272.2500000000,34,0.5689380169,,,
272.5000000000,34,0.5702189207,,,
272.7500000000,34,0.5676571727,,,
273.0000000000,34,0.5702189207,,,
273.2500000000,34,0.5689380169,,,
273.5000000000,34,0.5689380169,,,
273.7500000000,34,0.5753419995,,,
274.0000000000,34,0.5907114744,,,
274.2500000000,34,0.6214504838,,,
274.5000000000,34,0.6393815875,,,
274.7500000000,34,0.6560317874,,,
275.0000000000,34,0.6880515814,,,
275.2500000000,34,0.6880515814,,,
275.5000000000,34,0.6880515814,,,
275.7500000000,34,0.6790860891,,,
276.0000000000,34,0.6752436757,,,
276.2500000000,34,0.6649973989,,,
276.5000000000,34,0.6611549854,,,
276.7500000000,34,0.6496279240,,,
277.0000000000,34,0.6496279240,,,
277.2500000000,34,0.6457855105,,,
277.5000000000,34,0.6419432163,,,
277.7500000000,34,0.6368200183,,,
278.0000000000,34,0.6381006837,,,
278.2500000000,34,0.6355391741,,,
278.5000000000,34,0.6355391741,,,
278.7500000000,34,0.6304159760,,,
279.0000000000,34,0.6342583895,,,
279.2500000000,34,0.6278545260,,,
279.5000000000,34,0.6316968203,,,
279.7500000000,34,0.6252927780,,,
280.0000000000,35,0.6278545260,,,
280.2500000000,35,0.6227313280,,,
280.5000000000,35,0.6227313280,,,
280.7500000000,35,0.6163272858,,,
281.0000000000,35,0.6188889146,,,
281.2500000000,35,0.6099234223,,,
281.5000000000,35,0.6124848723,,,
281.7500000000,35,0.6048002243,,,
282.0000000000,35,0.6073617935,,,
282.2500000000,35,0.6099234223,,,
282.5000000000,35,0.6099234223,,,
282.7500000000,35,0.6060810089,,,
283.0000000000,35,0.6112040877,,,
283.2500000000,35,0.6073617935,,,
283.5000000000,35,0.6022385955,,,
283.7500000000,35,0.6060810089,,,
284.0000000000,35,0.6035193801,,,
284.2500000000,35,0.6035193801,,,
284.5000000000,35,0.6009578109,,,
284.7500000000,35,0.5983961821,,,
285.0000000000,35,0.5971155167,,,
285.2500000000,35,0.5958346725,,,
285.5000000000,35,0.5932731032,,,
285.7500000000,35,0.5932731032,,,
286.0000000000,35,0.5894306898,,,
286.2500000000,35,0.5868691206,,,
286.5000000000,35,0.5881499052,,,
286.7500000000,35,0.5919923186,,,
287.0000000000,35,0.5868691206,,,
287.2500000000,35,0.5894306898,,,
287.5000000000,35,0.5843076110,,,
287.7500000000,35,0.5855882764,,,
288.0000000000,36,0.5791844130,,,
288.2500000000,36,0.5804650784,,,
288.5000000000,36,0.5779036283,,,
288.7500000000,36,0.5779036283,,,
289.0000000000,36,0.5727803707,,,
289.2500000000,36,0.5766227841,,,
289.5000000000,36,0.5779036283,,,
289.7500000000,36,0.5932731032,,,
290.0000000000,36,0.6060810089,,,
290.2500000000,36,0.6329776049,,,
290.5000000000,36,0.6470662951,,,
290.7500000000,36,0.6560317874,,,
291.0000000000,36,0.6534702778,,,
291.2500000000,36,0.6521894932,,,
291.5000000000,36,0.6432238817,,,
291.7500000000,36,0.6419432163,,,
292.0000000000,36,0.6355391741,,,
292.2500000000,36,0.6329776049,,,
292.5000000000,36,0.6278545260,,,
292.7500000000,36,0.6278545260,,,
293.0000000000,36,0.6265736222,,,
293.2500000000,36,0.6265736222,,,
293.5000000000,36,0.6214504838,,,
293.7500000000,36,0.6188889146,,,
294.0000000000,36,0.6150465012,,,
294.2500000000,36,0.6150465012,,,
294.5000000000,36,0.6035193801,,,
294.7500000000,36,0.6048002243,,,
295.0000000000,36,0.6060810089,,,
295.2500000000,36,0.6009578109,,,
295.5000000000,36,0.5996770263,,,
295.7500000000,36,0.5958346725,,,
