Time:4Hz,Epoch,Channel 1,Event Id,Event Date,Event Duration
0.0000000000,0,0.2984243035,,,
0.2500000000,0,0.2958627045,,,
0.5000000000,0,0.3009859025,,,
0.7500000000,0,0.2984243035,,,
1.0000000000,0,0.2997050881,,,
1.2500000000,0,0.2958627045,,,
1.5000000000,0,0.2997050881,,,
1.7500000000,0,0.2958627045,,,
2.0000000000,0,0.2984243035,,,
2.2500000000,0,0.2958627045,,,
2.5000000000,0,0.2971434891,,,
2.7500000000,0,0.2958627045,,,
3.0000000000,0,0.2945818901,,,
3.2500000000,0,0.2984243035,,,
3.5000000000,0,0.2971434891,,,
3.7500000000,0,0.2945818901,,,
4.0000000000,0,0.2958627045,,,
4.2500000000,0,0.2984243035,,,
4.5000000000,0,0.2971434891,,,
4.7500000000,0,0.2984243035,,,
5.0000000000,0,0.2958627045,,,
5.2500000000,0,0.2971434891,,,
5.5000000000,0,0.2945818901,,,
5.7500000000,0,0.2933011055,,,
6.0000000000,0,0.2971434891,,,
6.2500000000,0,0.2945818901,,,
6.5000000000,0,0.2958627045,,,
6.7500000000,0,0.2933011055,,,
7.0000000000,0,0.2933011055,,,
7.2500000000,0,0.2920204103,,,
7.5000000000,0,0.2945818901,,,
7.7500000000,0,0.3073898852,,,
8.0000000000,1,0.2920204103,,,
8.2500000000,1,0.2894588113,,,
8.5000000000,1,0.2894588113,,,
8.7500000000,1,0.2868972123,,,
9.0000000000,1,0.2843356133,,,
9.2500000000,1,0.2868972123,,,
9.5000000000,1,0.2843356133,,,
9.7500000000,1,0.2868972123,,,
10.0000000000,1,0.2843356133,,,
10.2500000000,1,0.2868972123,,,
10.5000000000,1,0.2830547988,,,
10.7500000000,1,0.2843356133,,,
11.0000000000,1,0.2843356133,,,
11.2500000000,1,0.2843356133,,,
11.5000000000,1,0.2817740142,,,
11.7500000000,1,0.2830547988,,,
12.0000000000,1,0.2843356133,,,
12.2500000000,1,0.2817740142,,,
12.5000000000,1,0.2830547988,,,
12.7500000000,1,0.2817740142,,,
13.0000000000,1,0.2843356133,,,
13.2500000000,1,0.2830547988,,,
13.5000000000,1,0.2843356133,,,
13.7500000000,1,0.2830547988,,,
14.0000000000,1,0.2856163979,,,
14.2500000000,1,0.2843356133,,,
14.5000000000,1,0.2830547988,,,
14.7500000000,1,0.2843356133,,,
15.0000000000,1,0.2868972123,,,
15.2500000000,1,0.2856163979,,,
15.5000000000,1,0.2843356133,,,
15.7500000000,1,0.2856163979,,,
16.0000000000,2,0.2843356133,,,
16.2500000000,2,0.2868972123,,,
16.5000000000,2,0.2830547988,,,
16.7500000000,2,0.2817740142,,,
17.0000000000,2,0.2817740142,,,
17.2500000000,2,0.2843356133,,,
17.5000000000,2,0.2804931998,,,
17.7500000000,2,0.2830547988,,,
18.0000000000,2,0.2817740142,,,
18.2500000000,2,0.2817740142,,,
18.5000000000,2,0.2830547988,,,
18.7500000000,2,0.2817740142,,,
19.0000000000,2,0.2830547988,,,
19.2500000000,2,0.2804931998,,,
19.5000000000,2,0.2804931998,,,
19.7500000000,2,0.2792123854,,,
20.0000000000,2,0.2804931998,,,
20.2500000000,2,0.2779316902,,,
20.5000000000,2,0.2792123854,,,
20.7500000000,2,0.2779316902,,,
21.0000000000,2,0.2792123854,,,
21.2500000000,2,0.2843356133,,,
21.5000000000,2,0.2830547988,,,
21.7500000000,2,0.2843356133,,,
22.0000000000,2,0.2830547988,,,
22.2500000000,2,0.2856163979,,,
22.5000000000,2,0.2843356133,,,
22.7500000000,2,0.2856163979,,,
23.0000000000,2,0.2817740142,,,
23.2500000000,2,0.2830547988,,,
23.5000000000,2,0.2804931998,,,
23.7500000000,2,0.2830547988,,,
24.0000000000,3,0.2804931998,,,
24.2500000000,3,0.2792123854,,,
24.5000000000,3,0.2792123854,,,
24.7500000000,3,0.2766509056,,,
25.0000000000,3,0.2753700912,,,
25.2500000000,3,0.2753700912,,,
25.5000000000,3,0.2779316902,,,
25.7500000000,3,0.2740893066,,,
26.0000000000,3,0.2766509056,,,
26.2500000000,3,0.2728084922,,,
26.5000000000,3,0.2753700912,,,
26.7500000000,3,0.2715277076,,,
27.0000000000,3,0.2740893066,,,
27.2500000000,3,0.2753700912,,,
27.5000000000,3,0.2702468932,,,
27.7500000000,3,0.2689661086,,,
28.0000000000,3,0.2702468932,,,
28.2500000000,3,0.2702468932,,,
28.5000000000,3,0.2689661086,,,
28.7500000000,3,0.2702468932,,,
29.0000000000,3,0.2689661086,,,
29.2500000000,3,0.2728084922,,,
29.5000000000,3,0.2702468932,,,
29.7500000000,3,0.2740893066,,,
30.0000000000,3,0.2715277076,,,
30.2500000000,3,0.2728084922,,,
30.5000000000,3,0.2728084922,,,
30.7500000000,3,0.2702468932,,,
31.0000000000,3,0.2728084922,,,
31.2500000000,3,0.2702468932,,,
31.5000000000,3,0.2715277076,,,
31.7500000000,3,0.2689661086,,,
32.0000000000,4,0.2702468932,,,
32.2500000000,4,0.2676852942,,,
32.5000000000,4,0.2715277076,,,
32.7500000000,4,0.2689661086,,,
33.0000000000,4,0.2689661086,,,
33.2500000000,4,0.2689661086,,,
33.5000000000,4,0.2676852942,,,
33.7500000000,4,0.2702468932,,,
34.0000000000,4,0.2664045095,,,
34.2500000000,4,0.2689661086,,,
34.5000000000,4,0.2664045095,,,
34.7500000000,4,0.2689661086,,,
35.0000000000,4,0.2651238143,,,
35.2500000000,4,0.2676852942,,,
35.5000000000,4,0.2664045095,,,
35.7500000000,4,0.2651238143,,,
36.0000000000,4,0.2638429105,,,
36.2500000000,4,0.2664045095,,,
36.5000000000,4,0.2689661086,,,
36.7500000000,4,0.2651238143,,,
37.0000000000,4,0.2651238143,,,
37.2500000000,4,0.2651238143,,,
37.5000000000,4,0.2689661086,,,
37.7500000000,4,0.2664045095,,,
38.0000000000,4,0.2689661086,,,
38.2500000000,4,0.2651238143,,,
38.5000000000,4,0.2664045095,,,
38.7500000000,4,0.2612814009,,,
39.0000000000,4,0.2625621855,,,
39.2500000000,4,0.2638429105,,,
39.5000000000,4,0.2625621855,,,
39.7500000000,4,0.2638429105,,,
40.0000000000,5,0.2612814009,,,
40.2500000000,5,0.2651238143,,,
40.5000000000,5,0.2625621855,,,
40.7500000000,5,0.2651238143,,,
41.0000000000,5,0.2625621855,,,
41.2500000000,5,0.2638429105,,,
41.5000000000,5,0.2600005865,,,
41.7500000000,5,0.2612814009,,,
42.0000000000,5,0.2612814009,,,
42.2500000000,5,0.2587198019,,,
42.5000000000,5,0.2600005865,,,
42.7500000000,5,0.2574389875,,,
43.0000000000,5,0.2600005865,,,
43.2500000000,5,0.2574389875,,,
43.5000000000,5,0.2600005865,,,
43.7500000000,5,0.2574389875,,,
44.0000000000,5,0.2587198019,,,
44.2500000000,5,0.2561582029,,,
44.5000000000,5,0.2574389875,,,
44.7500000000,5,0.2574389875,,,
45.0000000000,5,0.2548773885,,,
45.2500000000,5,0.2587198019,,,
45.5000000000,5,0.2548773885,,,
45.7500000000,5,0.2574389875,,,
46.0000000000,5,0.2548773885,,,
46.2500000000,5,0.2587198019,,,
46.5000000000,5,0.2574389875,,,
46.7500000000,5,0.2612814009,,,
47.0000000000,5,0.2574389875,,,
47.2500000000,5,0.2612814009,,,
47.5000000000,5,0.2600005865,,,
47.7500000000,5,0.2600005865,,,
48.0000000000,6,0.2574389875,,,
48.2500000000,6,0.2587198019,,,
48.5000000000,6,0.2574389875,,,
48.7500000000,6,0.2561582029,,,
49.0000000000,6,0.2535966039,,,
49.2500000000,6,0.2548773885,,,
49.5000000000,6,0.2574389875,,,
49.7500000000,6,0.2523157895,,,
50.0000000000,6,0.2561582029,,,
50.2500000000,6,0.2510350049,,,
50.5000000000,6,0.2535966039,,,
50.7500000000,6,0.2510350049,,,
51.0000000000,6,0.2535966039,,,
51.2500000000,6,0.2497542948,,,
51.5000000000,6,0.2523157895,,,
51.7500000000,6,0.2523157895,,,
52.0000000000,6,0.2497542948,,,
52.2500000000,6,0.2497542948,,,
52.5000000000,6,0.2459118962,,,
52.7500000000,6,0.2484734952,,,
53.0000000000,6,0.2446310967,,,
53.2500000000,6,0.2484734952,,,
53.5000000000,6,0.2446310967,,,
53.7500000000,6,0.2446310967,,,
54.0000000000,6,0.2459118962,,,
54.2500000000,6,0.2433502972,,,
54.5000000000,6,0.2446310967,,,
54.7500000000,6,0.2420694977,,,
55.0000000000,6,0.2420694977,,,
55.2500000000,6,0.2382270992,,,
55.5000000000,6,0.2433502972,,,
55.7500000000,6,0.2395078987,,,
56.0000000000,7,0.2420694977,,,
56.2500000000,7,0.2395078987,,,
56.5000000000,7,0.2407886982,,,
56.7500000000,7,0.2369462997,,,
57.0000000000,7,0.2382270992,,,
57.2500000000,7,0.2382270992,,,
57.5000000000,7,0.2356655002,,,
57.7500000000,7,0.2382270992,,,
58.0000000000,7,0.2331040055,,,
58.2500000000,7,0.2369462997,,,
58.5000000000,7,0.2356655002,,,
58.7500000000,7,0.2369462997,,,
59.0000000000,7,0.2331040055,,,
59.2500000000,7,0.2369462997,,,
59.5000000000,7,0.2331040055,,,
59.7500000000,7,0.2331040055,,,
60.0000000000,7,0.2356655002,,,
60.2500000000,7,0.2318232059,,,
60.5000000000,7,0.2343848050,,,
60.7500000000,7,0.2279808074,,,
61.0000000000,7,0.2331040055,,,
61.2500000000,7,0.2318232059,,,
61.5000000000,7,0.2318232059,,,
61.7500000000,7,0.2305424064,,,
62.0000000000,7,0.2318232059,,,
62.2500000000,7,0.2305424064,,,
62.5000000000,7,0.2318232059,,,
62.7500000000,7,0.2292616069,,,
63.0000000000,7,0.2292616069,,,
63.2500000000,7,0.2305424064,,,
63.5000000000,7,0.2241383940,,,
63.7500000000,7,0.2292616069,,,
64.0000000000,8,0.2266999930,,,
64.2500000000,8,0.2266999930,,,
64.5000000000,8,0.2241383940,,,
64.7500000000,8,0.2266999930,,,
65.0000000000,8,0.2241383940,,,
65.2500000000,8,0.2266999930,,,
65.5000000000,8,0.2241383940,,,
65.7500000000,8,0.2241383940,,,
66.0000000000,8,0.2254191935,,,
66.2500000000,8,0.2215767950,,,
66.5000000000,8,0.2202960998,,,
66.7500000000,8,0.2190153003,,,
67.0000000000,8,0.2241383940,,,
67.2500000000,8,0.2215767950,,,
67.5000000000,8,0.2241383940,,,
67.7500000000,8,0.2202960998,,,
68.0000000000,8,0.2215767950,,,
68.2500000000,8,0.2228575945,,,
68.5000000000,8,0.2190153003,,,
68.7500000000,8,0.2215767950,,,
69.0000000000,8,0.2177345008,,,
69.2500000000,8,0.2202960998,,,
69.5000000000,8,0.2177345008,,,
69.7500000000,8,0.2202960998,,,
70.0000000000,8,0.2190153003,,,
70.2500000000,8,0.2228575945,,,
70.5000000000,8,0.2228575945,,,
70.7500000000,8,0.2241383940,,,
71.0000000000,8,0.2254191935,,,
71.2500000000,8,0.2241383940,,,
71.5000000000,8,0.2228575945,,,
71.7500000000,8,0.2190153003,,,
72.0000000000,9,0.2215767950,,,
72.2500000000,9,0.2190153003,,,
72.5000000000,9,0.2202960998,,,
72.7500000000,9,0.2202960998,,,
73.0000000000,9,0.2164537013,,,
73.2500000000,9,0.2190153003,,,
73.5000000000,9,0.2151729017,,,
73.7500000000,9,0.2177345008,,,
74.0000000000,9,0.2138921022,,,
74.2500000000,9,0.2177345008,,,
74.5000000000,9,0.2138921022,,,
74.7500000000,9,0.2177345008,,,
75.0000000000,9,0.2177345008,,,
75.2500000000,9,0.2151729017,,,
75.5000000000,9,0.2164537013,,,
75.7500000000,9,0.2164537013,,,
76.0000000000,9,0.2164537013,,,
76.2500000000,9,0.2126113027,,,
76.5000000000,9,0.2151729017,,,
76.7500000000,9,0.2113305032,,,
77.0000000000,9,0.2138921022,,,
77.2500000000,9,0.2087689042,,,
77.5000000000,9,0.2126113027,,,
77.7500000000,9,0.2087689042,,,
78.0000000000,9,0.2100497037,,,
78.2500000000,9,0.2100497037,,,
78.5000000000,9,0.2087689042,,,
78.7500000000,9,0.2100497037,,,
79.0000000000,9,0.2074881047,,,
79.2500000000,9,0.2074881047,,,
79.5000000000,9,0.2074881047,,,
79.7500000000,9,0.2100497037,,,
80.0000000000,10,0.2049265951,,,
80.2500000000,10,0.2087689042,,,
80.5000000000,10,0.2049265951,,,
80.7500000000,10,0.2062073052,,,
81.0000000000,10,0.2074881047,,,
81.2500000000,10,0.2049265951,,,
81.5000000000,10,0.2087689042,,,
81.7500000000,10,0.2049265951,,,
82.0000000000,10,0.2074881047,,,
82.2500000000,10,0.2049265951,,,
82.5000000000,10,0.2074881047,,,
82.7500000000,10,0.2036457956,,,
83.0000000000,10,0.2074881047,,,
83.2500000000,10,0.2049265951,,,
83.5000000000,10,0.2049265951,,,
83.7500000000,10,0.2023649961,,,
84.0000000000,10,0.2049265951,,,
84.2500000000,10,0.2010841966,,,
84.5000000000,10,0.2023649961,,,
84.7500000000,10,0.2049265951,,,
85.0000000000,10,0.2010841966,,,
85.2500000000,10,0.2036457956,,,
85.5000000000,10,0.1985225976,,,
85.7500000000,10,0.2036457956,,,
86.0000000000,10,0.1998033971,,,
86.2500000000,10,0.2036457956,,,
86.5000000000,10,0.2010841966,,,
86.7500000000,10,0.2049265951,,,
87.0000000000,10,0.2036457956,,,
87.2500000000,10,0.2062073052,,,
87.5000000000,10,0.2049265951,,,
87.7500000000,10,0.2023649961,,,
88.0000000000,11,0.2036457956,,,
88.2500000000,11,0.1998033971,,,
88.5000000000,11,0.2010841966,,,
88.7500000000,11,0.2010841966,,,
89.0000000000,11,0.2023649961,,,
89.2500000000,11,0.1998033971,,,
89.5000000000,11,0.2023649961,,,
89.7500000000,11,0.1998033971,,,
90.0000000000,11,0.2023649961,,,
90.2500000000,11,0.1985225976,,,
90.5000000000,11,0.2023649961,,,
90.7500000000,11,0.1985225976,,,
91.0000000000,11,0.1972417980,,,
91.2500000000,11,0.2010841966,,,
91.5000000000,11,0.1985225976,,,
91.7500000000,11,0.1998033971,,,
92.0000000000,11,0.1972417980,,,
92.2500000000,11,0.1972417980,,,
92.5000000000,11,0.1972417980,,,
92.7500000000,11,0.1985225976,,,
93.0000000000,11,0.1959609985,,,
93.2500000000,11,0.1972417980,,,
93.5000000000,11,0.1946801990,,,
93.7500000000,11,0.1959609985,,,
94.0000000000,11,0.1959609985,,,
94.2500000000,11,0.1946801990,,,
94.5000000000,11,0.1946801990,,,
94.7500000000,11,0.1933993995,,,
95.0000000000,11,0.1946801990,,,
95.2500000000,11,0.1921186000,,,
95.5000000000,11,0.1946801990,,,
95.7500000000,11,0.1933993995,,,
96.0000000000,12,0.1908378005,,,
96.2500000000,12,0.1933993995,,,
96.5000000000,12,0.1895571053,,,
96.7500000000,12,0.1933993995,,,
97.0000000000,12,0.1908378005,,,
97.2500000000,12,0.1933993995,,,
97.5000000000,12,0.1895571053,,,
97.7500000000,12,0.1921186000,,,
98.0000000000,12,0.1895571053,,,
98.2500000000,12,0.1908378005,,,
98.5000000000,12,0.1921186000,,,
98.7500000000,12,0.1895571053,,,
99.0000000000,12,0.1908378005,,,
99.2500000000,12,0.1869955063,,,
99.5000000000,12,0.1895571053,,,
99.7500000000,12,0.1857147068,,,
100.0000000000,12,0.1895571053,,,
100.2500000000,12,0.1869955063,,,
100.5000000000,12,0.1895571053,,,
100.7500000000,12,0.1869955063,,,
101.0000000000,12,0.1869955063,,,
101.2500000000,12,0.1882763058,,,
101.5000000000,12,0.1869955063,,,
101.7500000000,12,0.1882763058,,,
102.0000000000,12,0.1857147068,,,
102.2500000000,12,0.1882763058,,,
102.5000000000,12,0.1857147068,,,
102.7500000000,12,0.1895571053,,,
103.0000000000,12,0.1869955063,,,
103.2500000000,12,0.1882763058,,,
103.5000000000,12,0.1869955063,,,
103.7500000000,12,0.1869955063,,,
104.0000000000,13,0.1882763058,,,
104.2500000000,13,0.1869955063,,,
104.5000000000,13,0.1895571053,,,
104.7500000000,13,0.1844339073,,,
105.0000000000,13,0.1882763058,,,
105.2500000000,13,0.1869955063,,,
105.5000000000,13,0.1882763058,,,
105.7500000000,13,0.1869955063,,,
106.0000000000,13,0.1908378005,,,
106.2500000000,13,0.1882763058,,,
106.5000000000,13,0.1908378005,,,
106.7500000000,13,0.1869955063,,,
107.0000000000,13,0.1895571053,,,
107.2500000000,13,0.1869955063,,,
107.5000000000,13,0.1831530929,,,
107.7500000000,13,0.1882763058,,,
108.0000000000,13,0.1869955063,,,
108.2500000000,13,0.1882763058,,,
108.5000000000,13,0.1857147068,,,
108.7500000000,13,0.1882763058,,,
109.0000000000,13,0.1857147068,,,
109.2500000000,13,0.1882763058,33025:33024,109.3750000000:109.4375000000,0.0000000000:0.0000000000
109.5000000000,13,0.1908378005,33025:33024:33025,109.5312500000:109.6250000000:109.6875000000,0.0000000000:0.0000000000:0.0000000000
109.7500000000,13,0.1998033971,33024,109.7812500000,0.0000000000
110.0000000000,13,0.2049265951,,,
110.2500000000,13,0.2138921022,,,
110.5000000000,13,0.2318232059,,,
110.7500000000,13,0.2612814009,,,
111.0000000000,13,0.2753700912,,,
111.2500000000,13,0.2856163979,,,
111.5000000000,13,0.2958627045,,,
111.7500000000,13,0.3035475016,,,
112.0000000000,14,0.3266017139,,,
112.2500000000,14,0.3394095898,,,
112.5000000000,14,0.3560599089,,,
112.7500000000,14,0.3675870001,,,
113.0000000000,14,0.3778333962,,,
113.2500000000,14,0.3842372894,,,
113.5000000000,14,0.3893604875,,,
113.7500000000,14,0.3944836855,,,
114.0000000000,14,0.4021683931,,,
114.2500000000,14,0.4008876085,,,
114.5000000000,14,0.4021683931,,,
114.7500000000,14,0.3996067941,,,
115.0000000000,14,0.4034492075,,,
115.2500000000,14,0.4047299922,,,
115.5000000000,14,0.4111338854,,,
115.7500000000,14,0.4085722864,,,
116.0000000000,14,0.4175378978,,,
116.2500000000,14,0.4149762988,,,
116.5000000000,14,0.4200994968,,,
116.7500000000,14,0.4200994968,,,
117.0000000000,14,0.4226610959,,,
117.2500000000,14,0.4226610959,,,
117.5000000000,14,0.4252226055,,,
117.7500000000,14,0.4265033901,,,
118.0000000000,14,0.4265033901,,,
118.2500000000,14,0.4265033901,,,
118.5000000000,14,0.4252226055,,,
118.7500000000,14,0.4277842045,,,
119.0000000000,14,0.4277842045,,,
119.2500000000,14,0.4290649891,,,
119.5000000000,14,0.4303458035,,,
119.7500000000,14,0.4329074025,,,
120.0000000000,15,0.4354690015,,,
120.2500000000,15,0.4393113852,,,
120.5000000000,15,0.4380306005,,,
120.7500000000,15,0.4393113852,,,
121.0000000000,15,0.4393113852,,,
121.2500000000,15,0.4393113852,,,
121.5000000000,15,0.4418728948,,,
121.7500000000,15,0.4393113852,,,
122.0000000000,15,0.4405921102,,,
122.2500000000,15,0.4367497861,,,
122.5000000000,15,0.4380306005,,,
122.7500000000,15,0.4367497861,,,
123.0000000000,15,0.4380306005,,,
123.2500000000,15,0.4380306005,,,
123.5000000000,15,0.4367497861,,,
123.7500000000,15,0.4367497861,,,
124.0000000000,15,0.4380306005,,,
124.2500000000,15,0.4393113852,,,
124.5000000000,15,0.4393113852,,,
124.7500000000,15,0.4418728948,,,
125.0000000000,15,0.4405921102,,,
125.2500000000,15,0.4418728948,,,
125.5000000000,15,0.4405921102,,,
125.7500000000,15,0.4431537092,,,
126.0000000000,15,0.4405921102,,,
126.2500000000,15,0.4405921102,,,
126.5000000000,15,0.4367497861,,,
126.7500000000,15,0.4418728948,,,
127.0000000000,15,0.4393113852,,,
127.2500000000,15,0.4418728948,,,
127.5000000000,15,0.4393113852,,,
127.7500000000,15,0.4405921102,,,
128.0000000000,16,0.4380306005,,,
128.2500000000,16,0.4393113852,,,
128.5000000000,16,0.4380306005,,,
128.7500000000,16,0.4418728948,,,
129.0000000000,16,0.4444344938,,,
129.2500000000,16,0.4521192908,,,
129.5000000000,16,0.4559616148,,,
129.7500000000,16,0.4649271965,,,
130.0000000000,16,0.4674887955,,,
130.2500000000,16,0.4738926888,,,
130.5000000000,16,0.4751735032,,,
130.7500000000,16,0.4815774858,,,
131.0000000000,16,0.4828582108,,,
131.2500000000,16,0.4892621934,,,
131.5000000000,16,0.4854198098,,,
131.7500000000,16,0.4879814088,,,
132.0000000000,16,0.4879814088,,,
132.2500000000,16,0.4879814088,,,
132.5000000000,16,0.4892621934,,,
132.7500000000,16,0.4867005944,,,
133.0000000000,16,0.4879814088,,,
133.2500000000,16,0.4854198098,,,
133.5000000000,16,0.4854198098,,,
133.7500000000,16,0.4841389954,,,
134.0000000000,16,0.4841389954,,,
134.2500000000,16,0.4828582108,,,
134.5000000000,16,0.4867005944,,,
134.7500000000,16,0.4892621934,,,
135.0000000000,16,0.4943853915,,,
135.2500000000,16,0.4905430079,,,
135.5000000000,16,0.4931046069,,,
135.7500000000,16,0.4905430079,,,
136.0000000000,17,0.4931046069,,,
136.2500000000,17,0.4905430079,,,
136.5000000000,17,0.4918237925,,,
136.7500000000,17,0.4892621934,,,
137.0000000000,17,0.4918237925,,,
137.2500000000,17,0.4892621934,,,
137.5000000000,17,0.4905430079,,,
137.7500000000,17,0.4918237925,,,
138.0000000000,17,0.4943853915,,,
138.2500000000,17,0.4918237925,,,
138.5000000000,17,0.4943853915,,,
138.7500000000,17,0.4943853915,,,
139.0000000000,17,0.4918237925,,,
139.2500000000,17,0.4956660867,,,
139.5000000000,17,0.4943853915,,,
139.7500000000,17,0.4969469905,,,
140.0000000000,17,0.4969469905,,,
140.2500000000,17,0.4969469905,,,
140.5000000000,17,0.4969469905,,,
140.7500000000,17,0.4982276857,,,
141.0000000000,17,0.4995085001,,,
141.2500000000,17,0.5033509135,,,
141.5000000000,17,0.5033509135,,,
141.7500000000,17,0.5084741116,,,
142.0000000000,17,0.5084741116,,,
142.2500000000,17,0.5148779750,,,
142.5000000000,17,0.5148779750,,,
142.7500000000,17,0.5187203884,,,
143.0000000000,17,0.5174396038,,,
143.2500000000,17,0.5212820172,,,
143.5000000000,17,0.5200011730,,,
143.7500000000,17,0.5238435864,,,
144.0000000000,18,0.5212820172,,,
144.2500000000,18,0.5238435864,,,
144.5000000000,18,0.5212820172,,,
144.7500000000,18,0.5200011730,,,
145.0000000000,18,0.5200011730,,,
145.2500000000,18,0.5187203884,,,
145.5000000000,18,0.5212820172,,,
145.7500000000,18,0.5200011730,,,
146.0000000000,18,0.5238435864,,,
146.2500000000,18,0.5200011730,,,
146.5000000000,18,0.5225628018,,,
146.7500000000,18,0.5212820172,,,
147.0000000000,18,0.5238435864,,,
147.2500000000,18,0.5212820172,,,
147.5000000000,18,0.5238435864,,,
147.7500000000,18,0.5225628018,,,
148.0000000000,18,0.5238435864,,,
148.2500000000,18,0.5212820172,,,
148.5000000000,18,0.5212820172,,,
148.7500000000,18,0.5200011730,,,
149.0000000000,18,0.5212820172,,,
149.2500000000,18,0.5200011730,,,
149.5000000000,18,0.5225628018,,,
149.7500000000,18,0.5212820172,,,
150.0000000000,18,0.5225628018,,,
150.2500000000,18,0.5200011730,,,
150.5000000000,18,0.5200011730,,,
150.7500000000,18,0.5212820172,,,
151.0000000000,18,0.5200011730,,,
151.2500000000,18,0.5200011730,,,
151.5000000000,18,0.5200011730,,,
151.7500000000,18,0.5200011730,,,
152.0000000000,19,0.5187203884,,,
152.2500000000,19,0.5187203884,,,
152.5000000000,19,0.5174396038,,,
152.7500000000,19,0.5174396038,,,
153.0000000000,19,0.5174396038,,,
153.2500000000,19,0.5187203884,,,
153.5000000000,19,0.5161588192,,,
153.7500000000,19,0.5187203884,,,
154.0000000000,19,0.5161588192,,,
154.2500000000,19,0.5225628018,,,
154.5000000000,19,0.5238435864,,,
154.7500000000,19,0.5302475095,,,
155.0000000000,19,0.5328090787,,,
155.2500000000,19,0.5366514921,,,
155.5000000000,19,0.5379322767,,,
155.7500000000,19,0.5443361998,,,
156.0000000000,19,0.5430554152,,,
156.2500000000,19,0.5456169844,,,
156.5000000000,19,0.5443361998,,,
156.7500000000,19,0.5430554152,,,
157.0000000000,19,0.5443361998,,,
157.2500000000,19,0.5430554152,,,
157.5000000000,19,0.5443361998,,,
157.7500000000,19,0.5430554152,,,
158.0000000000,19,0.5456169844,,,
158.2500000000,19,0.5430554152,,,
158.5000000000,19,0.5417745709,,,
158.7500000000,19,0.5404937863,,,
159.0000000000,19,0.5417745709,,,
159.2500000000,19,0.5404937863,,,
159.5000000000,19,0.5417745709,,,
159.7500000000,19,0.5417745709,,,
160.0000000000,20,0.5456169844,,,
160.2500000000,20,0.5417745709,,,
160.5000000000,20,0.5456169844,,,
160.7500000000,20,0.5417745709,,,
161.0000000000,20,0.5443361998,,,
161.2500000000,20,0.5417745709,,,
161.5000000000,20,0.5430554152,,,
161.7500000000,20,0.5404937863,,,
162.0000000000,20,0.5404937863,,,
162.2500000000,20,0.5392131209,,,
162.5000000000,20,0.5392131209,,,
162.7500000000,20,0.5392131209,,,
163.0000000000,20,0.5392131209,,,
163.2500000000,20,0.5392131209,,,
163.5000000000,20,0.5392131209,,,
163.7500000000,20,0.5392131209,,,
164.0000000000,20,0.5379322767,,,
164.2500000000,20,0.5404937863,,,
164.5000000000,20,0.5379322767,,,
164.7500000000,20,0.5404937863,,,
165.0000000000,20,0.5366514921,,,
165.2500000000,20,0.5392131209,,,
165.5000000000,20,0.5366514921,,,
165.7500000000,20,0.5379322767,,,
166.0000000000,20,0.5379322767,,,
166.2500000000,20,0.5353707075,,,
166.5000000000,20,0.5340899229,,,
166.7500000000,20,0.5353707075,,,
167.0000000000,20,0.5379322767,,,
167.2500000000,20,0.5366514921,,,
167.5000000000,20,0.5392131209,,,
167.7500000000,20,0.5430554152,,,
168.0000000000,21,0.5558633208,,,
168.2500000000,21,0.5789176226,,,
168.5000000000,21,0.6006910205,,,
168.7500000000,21,0.6263068914,,,
169.0000000000,21,0.6467995048,,,
169.2500000000,21,0.6557651162,,,
169.5000000000,21,0.6621689796,,,
169.7500000000,21,0.6621689796,,,
170.0000000000,21,0.6647306085,,,
170.2500000000,21,0.6608883142,,,
170.5000000000,21,0.6570457816,,,
170.7500000000,21,0.6532034874,,,
171.0000000000,21,0.6493610740,,,
171.2500000000,21,0.6455187201,,,
171.5000000000,21,0.6429572105,,,
171.7500000000,21,0.6416764259,,,
172.0000000000,21,0.6416764259,,,
172.2500000000,21,0.6442378759,,,
172.5000000000,21,0.6403955817,,,
172.7500000000,21,0.6403955817,,,
173.0000000000,21,0.6365532279,,,
173.2500000000,21,0.6365532279,,,
173.5000000000,21,0.6327108145,,,
173.7500000000,21,0.6314299703,,,
174.0000000000,21,0.6288685203,,,
174.2500000000,21,0.6288685203,,,
174.5000000000,21,0.6237453222,,,
174.7500000000,21,0.6237453222,,,
175.0000000000,21,0.6237453222,,,
175.2500000000,21,0.6211836934,,,
175.5000000000,21,0.6186221242,,,
175.7500000000,21,0.6160606146,,,
176.0000000000,22,0.6134989262,,,
176.2500000000,22,0.6134989262,,,
176.5000000000,22,0.6147797704,,,
176.7500000000,22,0.6032525897,,,
177.0000000000,22,0.6134989262,,,
177.2500000000,22,0.6160606146,,,
177.5000000000,22,0.6173412800,,,
177.7500000000,22,0.6134989262,,,
178.0000000000,22,0.6122180820,,,
178.2500000000,22,0.6122180820,,,
178.5000000000,22,0.6096565723,,,
178.7500000000,22,0.6083757877,,,
179.0000000000,22,0.6070950031,,,
179.2500000000,22,0.6083757877,,,
179.5000000000,22,0.6058142185,,,
179.7500000000,22,0.6070950031,,,
180.0000000000,22,0.6045333743,,,
180.2500000000,22,0.6045333743,,,
180.5000000000,22,0.6019718051,,,
180.7500000000,22,0.6006910205,,,
181.0000000000,22,0.6006910205,,,
181.2500000000,22,0.6006910205,,,
181.5000000000,22,0.5994101763,,,
181.7500000000,22,0.5994101763,,,
182.0000000000,22,0.6006910205,,,
182.2500000000,22,0.5981295109,,,
182.5000000000,22,0.5994101763,,,
182.7500000000,22,0.5968487263,,,
183.0000000000,22,0.5994101763,,,
183.2500000000,22,0.5955678821,,,
183.5000000000,22,0.5955678821,,,
183.7500000000,22,0.5942870975,,,
184.0000000000,23,0.5930063128,,,
184.2500000000,23,0.5942870975,,,
184.5000000000,23,0.5917255282,,,
184.7500000000,23,0.5942870975,,,
185.0000000000,23,0.5917255282,,,
185.2500000000,23,0.5917255282,,,
185.5000000000,23,0.5891638994,,,
185.7500000000,23,0.5878831148,,,
186.0000000000,23,0.5878831148,,,
186.2500000000,23,0.5853214860,,,
186.5000000000,23,0.5853214860,,,
186.7500000000,23,0.5840408206,,,
187.0000000000,23,0.5853214860,,,
187.2500000000,23,0.5840408206,,,
187.5000000000,23,0.5853214860,,,
187.7500000000,23,0.5827599764,,,
188.0000000000,23,0.5814791918,,,
188.2500000000,23,0.5814791918,,,
188.5000000000,23,0.5801984072,,,
188.7500000000,23,0.5801984072,,,
189.0000000000,23,0.5801984072,,,
189.2500000000,23,0.5814791918,,,
189.5000000000,23,0.5801984072,,,
189.7500000000,23,0.5814791918,,,
190.0000000000,23,0.5827599764,,,
190.2500000000,23,0.5801984072,,,
190.5000000000,23,0.5789176226,,,
190.7500000000,23,0.5789176226,,,
191.0000000000,23,0.5801984072,,,
191.2500000000,23,0.5776367784,,,
191.5000000000,23,0.5789176226,,,
191.7500000000,23,0.5763559937,,,
192.0000000000,24,0.5763559937,,,
192.2500000000,24,0.5737944245,,,
192.5000000000,24,0.5737944245,,,
192.7500000000,24,0.5750752091,,,
193.0000000000,24,0.5725135803,,,
193.2500000000,24,0.5725135803,,,
193.5000000000,24,0.5712329149,,,
193.7500000000,24,0.5712329149,,,
194.0000000000,24,0.5686712861,,,
194.2500000000,24,0.5725135803,,,
194.5000000000,24,0.5699520707,,,
194.7500000000,24,0.5699520707,,,
195.0000000000,24,0.5673903823,,,
195.2500000000,24,0.5686712861,,,
195.5000000000,24,0.5661097169,,,
195.7500000000,24,0.5673903823,,,
196.0000000000,24,0.5661097169,,,
196.2500000000,24,0.5648288727,,,
196.5000000000,24,0.5635480881,,,
196.7500000000,24,0.5648288727,,,
197.0000000000,24,0.5661097169,,,
197.2500000000,24,0.5635480881,,,
197.5000000000,24,0.5648288727,,,
197.7500000000,24,0.5635480881,,,
198.0000000000,24,0.5622673035,,,
198.2500000000,24,0.5622673035,,,
198.5000000000,24,0.5622673035,,,
198.7500000000,24,0.5597056746,,,
199.0000000000,24,0.5597056746,,,
199.2500000000,24,0.5584248900,,,
199.5000000000,24,0.5597056746,,,
199.7500000000,24,0.5571442246,,,
200.0000000000,25,0.5597056746,,,
200.2500000000,25,0.5597056746,,,
200.5000000000,25,0.5597056746,,,
200.7500000000,25,0.5597056746,,,
201.0000000000,25,0.5597056746,,,
201.2500000000,25,0.5597056746,,,
201.5000000000,25,0.5597056746,,,
201.7500000000,25,0.5597056746,,,
202.0000000000,25,0.5597056746,,,
202.2500000000,25,0.5597056746,,,
202.5000000000,25,0.5597056746,,,
202.7500000000,25,0.5597056746,,,
203.0000000000,25,0.5597056746,,,
203.2500000000,25,0.5597056746,,,
203.5000000000,25,0.5597056746,,,
203.7500000000,25,0.5597056746,,,
204.0000000000,25,0.5597056746,,,
204.2500000000,25,0.5597056746,,,
204.5000000000,25,0.5597056746,,,
204.7500000000,25,0.5597056746,,,
205.0000000000,25,0.5597056746,,,
205.2500000000,25,0.5597056746,,,
205.5000000000,25,0.5597056746,,,
205.7500000000,25,0.5597056746,,,
206.0000000000,25,0.5597056746,,,
206.2500000000,25,0.5597056746,,,
206.5000000000,25,0.5597056746,,,
206.7500000000,25,0.5597056746,,,
207.0000000000,25,0.5597056746,,,
207.2500000000,25,0.5597056746,,,
207.5000000000,25,0.5597056746,,,
207.7500000000,25,0.5597056746,,,
208.0000000000,26,0.5597056746,,,
208.2500000000,26,0.5597056746,,,
208.5000000000,26,0.5584248900,,,
208.7500000000,26,0.5597056746,,,
209.0000000000,26,0.5545824766,,,
209.2500000000,26,0.5571442246,,,
209.5000000000,26,0.5558633208,,,
209.7500000000,26,0.5571442246,,,
210.0000000000,26,0.5571442246,,,
210.2500000000,26,0.5571442246,,,
210.5000000000,26,0.5571442246,,,
210.7500000000,26,0.5571442246,,,
211.0000000000,26,0.5571442246,,,
211.2500000000,26,0.5571442246,,,
211.5000000000,26,0.5571442246,,,
211.7500000000,26,0.5571442246,,,
212.0000000000,26,0.5571442246,,,
212.2500000000,26,0.5571442246,,,
212.5000000000,26,0.5571442246,,,
212.7500000000,26,0.5571442246,,,
213.0000000000,26,0.5571442246,,,
213.2500000000,26,0.5545824766,,,
213.5000000000,26,0.5545824766,,,
213.7500000000,26,0.5507401824,,,
214.0000000000,26,0.5520210266,,,
214.2500000000,26,0.5494593978,,,
214.5000000000,26,0.5494593978,,,
214.7500000000,26,0.5481786132,,,
215.0000000000,26,0.5468978286,,,
215.2500000000,26,0.5481786132,,,
215.5000000000,26,0.5456169844,,,
215.7500000000,26,0.5443361998,,,
216.0000000000,27,0.5417745709,,,
216.2500000000,27,0.5443361998,,,
216.5000000000,27,0.5404937863,,,
216.7500000000,27,0.5417745709,,,
217.0000000000,27,0.5417745709,,,
217.2500000000,27,0.5404937863,,,
217.5000000000,27,0.5379322767,,,
217.7500000000,27,0.5404937863,,,
218.0000000000,27,0.5392131209,,,
218.2500000000,27,0.5392131209,,,
218.5000000000,27,0.5366514921,,,
218.7500000000,27,0.5340899229,,,
219.0000000000,27,0.5353707075,,,
219.2500000000,27,0.5328090787,,,
219.5000000000,27,0.5315282941,,,
219.7500000000,27,0.5315282941,,,
220.0000000000,27,0.5315282941,,,
220.2500000000,27,0.5302475095,,,
220.5000000000,27,0.5302475095,,,
220.7500000000,27,0.5289667249,,,
221.0000000000,27,0.5276858807,,,
221.2500000000,27,0.5264052153,,,
221.5000000000,27,0.5276858807,,,
221.7500000000,27,0.5251243711,,,
222.0000000000,27,0.5264052153,,,
222.2500000000,27,0.5212820172,,,
222.5000000000,27,0.5238435864,,,
222.7500000000,27,0.5238435864,,,
223.0000000000,27,0.5225628018,,,
223.2500000000,27,0.5200011730,,,
223.5000000000,27,0.5212820172,,,
223.7500000000,27,0.5187203884,,,
224.0000000000,28,0.5174396038,,,
224.2500000000,28,0.5161588192,,,
224.5000000000,28,0.5135971904,,,
224.7500000000,28,0.5148779750,,,
225.0000000000,28,0.5123165250,,,
225.2500000000,28,0.5123165250,,,
225.5000000000,28,0.5110356808,,,
225.7500000000,28,0.5110356808,,,
226.0000000000,28,0.5084741116,,,
226.2500000000,28,0.5097547770,,,
226.5000000000,28,0.5059124827,,,
226.7500000000,28,0.5071933270,,,
227.0000000000,28,0.5046316981,,,
227.2500000000,28,0.5046316981,,,
227.5000000000,28,0.5020701289,,,
227.7500000000,28,0.5020701289,,,
228.0000000000,28,0.4995085001,,,
228.2500000000,28,0.4995085001,,,
228.5000000000,28,0.4969469905,,,
228.7500000000,28,0.4982276857,,,
229.0000000000,28,0.4956660867,,,
229.2500000000,28,0.4956660867,,,
229.5000000000,28,0.4931046069,,,
229.7500000000,28,0.4943853915,,,
230.0000000000,28,0.4905430079,,,
230.2500000000,28,0.4905430079,,,
230.5000000000,28,0.4918237925,,,
230.7500000000,28,0.4892621934,,,
231.0000000000,28,0.4867005944,,,
231.2500000000,28,0.4854198098,,,
231.5000000000,28,0.4867005944,,,
231.7500000000,28,0.4828582108,,,
232.0000000000,29,0.4815774858,,,
232.2500000000,29,0.4790158868,,,
232.5000000000,29,0.4815774858,,,
232.7500000000,29,0.4790158868,,,
233.0000000000,29,0.4815774858,,,
233.2500000000,29,0.4777351022,,,
233.5000000000,29,0.4790158868,,,
233.7500000000,29,0.4764542878,,,
234.0000000000,29,0.4777351022,,,
234.2500000000,29,0.4738926888,,,
234.5000000000,29,0.4751735032,,,
234.7500000000,29,0.4726119041,,,
235.0000000000,29,0.4700503051,,,
235.2500000000,29,0.4700503051,,,
235.5000000000,29,0.4726119041,,,
235.7500000000,29,0.4700503051,,,
236.0000000000,29,0.4713310897,,,
236.2500000000,29,0.4687696099,,,
236.5000000000,29,0.4687696099,,,
236.7500000000,29,0.4687696099,,,
237.0000000000,29,0.4674887955,,,
237.2500000000,29,0.4687696099,,,
237.5000000000,29,0.4662080109,,,
237.7500000000,29,0.4662080109,,,
238.0000000000,29,0.4649271965,,,
238.2500000000,29,0.4662080109,,,
238.5000000000,29,0.4623655975,,,
238.7500000000,29,0.4636464119,,,
239.0000000000,29,0.4610848129,,,
239.2500000000,29,0.4610848129,,,
239.5000000000,29,0.4649271965,,,
239.7500000000,29,0.4636464119,,,
240.0000000000,30,0.4649271965,,,
240.2500000000,30,0.4662080109,,,
240.5000000000,30,0.4700503051,,,
240.7500000000,30,0.4687696099,,,
241.0000000000,30,0.4700503051,,,
241.2500000000,30,0.4687696099,,,
241.5000000000,30,0.4713310897,,,
241.7500000000,30,0.4687696099,,,
242.0000000000,30,0.4713310897,,,
242.2500000000,30,0.4674887955,,,
242.5000000000,30,0.4687696099,,,
242.7500000000,30,0.4649271965,,,
243.0000000000,30,0.4662080109,,,
243.2500000000,30,0.4674887955,,,
243.5000000000,30,0.4649271965,,,
243.7500000000,30,0.4649271965,,,
244.0000000000,30,0.4623655975,,,
244.2500000000,30,0.4636464119,,,
244.5000000000,30,0.4636464119,,,
244.7500000000,30,0.4636464119,,,
245.0000000000,30,0.4610848129,,,
245.2500000000,30,0.4636464119,,,
245.5000000000,30,0.4598039985,,,
245.7500000000,30,0.4623655975,,,
246.0000000000,30,0.4598039985,,,
246.2500000000,30,0.4585232139,,,
246.5000000000,30,0.4585232139,,,
246.7500000000,30,0.4559616148,,,
247.0000000000,30,0.4559616148,,,
247.2500000000,30,0.4546808004,,,
247.5000000000,30,0.4559616148,,,
247.7500000000,30,0.4521192908,,,
248.0000000000,31,0.4533999860,,,
248.2500000000,31,0.4508385062,,,
248.5000000000,31,0.4521192908,,,
248.7500000000,31,0.4495576918,,,
249.0000000000,31,0.4508385062,,,
249.2500000000,31,0.4482769072,,,
249.5000000000,31,0.4482769072,,,
249.7500000000,31,0.4482769072,,,
250.0000000000,31,0.4457153082,,,
250.2500000000,31,0.4457153082,,,
250.5000000000,31,0.4431537092,,,
250.7500000000,31,0.4444344938,,,
251.0000000000,31,0.4418728948,,,
251.2500000000,31,0.4431537092,,,
251.5000000000,31,0.4405921102,,,
251.7500000000,31,0.4418728948,,,
252.0000000000,31,0.4405921102,,,
252.2500000000,31,0.4431537092,,,
252.5000000000,31,0.4431537092,,,
252.7500000000,31,0.4444344938,,,
253.0000000000,31,0.4431537092,,,
253.2500000000,31,0.4418728948,,,
253.5000000000,31,0.4418728948,,,
253.7500000000,31,0.4393113852,,,
254.0000000000,31,0.4405921102,,,
254.2500000000,31,0.4380306005,,,
254.5000000000,31,0.4367497861,,,
254.7500000000,31,0.4354690015,,,
255.0000000000,31,0.4354690015,,,
255.2500000000,31,0.4329074025,,,
255.5000000000,31,0.4329074025,,,
255.7500000000,31,0.4329074025,,,
256.0000000000,32,0.4303458035,,,
256.2500000000,32,0.4303458035,,,
256.5000000000,32,0.4316265881,,,
256.7500000000,32,0.4290649891,,,
257.0000000000,32,0.4316265881,,,
257.2500000000,32,0.4303458035,,,
257.5000000000,32,0.4316265881,,,
257.7500000000,32,0.4277842045,,,
258.0000000000,32,0.4277842045,,,
258.2500000000,32,0.4252226055,,,
258.5000000000,32,0.4277842045,,,
258.7500000000,32,0.4239419103,,,
259.0000000000,32,0.4252226055,,,
259.2500000000,32,0.4252226055,,,
259.5000000000,32,0.4239419103,,,
259.7500000000,32,0.4239419103,,,
260.0000000000,32,0.4226610959,,,
260.2500000000,32,0.4252226055,,,
260.5000000000,32,0.4226610959,,,
260.7500000000,32,0.4226610959,,,
261.0000000000,32,0.4200994968,,,
261.2500000000,32,0.4188187122,,,
261.5000000000,32,0.4188187122,,,
261.7500000000,32,0.4188187122,,,
262.0000000000,32,0.4175378978,,,
262.2500000000,32,0.4200994968,,,
262.5000000000,32,0.4188187122,,,
262.7500000000,32,0.4188187122,,,
263.0000000000,32,0.4175378978,,,
263.2500000000,32,0.4175378978,,,
263.5000000000,32,0.4162571132,,,
263.7500000000,32,0.4175378978,,,
264.0000000000,33,0.4149762988,,,
264.2500000000,33,0.4188187122,,,
264.5000000000,33,0.4149762988,,,
264.7500000000,33,0.4162571132,,,
265.0000000000,33,0.4162571132,,,
265.2500000000,33,0.4162571132,,,
265.5000000000,33,0.4162571132,,,
265.7500000000,33,0.4162571132,,,
266.0000000000,33,0.4162571132,,,
266.2500000000,33,0.4162571132,,,
266.5000000000,33,0.4162571132,,,
266.7500000000,33,0.4162571132,,,
267.0000000000,33,0.4162571132,,,
267.2500000000,33,0.4162571132,,,
267.5000000000,33,0.4162571132,,,
267.7500000000,33,0.4162571132,,,
268.0000000000,33,0.4162571132,,,
268.2500000000,33,0.4162571132,,,
268.5000000000,33,0.4162571132,,,
268.7500000000,33,0.4162571132,,,
269.0000000000,33,0.4162571132,,,
269.2500000000,33,0.4162571132,,,
269.5000000000,33,0.4162571132,,,
269.7500000000,33,0.4162571132,,,
270.0000000000,33,0.4162571132,,,
270.2500000000,33,0.4162571132,,,
270.5000000000,33,0.4162571132,,,
270.7500000000,33,0.4162571132,,,
271.0000000000,33,0.4162571132,,,
271.2500000000,33,0.4162571132,,,
271.5000000000,33,0.4162571132,,,
271.7500000000,33,0.4162571132,,,
272.0000000000,34,0.4162571132,,,
272.2500000000,34,0.4162571132,,,
272.5000000000,34,0.4162571132,,,
272.7500000000,34,0.4162571132,,,
273.0000000000,34,0.4162571132,,,
273.2500000000,34,0.4162571132,,,
273.5000000000,34,0.4162571132,,,
273.7500000000,34,0.4162571132,,,
274.0000000000,34,0.4162571132,,,
274.2500000000,34,0.4162571132,,,
274.5000000000,34,0.4162571132,,,
274.7500000000,34,0.4162571132,,,
275.0000000000,34,0.4162571132,,,
275.2500000000,34,0.4162571132,,,
275.5000000000,34,0.4162571132,,,
275.7500000000,34,0.4162571132,,,
276.0000000000,34,0.4162571132,,,
276.2500000000,34,0.4162571132,,,
276.5000000000,34,0.4162571132,,,
276.7500000000,34,0.4162571132,,,
277.0000000000,34,0.4162571132,,,
277.2500000000,34,0.4162571132,,,
277.5000000000,34,0.4162571132,,,
277.7500000000,34,0.4162571132,,,
278.0000000000,34,0.4162571132,,,
278.2500000000,34,0.4162571132,,,
278.5000000000,34,0.4162571132,,,
278.7500000000,34,0.4162571132,,,
279.0000000000,34,0.4162571132,,,
279.2500000000,34,0.4162571132,,,
279.5000000000,34,0.4162571132,,,
279.7500000000,34,0.4162571132,,,
280.0000000000,35,0.4162571132,,,
280.2500000000,35,0.4162571132,,,
280.5000000000,35,0.4162571132,,,
280.7500000000,35,0.4162571132,,,
281.0000000000,35,0.4162571132,,,
281.2500000000,35,0.4162571132,,,
281.5000000000,35,0.4162571132,,,
281.7500000000,35,0.4162571132,,,
282.0000000000,35,0.4162571132,,,
282.2500000000,35,0.4188187122,,,
282.5000000000,35,0.4162571132,,,
282.7500000000,35,0.4149762988,,,
283.0000000000,35,0.4149762988,,,
283.2500000000,35,0.4021683931,,,
283.5000000000,35,0.4021683931,,,
283.7500000000,35,0.4021683931,,,
284.0000000000,35,0.4021683931,,,
284.2500000000,35,0.4021683931,,,
284.5000000000,35,0.4021683931,,,
284.7500000000,35,0.4021683931,,,
285.0000000000,35,0.4021683931,,,
285.2500000000,35,0.4021683931,,,
285.5000000000,35,0.4021683931,,,
285.7500000000,35,0.4021683931,,,
286.0000000000,35,0.4021683931,,,
286.2500000000,35,0.4021683931,,,
286.5000000000,35,0.4021683931,,,
286.7500000000,35,0.4021683931,,,
287.0000000000,35,0.4021683931,,,
287.2500000000,35,0.4021683931,,,
287.5000000000,35,0.4021683931,,,
287.7500000000,35,0.4021683931,,,
288.0000000000,36,0.3957644105,,,
288.2500000000,36,0.3957644105,,,
288.5000000000,36,0.3944836855,,,
288.7500000000,36,0.3957644105,,,
289.0000000000,36,0.3932029009,,,
289.2500000000,36,0.3944836855,,,
289.5000000000,36,0.3932029009,,,
289.7500000000,36,0.3944836855,,,
290.0000000000,36,0.3919220865,,,
290.2500000000,36,0.3932029009,,,
290.5000000000,36,0.3906413019,,,
290.7500000000,36,0.3944836855,,,
291.0000000000,36,0.3906413019,,,
291.2500000000,36,0.3919220865,,,
291.5000000000,36,0.3880797029,,,
291.7500000000,36,0.3880797029,,,
292.0000000000,36,0.3880797029,,,
292.2500000000,36,0.3867988884,,,
292.5000000000,36,0.3867988884,,,
292.7500000000,36,0.3842372894,,,
293.0000000000,36,0.3867988884,,,
293.2500000000,36,0.3829565048,,,
293.5000000000,36,0.3842372894,,,
293.7500000000,36,0.3816758096,,,
294.0000000000,36,0.3816758096,,,
294.2500000000,36,0.3739910126,,,
294.5000000000,36,0.3739910126,,,
294.7500000000,36,0.3714294136,,,
295.0000000000,36,0.3727101982,,,
295.2500000000,36,0.3701485991,,,
295.5000000000,36,0.3714294136,,,
295.7500000000,36,0.3688678145,,,
296.0000000000,37,0.3714294136,,,
296.2500000000,37,0.3688678145,,,
296.5000000000,37,0.3714294136,,,
296.7500000000,37,0.3688678145,,,
297.0000000000,37,0.3701485991,,,
297.2500000000,37,0.3675870001,,,
297.5000000000,37,0.3701485991,,,
297.7500000000,37,0.3663061857,,,
298.0000000000,37,0.3675870001,,,
298.2500000000,37,0.3650254905,,,
298.5000000000,37,0.3637447059,,,
298.7500000000,37,0.3650254905,,,
299.0000000000,37,0.3650254905,,,
299.2500000000,37,0.3675870001,,,
299.5000000000,37,0.3650254905,,,
299.7500000000,37,0.3663061857,,,
300.0000000000,37,0.3637447059,,,
300.2500000000,37,0.3650254905,,,
300.5000000000,37,0.3599022925,,,
300.7500000000,37,0.3599022925,,,
301.0000000000,37,0.3599022925,,,
301.2500000000,37,0.3586215079,,,
301.5000000000,37,0.3599022925,,,
301.7500000000,37,0.3586215079,,,
302.0000000000,37,0.3599022925,,,
302.2500000000,37,0.3547790945,,,
302.5000000000,37,0.3586215079,,,
302.7500000000,37,0.3560599089,,,
303.0000000000,37,0.3573406935,,,
303.2500000000,37,0.3547790945,,,
303.5000000000,37,0.3573406935,,,
303.7500000000,37,0.3547790945,,,
304.0000000000,38,0.3573406935,,,
304.2500000000,38,0.3547790945,,,
304.5000000000,38,0.3560599089,,,
304.7500000000,38,0.3534983099,,,
305.0000000000,38,0.3534983099,,,
305.2500000000,38,0.3522176147,,,
305.5000000000,38,0.3547790945,,,
305.7500000000,38,0.3509367108,,,
306.0000000000,38,0.3534983099,,,
306.2500000000,38,0.3496559858,,,
306.5000000000,38,0.3522176147,,,
306.7500000000,38,0.3445327878,,,
307.0000000000,38,0.3419711888,,,
307.2500000000,38,0.3458136022,,,
307.5000000000,38,0.3445327878,,,
307.7500000000,38,0.3483752012,,,
308.0000000000,38,0.3458136022,,,
308.2500000000,38,0.3470943868,,,
308.5000000000,38,0.3470943868,,,
308.7500000000,38,0.3470943868,,,
309.0000000000,38,0.3496559858,,,
309.2500000000,38,0.3483752012,,,
309.5000000000,38,0.3496559858,,,
309.7500000000,38,0.3483752012,,,
310.0000000000,38,0.3496559858,,,
310.2500000000,38,0.3483752012,,,
310.5000000000,38,0.3509367108,,,
310.7500000000,38,0.3483752012,,,
311.0000000000,38,0.3483752012,,,
311.2500000000,38,0.3470943868,,,
311.5000000000,38,0.3470943868,,,
311.7500000000,38,0.3458136022,,,
