Time:4Hz,Epoch,Channel 1,Event Id,Event Date,Event Duration
0.0000000000,0,2.4163229465,,,
0.2500000000,0,2.4214470387,,,
0.5000000000,0,2.4624369144,,,
0.7500000000,0,2.5047080517,,,
1.0000000000,0,2.5495409966,,,
1.2500000000,0,2.5815649033,,,
1.5000000000,0,2.5866889954,,,
1.7500000000,0,2.5943739414,,,
2.0000000000,0,2.5815649033,,,
2.2500000000,0,2.5687549114,,,
2.5000000000,0,2.5508220196,,,
2.7500000000,0,2.5316081047,,,
3.0000000000,0,2.5239219666,,,
3.2500000000,0,2.5098319054,,,
3.5000000000,0,2.5059890747,,,
3.7500000000,0,2.5162370205,,,
4.0000000000,0,2.5380129814,,,
4.2500000000,0,2.5623509884,,,
4.5000000000,0,2.5854079723,,,
4.7500000000,0,2.5982170105,,,
5.0000000000,0,2.6033411026,,,
5.2500000000,0,2.5969359875,,,
5.5000000000,0,2.6071839333,,,
5.7500000000,0,2.6046218872,,,
6.0000000000,0,2.6020600796,,,
6.2500000000,0,2.6084649563,,,
6.5000000000,0,2.6212739944,,,
6.7500000000,0,2.6456120014,,,
7.0000000000,0,2.6699500084,,,
7.2500000000,0,2.6981310844,,,
7.5000000000,0,2.7519309521,,,
7.7500000000,0,2.7839539051,,,
8.0000000000,1,2.7954831123,,,
8.2500000000,1,2.7993259430,,,
8.5000000000,1,2.7942020893,,,
8.7500000000,1,2.7916400433,,,
9.0000000000,1,2.7980449200,,,
9.2500000000,1,2.8146970272,,,
9.5000000000,1,2.8185400963,,,
9.7500000000,1,2.8211019039,,,
10.0000000000,1,2.8108539581,,,
10.2500000000,1,2.7903590202,,,
10.5000000000,1,2.7762689590,,,
10.7500000000,1,2.7455260754,,,
11.0000000000,1,2.7404019833,,,
11.2500000000,1,2.7365589142,,,
11.5000000000,1,2.7442450523,,,
11.7500000000,1,2.7506499290,,,
12.0000000000,1,2.7455260754,,,
12.2500000000,1,2.7442450523,,,
12.5000000000,1,2.7263119221,,,
12.7500000000,1,2.7160639763,,,
13.0000000000,1,2.7032549381,,,
13.2500000000,1,2.6827600002,,,
13.5000000000,1,2.6686689854,,,
13.7500000000,1,2.6494550705,,,
14.0000000000,1,2.6379270554,,,
14.2500000000,1,2.6328029633,,,
14.5000000000,1,2.6187119484,,,
14.7500000000,1,2.6199929714,,,
15.0000000000,1,2.6148700714,,,
15.2500000000,1,2.6148700714,,,
15.5000000000,1,2.6161499023,,,
15.7500000000,1,2.6084649563,,,
16.0000000000,2,2.6046218872,,,
16.2500000000,2,2.5994980335,,,
16.5000000000,2,2.5969359875,,,
16.7500000000,2,2.5892510414,,,
17.0000000000,2,2.5828459263,,,
17.2500000000,2,2.5815649033,,,
17.5000000000,2,2.5764410496,,,
17.7500000000,2,2.5828459263,,,
18.0000000000,2,2.5738790035,,,
18.2500000000,2,2.5725979805,,,
18.5000000000,2,2.5700359344,,,
18.7500000000,2,2.5674750805,,,
19.0000000000,2,2.5649130344,,,
19.2500000000,2,2.5610699654,,,
19.5000000000,2,2.5636320114,,,
19.7500000000,2,2.5610699654,,,
20.0000000000,2,2.5572268963,,,
20.2500000000,2,2.5559461117,,,
20.5000000000,2,2.5508220196,,,
20.7500000000,2,2.5495409966,,,
21.0000000000,2,2.5482599735,,,
21.2500000000,2,2.5469789505,,,
21.5000000000,2,2.5431370735,,,
21.7500000000,2,2.5444169044,,,
22.0000000000,2,2.5418560505,,,
22.2500000000,2,2.5431370735,,,
22.5000000000,2,2.5495409966,,,
22.7500000000,2,2.5431370735,,,
23.0000000000,2,2.5444169044,,,
23.2500000000,2,2.5444169044,,,
23.5000000000,2,2.5418560505,,,
23.7500000000,2,2.5469789505,,,
24.0000000000,3,2.5367319584,,,
24.2500000000,3,2.5380129814,,,
24.5000000000,3,2.5405750275,,,
24.7500000000,3,2.5431370735,,,
25.0000000000,3,2.5636320114,,,
25.2500000000,3,2.5738790035,,,
25.5000000000,3,2.5828459263,,,
25.7500000000,3,2.5918118954,,,
26.0000000000,3,2.5892510414,,,
26.2500000000,3,2.5815649033,,,
26.5000000000,3,2.5892510414,,,
26.7500000000,3,2.5879700184,,,
27.0000000000,3,2.5802841187,,,
27.2500000000,3,2.5790030956,,,
27.5000000000,3,2.5918118954,,,
27.7500000000,3,2.6187119484,,,
28.0000000000,3,2.6635448933,,,
28.2500000000,3,2.6930069923,,,
28.5000000000,3,2.7160639763,,,
28.7500000000,3,2.7301549911,,,
29.0000000000,3,2.7327170372,,,
29.2500000000,3,2.7442450523,,,
29.5000000000,3,2.7506499290,,,
29.7500000000,3,2.7660210133,,,
30.0000000000,3,2.7801120281,,,
30.2500000000,3,2.7942020893,,,
30.5000000000,3,2.7980449200,,,
30.7500000000,3,2.7890779972,,,
31.0000000000,3,2.7801120281,,,
31.2500000000,3,2.7660210133,,,
31.5000000000,3,2.7480878830,,,
31.7500000000,3,2.7314360142,,,
32.0000000000,4,2.7199070454,,,
32.2500000000,4,2.6981310844,,,
32.5000000000,4,2.6878829002,,,
32.7500000000,4,2.6725120544,,,
33.0000000000,4,2.6699500084,,,
33.2500000000,4,2.6609840393,,,
33.5000000000,4,2.6520171165,,,
33.7500000000,4,2.6468930244,,,
34.0000000000,4,2.6443309784,,,
34.2500000000,4,2.6379270554,,,
34.5000000000,4,2.6315219402,,,
34.7500000000,4,2.6315219402,,,
35.0000000000,4,2.6302409172,,,
35.2500000000,4,2.6392068863,,,
35.5000000000,4,2.6699500084,,,
35.7500000000,4,2.6968500614,,,
36.0000000000,4,2.7263119221,,,
36.2500000000,4,2.7480878830,,,
36.5000000000,4,2.7468070984,,,
36.7500000000,4,2.7493689060,,,
37.0000000000,4,2.7416830063,,,
37.2500000000,4,2.7288739681,,,
37.5000000000,4,2.7173449993,,,
37.7500000000,4,2.7045359612,,,
38.0000000000,4,2.7070980072,,,
38.2500000000,4,2.7199070454,,,
38.5000000000,4,2.7557740211,,,
38.7500000000,4,2.7737069130,,,
39.0000000000,4,2.7865159512,,,
39.2500000000,4,2.7877969742,,,
39.5000000000,4,2.7852349281,,,
39.7500000000,4,2.7801120281,,,
40.0000000000,5,2.7660210133,,,
40.2500000000,5,2.7596158981,,,
40.5000000000,5,2.7442450523,,,
40.7500000000,5,2.7365589142,,,
41.0000000000,5,2.7314360142,,,
41.2500000000,5,2.7263119221,,,
41.5000000000,5,2.7199070454,,,
41.7500000000,5,2.7147829533,,,
42.0000000000,5,2.7083790302,,,
42.2500000000,5,2.7083790302,,,
42.5000000000,5,2.6981310844,,,
42.7500000000,5,2.6968500614,,,
43.0000000000,5,2.6955690384,,,
43.2500000000,5,2.6840410233,,,
43.5000000000,5,2.6891639233,,,
43.7500000000,5,2.6814789772,,,
44.0000000000,5,2.6840410233,,,
44.2500000000,5,2.6789169312,,,
44.5000000000,5,2.6737930775,,,
44.7500000000,5,2.6737930775,,,
45.0000000000,5,2.6699500084,,,
45.2500000000,5,2.6686689854,,,
45.5000000000,5,2.6661069393,,,
45.7500000000,5,2.6699500084,,,
46.0000000000,5,2.6661069393,,,
46.2500000000,5,2.6661069393,,,
46.5000000000,5,2.6686689854,,,
46.7500000000,5,2.6673879623,,,
47.0000000000,5,2.6686689854,,,
47.2500000000,5,2.6673879623,,,
47.5000000000,5,2.6661069393,,,
47.7500000000,5,2.6686689854,,,
48.0000000000,6,2.6635448933,,,
48.2500000000,6,2.6699500084,,,
48.5000000000,6,2.6673879623,,,
48.7500000000,6,2.6673879623,,,
49.0000000000,6,2.6712310314,,,
49.2500000000,6,2.6930069923,,,
49.5000000000,6,2.7224690914,,,
49.7500000000,6,2.7608969212,,,
50.0000000000,6,2.7980449200,,,
50.2500000000,6,2.8172590733,,,
50.5000000000,6,2.8326299191,,,
50.7500000000,6,2.8441588879,,,
51.0000000000,6,2.8620920181,,,
51.2500000000,6,2.8646540642,,,
51.5000000000,6,2.8723390102,,,
51.7500000000,6,2.8966770172,,,
52.0000000000,6,2.9363870621,,,
52.2500000000,6,2.9825010300,,,
52.5000000000,6,3.0000379086,,,
52.7500000000,6,3.0077240467,,,
53.0000000000,6,3.0090050697,,,
53.2500000000,6,2.9936330318,,,
53.5000000000,6,2.9795429707,,,
53.7500000000,6,2.9539239407,,,
54.0000000000,6,2.9334290028,,,
54.2500000000,6,2.9103720188,,,
54.5000000000,6,2.8809099197,,,
54.7500000000,6,2.8616960049,,,
55.0000000000,6,2.8437631130,,,
55.2500000000,6,2.8386390209,,,
55.5000000000,6,2.8194251060,,,
55.7500000000,6,2.8232679367,,,
56.0000000000,7,2.8476049900,,,
56.2500000000,7,2.8668200970,,,
56.5000000000,7,2.8783481121,,,
56.7500000000,7,2.8860340118,,,
57.0000000000,7,2.8885960579,,,
57.2500000000,7,2.8796288967,,,
57.5000000000,7,2.8681008816,,,
57.7500000000,7,2.8629770279,,,
58.0000000000,7,2.8527290821,,,
58.2500000000,7,2.8514480591,,,
58.5000000000,7,2.8360769749,,,
58.7500000000,7,2.8360769749,,,
59.0000000000,7,2.8360769749,,,
59.2500000000,7,2.8399200439,,,
59.5000000000,7,2.8770670891,,,
59.7500000000,7,2.9039669037,,,
60.0000000000,7,2.9564859867,,,
60.2500000000,7,2.9769809246,,,
60.5000000000,7,2.9923520088,,,
60.7500000000,7,2.9897899628,,,
61.0000000000,7,2.9859480858,,,
61.2500000000,7,2.9718570709,,,
61.5000000000,7,2.9526429176,,,
61.7500000000,7,2.9411149025,,,
62.0000000000,7,2.9283049107,,,
62.2500000000,7,2.9167768955,,,
62.5000000000,7,2.9206190109,,,
62.7500000000,7,2.9103720188,,,
63.0000000000,7,2.9193379879,,,
63.2500000000,7,2.9270238876,,,
63.5000000000,7,2.9359910488,,,
63.7500000000,7,2.9308669567,,,
64.0000000000,8,2.9231810570,,,
64.2500000000,8,2.9283049107,,,
64.5000000000,8,2.9359910488,,,
64.7500000000,8,2.9628911018,,,
65.0000000000,8,3.0269379616,,,
65.2500000000,8,3.0781760216,,,
65.5000000000,8,3.1166040897,,,
65.7500000000,8,3.1268520355,,,
66.0000000000,8,3.1281330585,,,
66.2500000000,8,3.1101989746,,,
66.5000000000,8,3.1012330055,,,
66.7500000000,8,3.1191658974,,,
67.0000000000,8,3.1473469734,,,
67.2500000000,8,3.1704039574,,,
67.5000000000,8,3.1793699265,,,
67.7500000000,8,3.1742470264,,,
68.0000000000,8,3.1652801037,,,
68.2500000000,8,3.1473469734,,,
68.5000000000,8,3.1153230667,,,
68.7500000000,8,3.0858609676,,,
69.0000000000,8,3.0525569916,,,
69.2500000000,8,3.0307810307,,,
69.5000000000,8,3.0064430237,,,
69.7500000000,8,2.9936330318,,,
70.0000000000,8,2.9808239937,,,
70.2500000000,8,2.9718570709,,,
70.5000000000,8,2.9667329788,,,
70.7500000000,8,2.9577670097,,,
71.0000000000,8,2.9705760479,,,
71.2500000000,8,2.9654529095,,,
71.5000000000,8,2.9782619476,,,
71.7500000000,8,3.0384659767,,,
72.0000000000,9,3.1050760746,,,
72.2500000000,9,3.1934609413,,,
72.5000000000,9,3.2370131016,,,
72.7500000000,9,3.2536649704,,,
73.0000000000,9,3.2587890625,,,
73.2500000000,9,3.2434179783,,,
73.5000000000,9,3.2267649174,,,
73.7500000000,9,3.1960229874,,,
74.0000000000,9,3.1639990807,,,
74.2500000000,9,3.1345369816,,,
74.5000000000,9,3.1281330585,,,
74.7500000000,9,3.1383800507,,,
75.0000000000,9,3.1486279964,,,
75.2500000000,9,3.1704039574,,,
75.5000000000,9,3.1819319725,,,
75.7500000000,9,3.1883370876,,,
76.0000000000,9,3.1947419643,,,
76.2500000000,9,3.1921799183,,,
76.5000000000,9,3.1832129955,,,
76.7500000000,9,3.1627180576,,,
77.0000000000,9,3.1524710655,,,
77.2500000000,9,3.1383800507,,,
77.5000000000,9,3.1268520355,,,
77.7500000000,9,3.1076369286,,,
78.0000000000,9,3.0884230137,,,
78.2500000000,9,3.0794570446,,,
78.5000000000,9,3.0615229607,,,
78.7500000000,9,3.0602419376,,,
79.0000000000,9,3.0551190376,,,
79.2500000000,9,3.0512759686,,,
79.5000000000,9,3.0474328995,,,
79.7500000000,9,3.0435900688,,,
80.0000000000,10,3.0461521149,,,
80.2500000000,10,3.0397469997,,,
80.5000000000,10,3.0346240997,,,
80.7500000000,10,3.0320620537,,,
81.0000000000,10,3.0218141079,,,
81.2500000000,10,3.0218141079,,,
81.5000000000,10,3.0230948925,,,
81.7500000000,10,3.0230948925,,,
82.0000000000,10,3.0218141079,,,
82.2500000000,10,3.0218141079,,,
82.5000000000,10,3.0320620537,,,
82.7500000000,10,3.0295000076,,,
83.0000000000,10,3.0333430767,,,
83.2500000000,10,3.0359048843,,,
83.5000000000,10,3.0397469997,,,
83.7500000000,10,3.0307810307,,,
84.0000000000,10,3.0295000076,,,
84.2500000000,10,3.0282189846,,,
84.5000000000,10,3.0205330849,,,
84.7500000000,10,3.0230948925,,,
85.0000000000,10,3.0141279697,,,
85.2500000000,10,3.0128469467,,,
85.5000000000,10,3.0115671158,,,
85.7500000000,10,3.0051620007,,,
86.0000000000,10,3.0179710388,,,
86.2500000000,10,3.0282189846,,,
86.5000000000,10,3.0487139225,,,
86.7500000000,10,3.0666470528,,,
87.0000000000,10,3.0820190907,,,
87.2500000000,10,3.0884230137,,,
87.5000000000,10,3.0986709595,,,
87.7500000000,10,3.0948278904,,,
88.0000000000,11,3.0909850597,,,
88.2500000000,11,3.0794570446,,,
88.5000000000,11,3.0756139755,,,
88.7500000000,11,3.0628039837,,,
89.0000000000,11,3.0602419376,,,
89.2500000000,11,3.0499949455,,,
89.5000000000,11,3.0423090458,,,
89.7500000000,11,3.0435900688,,,
90.0000000000,11,3.0359048843,,,
90.2500000000,11,3.0371849537,,,
90.5000000000,11,3.0269379616,,,
90.7500000000,11,3.0320620537,,,
91.0000000000,11,3.0243759155,,,
91.2500000000,11,3.0256569386,,,
91.5000000000,11,3.0230948925,,,
91.7500000000,11,3.0205330849,,,
92.0000000000,11,3.0218141079,,,
92.2500000000,11,3.0192520618,,,
92.5000000000,11,3.0128469467,,,
92.7500000000,11,3.0141279697,,,
93.0000000000,11,3.0115671158,,,
93.2500000000,11,3.0141279697,,,
93.5000000000,11,3.0102860928,,,
93.7500000000,11,3.0141279697,,,
94.0000000000,11,3.0141279697,,,
94.2500000000,11,3.0102860928,,,
94.5000000000,11,3.0102860928,,,
94.7500000000,11,3.0064430237,,,
95.0000000000,11,3.0090050697,,,
95.2500000000,11,3.0051620007,,,
95.5000000000,11,3.0038809776,,,
95.7500000000,11,3.0038809776,,,
96.0000000000,12,3.0025999546,,,
96.2500000000,12,3.0077240467,,,
96.5000000000,12,3.0013189316,,,
96.7500000000,12,3.0038809776,,,
97.0000000000,12,3.0038809776,,,
97.2500000000,12,3.0051620007,,,
97.5000000000,12,3.0013189316,,,
97.7500000000,12,2.9910709858,,,
98.0000000000,12,3.0025999546,,,
98.2500000000,12,2.9961950779,,,
98.5000000000,12,3.0038809776,,,
98.7500000000,12,2.9949140549,,,
99.0000000000,12,2.9974761009,,,
99.2500000000,12,2.9949140549,,,
99.5000000000,12,2.9949140549,,,
99.7500000000,12,2.9923520088,,,
100.0000000000,12,2.9923520088,,,
100.2500000000,12,2.9949140549,,,
100.5000000000,12,2.9859480858,,,
100.7500000000,12,2.9923520088,,,
101.0000000000,12,2.9923520088,,,
101.2500000000,12,2.9833860397,,,
101.5000000000,12,2.9872291088,,,
101.7500000000,12,2.9821050167,,,
102.0000000000,12,2.9833860397,,,
102.2500000000,12,2.9808239937,,,
102.5000000000,12,2.9821050167,,,
102.7500000000,12,2.9808239937,,,
103.0000000000,12,2.9782619476,,,
103.2500000000,12,2.9731380939,,,
103.5000000000,12,2.9782619476,,,
103.7500000000,12,2.9769809246,,,
104.0000000000,13,2.9782619476,,,
104.2500000000,13,2.9782619476,,,
104.5000000000,13,2.9808239937,,,
104.7500000000,13,2.9795429707,,,
105.0000000000,13,2.9782619476,,,
105.2500000000,13,2.9782619476,,,
105.5000000000,13,2.9833860397,,,
105.7500000000,13,2.9756999016,,,
106.0000000000,13,2.9744191170,,,
106.2500000000,13,2.9769809246,,,
106.5000000000,13,2.9718570709,,,
106.7500000000,13,2.9731380939,,,
107.0000000000,13,2.9705760479,,,
107.2500000000,13,2.9756999016,,,
107.5000000000,13,2.9769809246,,,
107.7500000000,13,2.9731380939,,,
108.0000000000,13,2.9769809246,,,
108.2500000000,13,2.9769809246,,,
108.5000000000,13,2.9769809246,,,
108.7500000000,13,2.9782619476,,,
109.0000000000,13,2.9872291088,,,
109.2500000000,13,2.9846670628,33025,109.4062500000,0.0000000000
109.5000000000,13,2.9821050167,33024:33025,109.5312500000:109.6250000000,0.0000000000:0.0000000000
109.7500000000,13,2.9846670628,33024,109.7812500000,0.0000000000
110.0000000000,13,2.9756999016,,,
110.2500000000,13,2.9808239937,,,
110.5000000000,13,2.9731380939,,,
110.7500000000,13,2.9744191170,,,
111.0000000000,13,2.9731380939,,,
111.2500000000,13,3.0128469467,,,
111.5000000000,13,3.1025140285,,,
111.7500000000,13,3.2229230404,,,
112.0000000000,14,3.3382079601,,,
112.2500000000,14,3.4048171043,,,
112.5000000000,14,3.4240310192,,,
112.7500000000,14,3.4304358959,,,
113.0000000000,14,3.4214689732,,,
113.2500000000,14,3.3958499432,,,
113.5000000000,14,3.3599839211,,,
113.7500000000,14,3.3253979683,,,
114.0000000000,14,3.2869699001,,,
114.2500000000,14,3.2498219013,,,
114.5000000000,14,3.2254838943,,,
114.7500000000,14,3.2011470795,,,
115.0000000000,14,3.1870560646,,,
115.2500000000,14,3.1704039574,,,
115.5000000000,14,3.1652801037,,,
115.7500000000,14,3.1447849274,,,
116.0000000000,14,3.1409420967,,,
116.2500000000,14,3.1332559586,,,
116.5000000000,14,3.1230089664,,,
116.7500000000,14,3.1191658974,,,
117.0000000000,14,3.1089179516,,,
117.2500000000,14,3.1063570976,,,
117.5000000000,14,3.0999519825,,,
117.7500000000,14,3.0973899364,,,
118.0000000000,14,3.0999519825,,,
118.2500000000,14,3.0922660828,,,
118.5000000000,14,3.0935471058,,,
118.7500000000,14,3.0909850597,,,
119.0000000000,14,3.0935471058,,,
119.2500000000,14,3.0858609676,,,
119.5000000000,14,3.0794570446,,,
119.7500000000,14,3.0743329525,,,
120.0000000000,15,3.0679280758,,,
120.2500000000,15,3.0717709064,,,
120.5000000000,15,3.0653660297,,,
120.7500000000,15,3.0640850067,,,
121.0000000000,15,3.0615229607,,,
121.2500000000,15,3.0615229607,,,
121.5000000000,15,3.0538380146,,,
121.7500000000,15,3.0512759686,,,
122.0000000000,15,3.0564000607,,,
122.2500000000,15,3.0487139225,,,
122.5000000000,15,3.0448710918,,,
122.7500000000,15,3.0461521149,,,
123.0000000000,15,3.0448710918,,,
123.2500000000,15,3.0474328995,,,
123.5000000000,15,3.0423090458,,,
123.7500000000,15,3.0474328995,,,
124.0000000000,15,3.0435900688,,,
124.2500000000,15,3.0410280228,,,
124.5000000000,15,3.0397469997,,,
124.7500000000,15,3.0371849537,,,
125.0000000000,15,3.0423090458,,,
125.2500000000,15,3.0359048843,,,
125.5000000000,15,3.0423090458,,,
125.7500000000,15,3.0384659767,,,
126.0000000000,15,3.0359048843,,,
126.2500000000,15,3.0346240997,,,
126.5000000000,15,3.0346240997,,,
126.7500000000,15,3.0397469997,,,
127.0000000000,15,3.0320620537,,,
127.2500000000,15,3.0295000076,,,
127.5000000000,15,3.0282189846,,,
127.7500000000,15,3.0205330849,,,
128.0000000000,16,3.0205330849,,,
128.2500000000,16,3.0166900158,,,
128.5000000000,16,3.0128469467,,,
128.7500000000,16,3.0115671158,,,
129.0000000000,16,3.0115671158,,,
129.2500000000,16,3.0128469467,,,
129.5000000000,16,3.0128469467,,,
129.7500000000,16,3.0115671158,,,
130.0000000000,16,3.0090050697,,,
130.2500000000,16,3.0025999546,,,
130.5000000000,16,3.0064430237,,,
130.7500000000,16,3.0000379086,,,
131.0000000000,16,3.0000379086,,,
131.2500000000,16,2.9923520088,,,
131.5000000000,16,3.0000379086,,,
131.7500000000,16,2.9910709858,,,
132.0000000000,16,2.9910709858,,,
132.2500000000,16,2.9936330318,,,
132.5000000000,16,2.9885098934,,,
132.7500000000,16,2.9936330318,,,
133.0000000000,16,2.9872291088,,,
133.2500000000,16,2.9833860397,,,
133.5000000000,16,2.9795429707,,,
133.7500000000,16,2.9756999016,,,
134.0000000000,16,2.9782619476,,,
134.2500000000,16,2.9769809246,,,
134.5000000000,16,2.9782619476,,,
134.7500000000,16,2.9692959785,,,
135.0000000000,16,2.9667329788,,,
135.2500000000,16,2.9680140018,,,
135.5000000000,16,2.9654529095,,,
135.7500000000,16,2.9667329788,,,
136.0000000000,17,2.9577670097,,,
136.2500000000,17,2.9552049637,,,
136.5000000000,17,2.9641718864,,,
136.7500000000,17,2.9667329788,,,
137.0000000000,17,2.9769809246,,,
137.2500000000,17,2.9782619476,,,
137.5000000000,17,2.9833860397,,,
137.7500000000,17,2.9846670628,,,
138.0000000000,17,2.9808239937,,,
138.2500000000,17,2.9769809246,,,
138.5000000000,17,2.9744191170,,,
138.7500000000,17,2.9718570709,,,
139.0000000000,17,2.9641718864,,,
139.2500000000,17,2.9641718864,,,
139.5000000000,17,2.9603290558,,,
139.7500000000,17,2.9500811100,,,
140.0000000000,17,2.9539239407,,,
140.2500000000,17,2.9423949718,,,
140.5000000000,17,2.9423949718,,,
140.7500000000,17,2.9411149025,,,
141.0000000000,17,2.9308669567,,,
141.2500000000,17,2.9334290028,,,
141.5000000000,17,2.9270238876,,,
141.7500000000,17,2.9244620800,,,
142.0000000000,17,2.9244620800,,,
142.2500000000,17,2.9231810570,,,
142.5000000000,17,2.9219009876,,,
142.7500000000,17,2.9180579185,,,
143.0000000000,17,2.9142150879,,,
143.2500000000,17,2.9078099728,,,
143.5000000000,17,2.9052479267,,,
143.7500000000,17,2.9078099728,,,
144.0000000000,18,2.9001240730,,,
144.2500000000,18,2.8962810040,,,
144.5000000000,18,2.8962810040,,,
144.7500000000,18,2.8937199116,,,
145.0000000000,18,2.9001240730,,,
145.2500000000,18,2.8949999809,,,
145.5000000000,18,2.8975629807,,,
145.7500000000,18,2.8962810040,,,
146.0000000000,18,2.8885960579,,,
146.2500000000,18,2.8873150349,,,
146.5000000000,18,2.8809099197,,,
146.7500000000,18,2.8860340118,,,
147.0000000000,18,2.8783481121,,,
147.2500000000,18,2.8770670891,,,
147.5000000000,18,2.8796288967,,,
147.7500000000,18,2.8732240200,,,
148.0000000000,18,2.8796288967,,,
148.2500000000,18,2.8719429970,,,
148.5000000000,18,2.8770670891,,,
148.7500000000,18,2.8706629276,,,
149.0000000000,18,2.8629770279,,,
149.2500000000,18,2.8655390739,,,
149.5000000000,18,2.8591339588,,,
149.7500000000,18,2.8604149818,,,
150.0000000000,18,2.8514480591,,,
150.2500000000,18,2.8540101051,,,
150.5000000000,18,2.8488860130,,,
150.7500000000,18,2.8655390739,,,
151.0000000000,18,2.9052479267,,,
151.2500000000,18,2.9488000870,,,
151.5000000000,18,2.9923520088,,,
151.7500000000,18,3.0256569386,,,
152.0000000000,19,3.0551190376,,,
152.2500000000,19,3.0730519295,,,
152.5000000000,19,3.0833001137,,,
152.7500000000,19,3.0794570446,,,
153.0000000000,19,3.0756139755,,,
153.2500000000,19,3.0628039837,,,
153.5000000000,19,3.0474328995,,,
153.7500000000,19,3.0295000076,,,
154.0000000000,19,3.0128469467,,,
154.2500000000,19,2.9974761009,,,
154.5000000000,19,2.9795429707,,,
154.7500000000,19,2.9692959785,,,
155.0000000000,19,2.9577670097,,,
155.2500000000,19,2.9526429176,,,
155.5000000000,19,2.9372720718,,,
155.7500000000,19,2.9347100258,,,
156.0000000000,19,2.9257431030,,,
156.2500000000,19,2.9180579185,,,
156.5000000000,19,2.9180579185,,,
156.7500000000,19,2.9078099728,,,
157.0000000000,19,2.9129340649,,,
157.2500000000,19,2.8988430500,,,
157.5000000000,19,2.8988430500,,,
157.7500000000,19,2.8937199116,,,
158.0000000000,19,2.8873150349,,,
158.2500000000,19,2.8796288967,,,
158.5000000000,19,2.8796288967,,,
158.7500000000,19,2.8796288967,,,
159.0000000000,19,2.8706629276,,,
159.2500000000,19,2.8681008816,,,
159.5000000000,19,2.8655390739,,,
159.7500000000,19,2.8578529358,,,
160.0000000000,20,2.8578529358,,,
160.2500000000,20,2.8501679897,,,
160.5000000000,20,2.8488860130,,,
160.7500000000,20,2.8501679897,,,
161.0000000000,20,2.8399200439,,,
161.2500000000,20,2.8450438976,,,
161.5000000000,20,2.8360769749,,,
161.7500000000,20,2.8360769749,,,
162.0000000000,20,2.8322339058,,,
162.2500000000,20,2.8245480061,,,
162.5000000000,20,2.8232679367,,,
162.7500000000,20,2.8181440830,,,
163.0000000000,20,2.8168630600,,,
163.2500000000,20,2.8194251060,,,
163.5000000000,20,2.8091769218,,,
163.7500000000,20,2.8040540218,,,
164.0000000000,20,2.8027729988,,,
164.2500000000,20,2.8078958988,,,
164.5000000000,20,2.7925250530,,,
164.7500000000,20,2.7976489067,,,
165.0000000000,20,2.8002109528,,,
165.2500000000,20,2.7963678837,,,
165.5000000000,20,2.8091769218,,,
165.7500000000,20,2.8130199909,,,
166.0000000000,20,2.8245480061,,,
166.2500000000,20,2.8258299828,,,
166.5000000000,20,2.8296720982,,,
166.7500000000,20,2.8283910751,,,
167.0000000000,20,2.8219869137,,,
167.2500000000,20,2.8207058907,,,
167.5000000000,20,2.8117389679,,,
167.7500000000,20,2.8104579449,,,
168.0000000000,21,2.7976489067,,,
168.2500000000,21,2.8040540218,,,
168.5000000000,21,2.7938060760,,,
168.7500000000,21,2.7861199379,,,
169.0000000000,21,2.7835578918,,,
169.2500000000,21,2.7771530151,,,
169.5000000000,21,2.7809960842,,,
169.7500000000,21,2.7707490921,,,
170.0000000000,21,2.7745919228,,,
170.2500000000,21,2.7656250000,,,
170.5000000000,21,2.7643439770,,,
170.7500000000,21,2.7784349918,,,
171.0000000000,21,2.8014910221,,,
171.2500000000,21,2.8245480061,,,
171.5000000000,21,2.8335149288,,,
171.7500000000,21,2.8399200439,,,
172.0000000000,21,2.8437631130,,,
172.2500000000,21,2.8399200439,,,
172.5000000000,21,2.8309528828,,,
172.7500000000,21,2.8232679367,,,
173.0000000000,21,2.8207058907,,,
173.2500000000,21,2.8117389679,,,
173.5000000000,21,2.8027729988,,,
173.7500000000,21,2.8002109528,,,
174.0000000000,21,2.7899630070,,,
174.2500000000,21,2.7925250530,,,
174.5000000000,21,2.7771530151,,,
174.7500000000,21,2.7694680691,,,
175.0000000000,21,2.7669060230,,,
175.2500000000,21,2.7540969849,,,
175.5000000000,21,2.7528159618,,,
175.7500000000,21,2.7451300621,,,
176.0000000000,22,2.7412869930,,,
176.2500000000,22,2.7451300621,,,
176.5000000000,22,2.7502539158,,,
176.7500000000,22,2.7566590309,,,
177.0000000000,22,2.7617819309,,,
177.2500000000,22,2.7681870461,,,
177.5000000000,22,2.7553780079,,,
177.7500000000,22,2.7579391003,,,
178.0000000000,22,2.7528159618,,,
178.2500000000,22,2.7464110851,,,
178.5000000000,22,2.7387249470,,,
178.7500000000,22,2.7310400009,,,
179.0000000000,22,2.7284779549,,,
179.2500000000,22,2.7182300091,,,
179.5000000000,22,2.7131059170,,,
179.7500000000,22,2.7131059170,,,
180.0000000000,22,2.7054209709,,,
180.2500000000,22,2.7067019939,,,
180.5000000000,22,2.7041399479,,,
180.7500000000,22,2.6977350712,,,
181.0000000000,22,2.6913299561,,,
181.2500000000,22,2.6874868870,,,
181.5000000000,22,2.6874868870,,,
181.7500000000,22,2.6785209179,,,
182.0000000000,22,2.6836450100,,,
182.2500000000,22,2.6733970642,,,
182.5000000000,22,2.6695539951,,,
182.7500000000,22,2.6733970642,,,
183.0000000000,22,2.6631491184,,,
183.2500000000,22,2.6695539951,,,
183.5000000000,22,2.6631491184,,,
183.7500000000,22,2.6695539951,,,
184.0000000000,23,2.6657109261,,,
184.2500000000,23,2.6554639339,,,
184.5000000000,23,2.6593070030,,,
184.7500000000,23,2.6541829109,,,
185.0000000000,23,2.6567449570,,,
185.2500000000,23,2.6426539421,,,
185.5000000000,23,2.6464970112,,,
185.7500000000,23,2.6413729191,,,
186.0000000000,23,2.6349689960,,,
186.2500000000,23,2.6426539421,,,
186.5000000000,23,2.6349689960,,,
186.7500000000,23,2.6362500191,,,
187.0000000000,23,2.6298449039,,,
187.2500000000,23,2.6272830963,,,
187.5000000000,23,2.6298449039,,,
187.7500000000,23,2.6285638809,,,
188.0000000000,23,2.6247210503,,,
188.2500000000,23,2.6195969582,,,
188.5000000000,23,2.6144740582,,,
188.7500000000,23,2.6170349121,,,
189.0000000000,23,2.6093499660,,,
189.2500000000,23,2.6157538891,,,
189.5000000000,23,2.6029450893,,,
189.7500000000,23,2.6144740582,,,
190.0000000000,23,2.6055068970,,,
190.2500000000,23,2.5991020203,,,
190.5000000000,23,2.6003830433,,,
190.7500000000,23,2.5914170742,,,
191.0000000000,23,2.5952589512,,,
191.2500000000,23,2.5850119591,,,
191.5000000000,23,2.5914170742,,,
191.7500000000,23,2.5824499130,,,
192.0000000000,24,2.5824499130,,,
192.2500000000,24,2.5786070824,,,
192.5000000000,24,2.5760450363,,,
192.7500000000,24,2.5760450363,,,
193.0000000000,24,2.5760450363,,,
193.2500000000,24,2.5824499130,,,
193.5000000000,24,2.5709209442,,,
193.7500000000,24,2.5645170212,,,
194.0000000000,24,2.5568308830,,,
194.2500000000,24,2.5555500984,,,
194.5000000000,24,2.5606739521,,,
194.7500000000,24,2.5478639603,,,
195.0000000000,24,2.5465829372,,,
195.2500000000,24,2.5491449833,,,
195.5000000000,24,2.5453019142,,,
195.7500000000,24,2.5414600372,,,
196.0000000000,24,2.5376169682,,,
196.2500000000,24,2.5350549221,,,
196.5000000000,24,2.5324931145,,,
196.7500000000,24,2.5248069763,,,
197.0000000000,24,2.5260879993,,,
197.2500000000,24,2.5222449303,,,
197.5000000000,24,2.5196840763,,,
197.7500000000,24,2.5171220303,,,
198.0000000000,24,2.5119979382,,,
198.2500000000,24,2.5081551075,,,
198.5000000000,24,2.5055930614,,,
198.7500000000,24,2.5068740845,,,
199.0000000000,24,2.5030310154,,,
199.2500000000,24,2.5043120384,,,
199.5000000000,24,2.5017499924,,,
199.7500000000,24,2.5030310154,,,
200.0000000000,25,2.5119979382,,,
200.2500000000,25,2.5068740845,,,
200.5000000000,25,2.5132789612,,,
200.7500000000,25,2.5094358921,,,
201.0000000000,25,2.5068740845,,,
201.2500000000,25,2.5081551075,,,
201.5000000000,25,2.5017499924,,,
201.7500000000,25,2.5043120384,,,
202.0000000000,25,2.4889409542,,,
202.2500000000,25,2.4902219772,,,
202.5000000000,25,2.4850978851,,,
202.7500000000,25,2.4761309624,,,
203.0000000000,25,2.4786930084,,,
203.2500000000,25,2.4748499393,,,
203.5000000000,25,2.4786930084,,,
203.7500000000,25,2.4710080624,,,
204.0000000000,25,2.4646029472,,,
204.2500000000,25,2.4710080624,,,
204.5000000000,25,2.4633219242,,,
204.7500000000,25,2.4633219242,,,
205.0000000000,25,2.4492321014,,,
205.2500000000,25,2.4688420296,,,
205.5000000000,25,2.4637179375,,,
205.7500000000,25,2.4637179375,,,
206.0000000000,25,2.4611558914,,,
206.2500000000,25,2.4560320377,,,
206.5000000000,25,2.4496281147,,,
206.7500000000,25,2.4483470917,,,
207.0000000000,25,2.4445040226,,,
207.2500000000,25,2.4445040226,,,
207.5000000000,25,2.4355370998,,,
207.7500000000,25,2.4355370998,,,
208.0000000000,26,2.4342560768,,,
208.2500000000,26,2.4291319847,,,
208.5000000000,26,2.4278509617,,,
208.7500000000,26,2.4252901077,,,
209.0000000000,26,2.4291319847,,,
209.2500000000,26,2.4240090847,,,
209.5000000000,26,2.4240090847,,,
209.7500000000,26,2.4252901077,,,
210.0000000000,26,2.4176039696,,,
210.2500000000,26,2.4188849926,,,
210.5000000000,26,2.4124801159,,,
210.7500000000,26,2.4099180698,,,
211.0000000000,26,2.4124801159,,,
211.2500000000,26,2.4073560238,,,
211.5000000000,26,2.4060750008,,,
211.7500000000,26,2.4022328854,,,
212.0000000000,26,2.3971090317,,,
212.2500000000,26,2.3945469856,,,
212.5000000000,26,2.3932659626,,,
212.7500000000,26,2.3919849396,,,
213.0000000000,26,2.3842990398,,,
213.2500000000,26,2.3868610859,,,
213.5000000000,26,2.3855800629,,,
213.7500000000,26,2.3778951168,,,
214.0000000000,26,2.3778951168,,,
214.2500000000,26,2.3791749477,,,
214.5000000000,26,2.3727710247,,,
214.7500000000,26,2.3702089787,,,
215.0000000000,26,2.3676469326,,,
215.2500000000,26,2.3625230789,,,
215.5000000000,26,2.3650848866,,,
215.7500000000,26,2.3727710247,,,
216.0000000000,27,2.3714900017,,,
216.2500000000,27,2.3740520477,,,
216.5000000000,27,2.3753330708,,,
216.7500000000,27,2.3727710247,,,
217.0000000000,27,2.3766140938,,,
217.2500000000,27,2.3727710247,,,
217.5000000000,27,2.3689279556,,,
217.7500000000,27,2.3702089787,,,
218.0000000000,27,2.3612420559,,,
218.2500000000,27,2.3638041019,,,
218.5000000000,27,2.3599610329,,,
218.7500000000,27,2.3535571098,,,
219.0000000000,27,2.3535571098,,,
219.2500000000,27,2.3433089256,,,
219.5000000000,27,2.3330609798,,,
219.7500000000,27,2.3240950108,,,
220.0000000000,27,2.3202519417,,,
220.2500000000,27,2.3151280880,,,
220.5000000000,27,2.3151280880,,,
220.7500000000,27,2.3125660419,,,
221.0000000000,27,2.3048810959,,,
221.2500000000,27,2.3023190498,,,
221.5000000000,27,2.2959139347,,,
221.7500000000,27,2.2997570038,,,
222.0000000000,27,2.3048810959,,,
222.2500000000,27,2.2997570038,,,
222.5000000000,27,2.2959139347,,,
222.7500000000,27,2.2869470119,,,
223.0000000000,27,2.2856659889,,,
223.2500000000,27,2.2895090580,,,
223.5000000000,27,2.2818241119,,,
223.7500000000,27,2.2805430889,,,
224.0000000000,28,2.2741379738,,,
224.2500000000,28,2.2754189968,,,
224.5000000000,28,2.2779810429,,,
224.7500000000,28,2.2728569508,,,
225.0000000000,28,2.2779810429,,,
225.2500000000,28,2.2715759277,,,
225.5000000000,28,2.2869470119,,,
225.7500000000,28,2.2907900810,,,
226.0000000000,28,2.3036000729,,,
226.2500000000,28,2.3125660419,,,
226.5000000000,28,2.3087229729,,,
226.7500000000,28,2.3023190498,,,
227.0000000000,28,2.2984759808,,,
227.2500000000,28,2.2997570038,,,
227.5000000000,28,2.2882289886,,,
227.7500000000,28,2.2818241119,,,
228.0000000000,28,2.2779810429,,,
228.2500000000,28,2.2715759277,,,
228.5000000000,28,2.2715759277,,,
228.7500000000,28,2.2613279819,,,
229.0000000000,28,2.2574861050,,,
229.2500000000,28,2.2600479126,,,
229.5000000000,28,2.2523620129,,,
229.7500000000,28,2.2485189438,,,
230.0000000000,28,2.2485189438,,,
230.2500000000,28,2.2523620129,,,
230.5000000000,28,2.2562050819,,,
230.7500000000,28,2.2421140671,,,
231.0000000000,28,2.2459568977,,,
231.2500000000,28,2.2369909286,,,
231.5000000000,28,2.2395520210,,,
231.7500000000,28,2.2293050289,,,
232.0000000000,29,2.2293050289,,,
232.2500000000,29,2.2280240059,,,
232.5000000000,29,2.2357099056,,,
232.7500000000,29,2.2510809898,,,
233.0000000000,29,2.2549240589,,,
233.2500000000,29,2.2562050819,,,
233.5000000000,29,2.2651710510,,,
233.7500000000,29,2.2613279819,,,
234.0000000000,29,2.2600479126,,,
234.2500000000,29,2.2587668896,,,
234.5000000000,29,2.2510809898,,,
234.7500000000,29,2.2485189438,,,
235.0000000000,29,2.2395520210,,,
235.2500000000,29,2.2395520210,,,
235.5000000000,29,2.2318670750,,,
235.7500000000,29,2.2254619598,,,
236.0000000000,29,2.2228999138,,,
236.2500000000,29,2.2177770138,,,
236.5000000000,29,2.2152140141,,,
236.7500000000,29,2.2100911140,,,
237.0000000000,29,2.2075290680,,,
237.2500000000,29,2.2100911140,,,
237.5000000000,29,2.2036859989,,,
237.7500000000,29,2.2024049759,,,
238.0000000000,29,2.1947190762,,,
238.2500000000,29,2.1934390068,,,
238.5000000000,29,2.1934390068,,,
238.7500000000,29,2.1870338917,,,
239.0000000000,29,2.1883149147,,,
239.2500000000,29,2.1806290150,,,
239.5000000000,29,2.1716620922,,,
239.7500000000,29,2.1780669689,,,
240.0000000000,30,2.1716620922,,,
240.2500000000,30,2.1793479919,,,
240.5000000000,30,2.1665389538,,,
240.7500000000,30,2.1652579308,,,
241.0000000000,30,2.1665389538,,,
241.2500000000,30,2.1614151001,,,
241.5000000000,30,2.1601340771,,,
241.7500000000,30,2.1562910080,,,
242.0000000000,30,2.1562910080,,,
242.2500000000,30,2.1562910080,,,
242.5000000000,30,2.1524479389,,,
242.7500000000,30,2.1524479389,,,
243.0000000000,30,2.1460440159,,,
243.2500000000,30,2.1409199238,,,
243.5000000000,30,2.1332340240,,,
243.7500000000,30,2.1370770931,,,
244.0000000000,30,2.1345150471,,,
244.2500000000,30,2.1319530010,,,
244.5000000000,30,2.1332340240,,,
244.7500000000,30,2.1242671013,,,
245.0000000000,30,2.1281099319,,,
245.2500000000,30,2.1255478859,,,
245.5000000000,30,2.1242671013,,,
245.7500000000,30,2.1229870319,,,
246.0000000000,30,2.1229870319,,,
246.2500000000,30,2.1242671013,,,
246.5000000000,30,2.1165819168,,,
246.7500000000,30,2.1165819168,,,
247.0000000000,30,2.1178629398,,,
247.2500000000,30,2.1140201092,,,
247.5000000000,30,2.1127390862,,,
247.7500000000,30,2.1037719250,,,
248.0000000000,31,2.1050529480,,,
248.2500000000,31,2.1050529480,,,
248.5000000000,31,2.0973680019,,,
248.7500000000,31,2.0948059559,,,
249.0000000000,31,2.0832769871,,,
249.2500000000,31,2.0960869789,,,
249.5000000000,31,2.0896821022,,,
249.7500000000,31,2.0909628868,,,
250.0000000000,31,2.0999290943,,,
250.2500000000,31,2.0973680019,,,
250.5000000000,31,2.0948059559,,,
250.7500000000,31,2.0858390331,,,
251.0000000000,31,2.0871200562,,,
251.2500000000,31,2.0858390331,,,
251.5000000000,31,2.0807149410,,,
251.7500000000,31,2.0819959641,,,
252.0000000000,31,2.0781528950,,,
252.2500000000,31,2.0858390331,,,
252.5000000000,31,2.0768721104,,,
252.7500000000,31,2.0743110180,,,
253.0000000000,31,2.0755920410,,,
253.2500000000,31,2.0666251183,,,
253.5000000000,31,2.0691869259,,,
253.7500000000,31,2.0589389801,,,
254.0000000000,31,2.0576579571,,,
254.2500000000,31,2.0563769341,,,
254.5000000000,31,2.0474109650,,,
254.7500000000,31,2.0538148880,,,
255.0000000000,31,2.0435678959,,,
255.2500000000,31,2.0448489189,,,
255.5000000000,31,2.0448489189,,,
255.7500000000,31,2.0384440422,,,
256.0000000000,32,2.0422871113,,,
256.2500000000,32,2.0333199501,,,
256.5000000000,32,2.0294768810,,,
256.7500000000,32,2.0307579041,,,
257.0000000000,32,2.0243539810,,,
257.2500000000,32,2.0243539810,,,
257.5000000000,32,2.0205109119,,,
257.7500000000,32,2.0166680813,,,
258.0000000000,32,2.0230729580,,,
258.2500000000,32,2.0153870583,,,
258.5000000000,32,2.0192298889,,,
258.7500000000,32,2.0128250122,,,
259.0000000000,32,2.0115439892,,,
259.2500000000,32,2.0102629662,,,
259.5000000000,32,2.0051400661,,,
259.7500000000,32,2.0077009201,,,
260.0000000000,32,1.9961730242,,,
260.2500000000,32,2.0000159740,,,
260.5000000000,32,1.9987349510,,,
260.7500000000,32,1.9936109781,,,
261.0000000000,32,1.9948920012,,,
261.2500000000,32,1.9897680283,,,
261.5000000000,32,1.9884870052,,,
261.7500000000,32,1.9897680283,,,
262.0000000000,32,1.9808020592,,,
262.2500000000,32,1.9884870052,,,
262.5000000000,32,1.9795210361,,,
262.7500000000,32,1.9808020592,,,
263.0000000000,32,1.9769589901,,,
263.2500000000,32,1.9731160402,,,
263.5000000000,32,1.9743969440,,,
263.7500000000,32,1.9654300213,,,
264.0000000000,33,1.9705539942,,,
264.2500000000,33,1.9628679752,,,
264.5000000000,33,1.9641489983,,,
264.7500000000,33,1.9615869522,,,
265.0000000000,33,1.9590259790,,,
265.2500000000,33,1.9615869522,,,
265.5000000000,33,1.9487780333,,,
265.7500000000,33,1.9771330357,,,
266.0000000000,33,1.9732899666,,,
266.2500000000,33,1.9656039476,,,
266.5000000000,33,1.9668849707,,,
266.7500000000,33,1.9643230438,,,
267.0000000000,33,1.9643230438,,,
267.2500000000,33,1.9643230438,,,
267.5000000000,33,1.9592000246,,,
267.7500000000,33,1.9553569555,,,
268.0000000000,33,1.9502329826,,,
268.2500000000,33,1.9502329826,,,
268.5000000000,33,1.9463900328,,,
268.7500000000,33,1.9451090097,,,
269.0000000000,33,1.9425469637,,,
269.2500000000,33,1.9425469637,,,
269.5000000000,33,1.9451090097,,,
269.7500000000,33,1.9374239445,,,
270.0000000000,33,1.9387040138,,,
270.2500000000,33,1.9387040138,,,
270.5000000000,33,1.9322999716,,,
270.7500000000,33,1.9310189486,,,
271.0000000000,33,1.9258949757,,,
271.2500000000,33,1.9322999716,,,
271.5000000000,33,1.9258949757,,,
271.7500000000,33,1.9258949757,,,
272.0000000000,34,1.9284570217,,,
272.2500000000,34,1.9220520258,,,
272.5000000000,34,1.9258949757,,,
272.7500000000,34,1.9156479836,,,
273.0000000000,34,1.9130860567,,,
273.2500000000,34,1.9105240107,,,
273.5000000000,34,1.9105240107,,,
273.7500000000,34,1.9054000378,,,
274.0000000000,34,1.9041190147,,,
274.2500000000,34,1.8964329958,,,
274.5000000000,34,1.8989950418,,,
274.7500000000,34,1.8938709497,,,
275.0000000000,34,1.8964329958,,,
275.2500000000,34,1.8925909996,,,
275.5000000000,34,1.8900289536,,,
275.7500000000,34,1.8887480497,,,
276.0000000000,34,1.8810620308,,,
276.2500000000,34,1.8849049807,,,
276.5000000000,34,1.8759380579,,,
276.7500000000,34,1.8797810078,,,
277.0000000000,34,1.8797810078,,,
277.2500000000,34,1.8759380579,,,
277.5000000000,34,1.8772189617,,,
277.7500000000,34,1.8682529926,,,
278.0000000000,34,1.8720949888,,,
278.2500000000,34,1.8695340157,,,
278.5000000000,34,1.8631290197,,,
278.7500000000,34,1.8656909466,,,
279.0000000000,34,1.8618479967,,,
279.2500000000,34,1.8592859507,,,
279.5000000000,34,1.8580050468,,,
279.7500000000,34,1.8528809547,,,
280.0000000000,35,1.8439149857,,,
280.2500000000,35,1.8387910128,,,
280.5000000000,35,1.8400720358,,,
280.7500000000,35,1.8426339626,,,
281.0000000000,35,1.8439149857,,,
281.2500000000,35,1.8439149857,,,
281.5000000000,35,1.8490380049,,,
281.7500000000,35,1.8490380049,,,
282.0000000000,35,1.8375099897,,,
282.2500000000,35,1.8503190279,,,
282.5000000000,35,1.8656909466,,,
282.7500000000,35,1.8644100428,,,
283.0000000000,35,1.8836239576,,,
283.2500000000,35,1.8887480497,,,
283.5000000000,35,1.8938709497,,,
283.7500000000,35,1.8989950418,,,
284.0000000000,35,1.8989950418,,,
284.2500000000,35,1.8964329958,,,
284.5000000000,35,1.8925909996,,,
284.7500000000,35,1.8849049807,,,
285.0000000000,35,1.8861860037,,,
285.2500000000,35,1.8784999847,,,
285.5000000000,35,1.8797810078,,,
285.7500000000,35,1.8720949888,,,
286.0000000000,35,1.8682529926,,,
286.2500000000,35,1.8644100428,,,
286.5000000000,35,1.8567240238,,,
286.7500000000,35,1.8605669737,,,
287.0000000000,35,1.8554430008,,,
287.2500000000,35,1.8528809547,,,
287.5000000000,35,1.8503190279,,,
287.7500000000,35,1.8503190279,,,
288.0000000000,36,1.8541619778,,,
288.2500000000,36,1.8464759588,,,
288.5000000000,36,1.8477569818,,,
288.7500000000,36,1.8451960087,,,
289.0000000000,36,1.8387910128,,,
289.2500000000,36,1.8375099897,,,
289.5000000000,36,1.8323860168,,,
289.7500000000,36,1.8375099897,,,
290.0000000000,36,1.8311049938,,,
290.2500000000,36,1.8259810209,,,
290.5000000000,36,1.8311049938,,,
290.7500000000,36,1.8272620440,,,
291.0000000000,36,1.8285429478,,,
291.2500000000,36,1.8272620440,,,
291.5000000000,36,1.8221390247,,,
291.7500000000,36,1.8234189749,,,
292.0000000000,36,1.8195769787,,,
292.2500000000,36,1.8182959557,,,
292.5000000000,36,1.8106100559,,,
292.7500000000,36,1.8118909597,,,
293.0000000000,36,1.8067669868,,,
293.2500000000,36,1.8067669868,,,
293.5000000000,36,1.8093290329,,,
293.7500000000,36,1.8029240370,,,
294.0000000000,36,1.8042049408,,,
294.2500000000,36,1.7990809679,,,
294.5000000000,36,1.7952389717,,,
294.7500000000,36,1.7913960218,,,
295.0000000000,36,1.7888339758,,,
295.2500000000,36,1.7901149988,,,
295.5000000000,36,1.7824289799,,,
295.7500000000,36,1.7785860300,,,
296.0000000000,37,1.7875529528,,,
296.2500000000,37,1.7811479568,,,
296.5000000000,37,1.7811479568,,,
296.7500000000,37,1.7747440338,,,
297.0000000000,37,1.7811479568,,,
297.2500000000,37,1.7773050070,,,
297.5000000000,37,1.7709009647,,,
297.7500000000,37,1.7709009647,,,
298.0000000000,37,1.7696199417,,,
298.2500000000,37,1.7683390379,,,
298.5000000000,37,1.7644959688,,,
298.7500000000,37,1.7593719959,,,
299.0000000000,37,1.7606530190,,,
299.2500000000,37,1.7555290461,,,
299.5000000000,37,1.7580909729,,,
299.7500000000,37,1.7491250038,,,
300.0000000000,37,1.7478439808,,,
300.2500000000,37,1.7516859770,,,
300.5000000000,37,1.7440010309,,,
300.7500000000,37,1.7465629578,,,
301.0000000000,37,1.7465629578,,,
301.2500000000,37,1.7427200079,,,
301.5000000000,37,1.7375960350,,,
301.7500000000,37,1.7388770580,,,
302.0000000000,37,1.7375960350,,,
302.2500000000,37,1.7363150120,,,
302.5000000000,37,1.7375960350,,,
302.7500000000,37,1.7324719429,,,
303.0000000000,37,1.7388770580,,,
303.2500000000,37,1.7324719429,,,
303.5000000000,37,1.7324719429,,,
303.7500000000,37,1.7299100161,,,
