Time:4Hz,Epoch,Channel 1,Event Id,Event Date,Event Duration
0.0000000000,0,0.3266017139,,,
0.2500000000,0,0.3278824985,,,
0.5000000000,0,0.3317249119,,,
0.7500000000,0,0.3317249119,,,
1.0000000000,0,0.3355672956,,,
1.2500000000,0,0.3381288052,,,
1.5000000000,0,0.3368481100,,,
1.7500000000,0,0.3406904042,,,
2.0000000000,0,0.3406904042,,,
2.2500000000,0,0.3470943868,,,
2.5000000000,0,0.3509367108,,,
2.7500000000,0,0.3483752012,,,
3.0000000000,0,0.3483752012,,,
3.2500000000,0,0.3496559858,,,
3.5000000000,0,0.3458136022,,,
3.7500000000,0,0.3445327878,,,
4.0000000000,0,0.3445327878,,,
4.2500000000,0,0.3419711888,,,
4.5000000000,0,0.3406904042,,,
4.7500000000,0,0.3394095898,,,
5.0000000000,0,0.3381288052,,,
5.2500000000,0,0.3394095898,,,
5.5000000000,0,0.3394095898,,,
5.7500000000,0,0.3342865109,,,
6.0000000000,0,0.3368481100,,,
6.2500000000,0,0.3355672956,,,
6.5000000000,0,0.3317249119,,,
6.7500000000,0,0.3330056965,,,
7.0000000000,0,0.3291633129,,,
7.2500000000,0,0.3291633129,,,
7.5000000000,0,0.3291633129,,,
7.7500000000,0,0.3278824985,,,
8.0000000000,1,0.3266017139,,,
8.2500000000,1,0.3278824985,,,
8.5000000000,1,0.3266017139,,,
8.7500000000,1,0.3278824985,,,
9.0000000000,1,0.3291633129,,,
9.2500000000,1,0.3266017139,,,
9.5000000000,1,0.3304440975,,,
9.7500000000,1,0.3304440975,,,
10.0000000000,1,0.3266017139,,,
10.2500000000,1,0.3278824985,,,
10.5000000000,1,0.3266017139,,,
10.7500000000,1,0.3253208995,,,
11.0000000000,1,0.3266017139,,,
11.2500000000,1,0.3240401149,,,
11.5000000000,1,0.3240401149,,,
11.7500000000,1,0.3266017139,,,
12.0000000000,1,0.3227593899,,,
12.2500000000,1,0.3227593899,,,
12.5000000000,1,0.3253208995,,,
12.7500000000,1,0.3214784861,,,
13.0000000000,1,0.3201977909,,,
13.2500000000,1,0.3240401149,,,
13.5000000000,1,0.3201977909,,,
13.7500000000,1,0.3253208995,,,
14.0000000000,1,0.3240401149,,,
14.2500000000,1,0.3214784861,,,
14.5000000000,1,0.3253208995,,,
14.7500000000,1,0.3253208995,,,
15.0000000000,1,0.3227593899,,,
15.2500000000,1,0.3253208995,,,
15.5000000000,1,0.3227593899,,,
15.7500000000,1,0.3201977909,,,
16.0000000000,2,0.3253208995,,,
16.2500000000,2,0.3253208995,,,
16.5000000000,2,0.3227593899,,,
16.7500000000,2,0.3266017139,,,
17.0000000000,2,0.3266017139,,,
17.2500000000,2,0.3240401149,,,
17.5000000000,2,0.3278824985,,,
17.7500000000,2,0.3240401149,,,
18.0000000000,2,0.3253208995,,,
18.2500000000,2,0.3291633129,,,
18.5000000000,2,0.3253208995,,,
18.7500000000,2,0.3278824985,,,
19.0000000000,2,0.3304440975,,,
19.2500000000,2,0.3317249119,,,
19.5000000000,2,0.3342865109,,,
19.7500000000,2,0.3406904042,,,
20.0000000000,2,0.3381288052,,,
20.2500000000,2,0.3394095898,,,
20.5000000000,2,0.3419711888,,,
20.7500000000,2,0.3406904042,,,
21.0000000000,2,0.3394095898,,,
21.2500000000,2,0.3406904042,,,
21.5000000000,2,0.3381288052,,,
21.7500000000,2,0.3368481100,,,
22.0000000000,2,0.3368481100,,,
22.2500000000,2,0.3342865109,,,
22.5000000000,2,0.3381288052,,,
22.7500000000,2,0.3368481100,,,
23.0000000000,2,0.3355672956,,,
23.2500000000,2,0.3381288052,,,
23.5000000000,2,0.3394095898,,,
23.7500000000,2,0.3368481100,,,
24.0000000000,3,0.3381288052,,,
24.2500000000,3,0.3381288052,,,
24.5000000000,3,0.3355672956,,,
24.7500000000,3,0.3368481100,,,
25.0000000000,3,0.3368481100,,,
25.2500000000,3,0.3342865109,,,
25.5000000000,3,0.3342865109,,,
25.7500000000,3,0.3342865109,,,
26.0000000000,3,0.3458136022,,,
26.2500000000,3,0.3342865109,,,
26.5000000000,3,0.3330056965,,,
26.7500000000,3,0.3304440975,,,
27.0000000000,3,0.3342865109,,,
27.2500000000,3,0.3342865109,,,
27.5000000000,3,0.3317249119,,,
27.7500000000,3,0.3330056965,,,
28.0000000000,3,0.3317249119,,,
28.2500000000,3,0.3304440975,,,
28.5000000000,3,0.3330056965,,,
28.7500000000,3,0.3330056965,,,
29.0000000000,3,0.3304440975,,,
29.2500000000,3,0.3330056965,,,
29.5000000000,3,0.3304440975,,,
29.7500000000,3,0.3304440975,,,
30.0000000000,3,0.3330056965,,,
30.2500000000,3,0.3330056965,,,
30.5000000000,3,0.3304440975,,,
30.7500000000,3,0.3317249119,,,
31.0000000000,3,0.3291633129,,,
31.2500000000,3,0.3291633129,,,
31.5000000000,3,0.3304440975,,,
31.7500000000,3,0.3278824985,,,
32.0000000000,4,0.3291633129,,,
32.2500000000,4,0.3304440975,,,
32.5000000000,4,0.3278824985,,,
32.7500000000,4,0.3291633129,,,
33.0000000000,4,0.3304440975,,,
33.2500000000,4,0.3278824985,,,
33.5000000000,4,0.3278824985,,,
33.7500000000,4,0.3304440975,,,
34.0000000000,4,0.3278824985,,,
34.2500000000,4,0.3304440975,,,
34.5000000000,4,0.3304440975,,,
34.7500000000,4,0.3278824985,,,
35.0000000000,4,0.3304440975,,,
35.2500000000,4,0.3330056965,,,
35.5000000000,4,0.3304440975,,,
35.7500000000,4,0.3330056965,,,
36.0000000000,4,0.3342865109,,,
36.2500000000,4,0.3330056965,,,
36.5000000000,4,0.3355672956,,,
36.7500000000,4,0.3355672956,,,
37.0000000000,4,0.3342865109,,,
37.2500000000,4,0.3355672956,,,
37.5000000000,4,0.3342865109,,,
37.7500000000,4,0.3317249119,,,
38.0000000000,4,0.3355672956,,,
38.2500000000,4,0.3330056965,,,
38.5000000000,4,0.3342865109,,,
38.7500000000,4,0.3368481100,,,
39.0000000000,4,0.3342865109,,,
39.2500000000,4,0.3342865109,,,
39.5000000000,4,0.3355672956,,,
39.7500000000,4,0.3342865109,,,
40.0000000000,5,0.3342865109,,,
40.2500000000,5,0.3342865109,,,
40.5000000000,5,0.3304440975,,,
40.7500000000,5,0.3330056965,,,
41.0000000000,5,0.3342865109,,,
41.2500000000,5,0.3330056965,,,
41.5000000000,5,0.3317249119,,,
41.7500000000,5,0.3330056965,,,
42.0000000000,5,0.3304440975,,,
42.2500000000,5,0.3304440975,,,
42.5000000000,5,0.3330056965,,,
42.7500000000,5,0.3304440975,,,
43.0000000000,5,0.3342865109,,,
43.2500000000,5,0.3355672956,,,
43.5000000000,5,0.3330056965,,,
43.7500000000,5,0.3368481100,,,
44.0000000000,5,0.3368481100,,,
44.2500000000,5,0.3342865109,,,
44.5000000000,5,0.3368481100,,,
44.7500000000,5,0.3368481100,,,
45.0000000000,5,0.3355672956,,,
45.2500000000,5,0.3381288052,,,
45.5000000000,5,0.3342865109,,,
45.7500000000,5,0.3342865109,,,
46.0000000000,5,0.3330056965,,,
46.2500000000,5,0.3330056965,,,
46.5000000000,5,0.3330056965,,,
46.7500000000,5,0.3342865109,,,
47.0000000000,5,0.3317249119,,,
47.2500000000,5,0.3304440975,,,
47.5000000000,5,0.3330056965,,,
47.7500000000,5,0.3304440975,,,
48.0000000000,6,0.3330056965,,,
48.2500000000,6,0.3317249119,,,
48.5000000000,6,0.3291633129,,,
48.7500000000,6,0.3291633129,,,
49.0000000000,6,0.3304440975,,,
49.2500000000,6,0.3291633129,,,
49.5000000000,6,0.3317249119,,,
49.7500000000,6,0.3291633129,,,
50.0000000000,6,0.3291633129,,,
50.2500000000,6,0.3304440975,,,
50.5000000000,6,0.3291633129,,,
50.7500000000,6,0.3291633129,,,
51.0000000000,6,0.3304440975,,,
51.2500000000,6,0.3304440975,,,
51.5000000000,6,0.3291633129,,,
51.7500000000,6,0.3330056965,,,
52.0000000000,6,0.3291633129,,,
52.2500000000,6,0.3317249119,,,
52.5000000000,6,0.3304440975,,,
52.7500000000,6,0.3291633129,,,
53.0000000000,6,0.3317249119,,,
53.2500000000,6,0.3291633129,,,
53.5000000000,6,0.3291633129,,,
53.7500000000,6,0.3291633129,,,
54.0000000000,6,0.3278824985,,,
54.2500000000,6,0.3253208995,,,
54.5000000000,6,0.3278824985,,,
54.7500000000,6,0.3278824985,,,
55.0000000000,6,0.3278824985,,,
55.2500000000,6,0.3291633129,,,
55.5000000000,6,0.3266017139,,,
55.7500000000,6,0.3278824985,,,
56.0000000000,7,0.3266017139,,,
56.2500000000,7,0.3253208995,,,
56.5000000000,7,0.3291633129,,,
56.7500000000,7,0.3304440975,,,
57.0000000000,7,0.3266017139,,,
57.2500000000,7,0.3304440975,,,
57.5000000000,7,0.3291633129,,,
57.7500000000,7,0.3291633129,,,
58.0000000000,7,0.3304440975,,,
58.2500000000,7,0.3291633129,,,
58.5000000000,7,0.3291633129,,,
58.7500000000,7,0.3304440975,,,
59.0000000000,7,0.3432520032,,,
59.2500000000,7,0.3304440975,,,
59.5000000000,7,0.3330056965,,,
59.7500000000,7,0.3278824985,,,
60.0000000000,7,0.3342865109,,,
60.2500000000,7,0.3355672956,,,
60.5000000000,7,0.3317249119,,,
60.7500000000,7,0.3342865109,,,
61.0000000000,7,0.3330056965,,,
61.2500000000,7,0.3317249119,,,
61.5000000000,7,0.3330056965,,,
61.7500000000,7,0.3291633129,,,
62.0000000000,7,0.3291633129,,,
62.2500000000,7,0.3317249119,,,
62.5000000000,7,0.3278824985,,,
62.7500000000,7,0.3291633129,,,
63.0000000000,7,0.3304440975,,,
63.2500000000,7,0.3291633129,,,
63.5000000000,7,0.3330056965,,,
63.7500000000,7,0.3342865109,,,
64.0000000000,8,0.3330056965,,,
64.2500000000,8,0.3355672956,,,
64.5000000000,8,0.3342865109,,,
64.7500000000,8,0.3330056965,,,
65.0000000000,8,0.3342865109,,,
65.2500000000,8,0.3317249119,,,
65.5000000000,8,0.3317249119,,,
65.7500000000,8,0.3330056965,,,
66.0000000000,8,0.3291633129,,,
66.2500000000,8,0.3304440975,,,
66.5000000000,8,0.3304440975,,,
66.7500000000,8,0.3304440975,,,
67.0000000000,8,0.3291633129,,,
67.2500000000,8,0.3304440975,,,
67.5000000000,8,0.3291633129,,,
67.7500000000,8,0.3291633129,,,
68.0000000000,8,0.3278824985,,,
68.2500000000,8,0.3278824985,,,
68.5000000000,8,0.3304440975,,,
68.7500000000,8,0.3317249119,,,
69.0000000000,8,0.3278824985,,,
69.2500000000,8,0.3291633129,,,
69.5000000000,8,0.3278824985,,,
69.7500000000,8,0.3278824985,,,
70.0000000000,8,0.3304440975,,,
70.2500000000,8,0.3278824985,,,
70.5000000000,8,0.3304440975,,,
70.7500000000,8,0.3291633129,,,
71.0000000000,8,0.3278824985,,,
71.2500000000,8,0.3317249119,,,
71.5000000000,8,0.3266017139,,,
71.7500000000,8,0.3266017139,,,
72.0000000000,9,0.3278824985,,,
72.2500000000,9,0.3253208995,,,
72.5000000000,9,0.3266017139,,,
72.7500000000,9,0.3278824985,,,
73.0000000000,9,0.3253208995,,,
73.2500000000,9,0.3266017139,,,
73.5000000000,9,0.3278824985,,,
73.7500000000,9,0.3266017139,,,
74.0000000000,9,0.3278824985,,,
74.2500000000,9,0.3266017139,,,
74.5000000000,9,0.3253208995,,,
74.7500000000,9,0.3266017139,,,
75.0000000000,9,0.3253208995,,,
75.2500000000,9,0.3253208995,,,
75.5000000000,9,0.3266017139,,,
75.7500000000,9,0.3266017139,,,
76.0000000000,9,0.3253208995,,,
76.2500000000,9,0.3253208995,,,
76.5000000000,9,0.3253208995,,,
76.7500000000,9,0.3278824985,,,
77.0000000000,9,0.3266017139,,,
77.2500000000,9,0.3240401149,,,
77.5000000000,9,0.3253208995,,,
77.7500000000,9,0.3227593899,,,
78.0000000000,9,0.3240401149,,,
78.2500000000,9,0.3253208995,,,
78.5000000000,9,0.3240401149,,,
78.7500000000,9,0.3253208995,,,
79.0000000000,9,0.3253208995,,,
79.2500000000,9,0.3253208995,,,
79.5000000000,9,0.3291633129,,,
79.7500000000,9,0.3291633129,,,
80.0000000000,10,0.3278824985,,,
80.2500000000,10,0.3291633129,,,
80.5000000000,10,0.3266017139,,,
80.7500000000,10,0.3278824985,,,
81.0000000000,10,0.3278824985,,,
81.2500000000,10,0.3266017139,,,
81.5000000000,10,0.3266017139,,,
81.7500000000,10,0.3253208995,,,
82.0000000000,10,0.3266017139,,,
82.2500000000,10,0.3304440975,,,
82.5000000000,10,0.3304440975,,,
82.7500000000,10,0.3278824985,,,
83.0000000000,10,0.3304440975,,,
83.2500000000,10,0.3278824985,,,
83.5000000000,10,0.3291633129,,,
83.7500000000,10,0.3304440975,,,
84.0000000000,10,0.3291633129,,,
84.2500000000,10,0.3291633129,,,
84.5000000000,10,0.3291633129,,,
84.7500000000,10,0.3304440975,,,
85.0000000000,10,0.3342865109,,,
85.2500000000,10,0.3342865109,,,
85.5000000000,10,0.3342865109,,,
85.7500000000,10,0.3394095898,,,
86.0000000000,10,0.3381288052,,,
86.2500000000,10,0.3406904042,,,
86.5000000000,10,0.3445327878,,,
86.7500000000,10,0.3445327878,,,
87.0000000000,10,0.3445327878,,,
87.2500000000,10,0.3445327878,,,
87.5000000000,10,0.3458136022,,,
87.7500000000,10,0.3470943868,,,
88.0000000000,11,0.3458136022,,,
88.2500000000,11,0.3432520032,,,
88.5000000000,11,0.3445327878,,,
88.7500000000,11,0.3432520032,,,
89.0000000000,11,0.3394095898,,,
89.2500000000,11,0.3419711888,,,
89.5000000000,11,0.3394095898,,,
89.7500000000,11,0.3368481100,,,
90.0000000000,11,0.3368481100,,,
90.2500000000,11,0.3355672956,,,
90.5000000000,11,0.3355672956,,,
90.7500000000,11,0.3381288052,,,
91.0000000000,11,0.3342865109,,,
91.2500000000,11,0.3342865109,,,
91.5000000000,11,0.3355672956,,,
91.7500000000,11,0.3330056965,,,
92.0000000000,11,0.3330056965,,,
92.2500000000,11,0.3355672956,,,
92.5000000000,11,0.3330056965,,,
92.7500000000,11,0.3317249119,,,
93.0000000000,11,0.3342865109,,,
93.2500000000,11,0.3330056965,,,
93.5000000000,11,0.3355672956,,,
93.7500000000,11,0.3355672956,,,
94.0000000000,11,0.3330056965,,,
94.2500000000,11,0.3342865109,,,
94.5000000000,11,0.3342865109,,,
94.7500000000,11,0.3330056965,,,
95.0000000000,11,0.3342865109,,,
95.2500000000,11,0.3355672956,,,
95.5000000000,11,0.3304440975,,,
95.7500000000,11,0.3342865109,,,
96.0000000000,12,0.3330056965,,,
96.2500000000,12,0.3317249119,,,
96.5000000000,12,0.3330056965,,,
96.7500000000,12,0.3304440975,,,
97.0000000000,12,0.3304440975,,,
97.2500000000,12,0.3317249119,,,
97.5000000000,12,0.3304440975,,,
97.7500000000,12,0.3304440975,,,
98.0000000000,12,0.3317249119,,,
98.2500000000,12,0.3278824985,,,
98.5000000000,12,0.3330056965,,,
98.7500000000,12,0.3330056965,,,
99.0000000000,12,0.3304440975,,,
99.2500000000,12,0.3330056965,,,
99.5000000000,12,0.3342865109,,,
99.7500000000,12,0.3317249119,,,
100.0000000000,12,0.3355672956,,,
100.2500000000,12,0.3342865109,,,
100.5000000000,12,0.3330056965,,,
100.7500000000,12,0.3355672956,,,
101.0000000000,12,0.3342865109,,,
101.2500000000,12,0.3342865109,,,
101.5000000000,12,0.3342865109,,,
101.7500000000,12,0.3330056965,,,
102.0000000000,12,0.3330056965,,,
102.2500000000,12,0.3355672956,,,
102.5000000000,12,0.3330056965,,,
102.7500000000,12,0.3330056965,,,
103.0000000000,12,0.3342865109,,,
103.2500000000,12,0.3330056965,,,
103.5000000000,12,0.3355672956,,,
103.7500000000,12,0.3342865109,,,
104.0000000000,13,0.3342865109,,,
104.2500000000,13,0.3355672956,,,
104.5000000000,13,0.3368481100,,,
104.7500000000,13,0.3342865109,,,
105.0000000000,13,0.3355672956,,,
105.2500000000,13,0.3355672956,,,
105.5000000000,13,0.3330056965,,,
105.7500000000,13,0.3368481100,,,
106.0000000000,13,0.3355672956,,,
106.2500000000,13,0.3330056965,,,
106.5000000000,13,0.3330056965,,,
106.7500000000,13,0.3330056965,,,
107.0000000000,13,0.3330056965,,,
107.2500000000,13,0.3342865109,,,
107.5000000000,13,0.3317249119,,,
107.7500000000,13,0.3317249119,,,
108.0000000000,13,0.3330056965,,,
108.2500000000,13,0.3317249119,,,
108.5000000000,13,0.3317249119,,,
108.7500000000,13,0.3330056965,33025,108.9062500000,0.0000000000
109.0000000000,13,0.3317249119,33024:33025,109.0312500000:109.1875000000,0.0000000000:0.0000000000
109.2500000000,13,0.3304440975,33024:33025:33024,109.2812500000:109.3750000000:109.4687500000,0.0000000000:0.0000000000:0.0000000000
109.5000000000,13,0.3342865109,,,
109.7500000000,13,0.3317249119,,,
110.0000000000,13,0.3317249119,,,
110.2500000000,13,0.3330056965,,,
110.5000000000,13,0.3304440975,,,
110.7500000000,13,0.3342865109,,,
111.0000000000,13,0.3355672956,,,
111.2500000000,13,0.3355672956,,,
111.5000000000,13,0.3419711888,,,
111.7500000000,13,0.3432520032,,,
112.0000000000,14,0.3445327878,,,
112.2500000000,14,0.3829565048,,,
112.5000000000,14,0.3893604875,,,
112.7500000000,14,0.3906413019,,,
113.0000000000,14,0.3944836855,,,
113.2500000000,14,0.3983260095,,,
113.5000000000,14,0.3957644105,,,
113.7500000000,14,0.3970451951,,,
114.0000000000,14,0.4072915912,,,
114.2500000000,14,0.3919220865,,,
114.5000000000,14,0.3906413019,,,
114.7500000000,14,0.3880797029,,,
115.0000000000,14,0.3842372894,,,
115.2500000000,14,0.3855181038,,,
115.5000000000,14,0.3829565048,,,
115.7500000000,14,0.3803949952,,,
116.0000000000,14,0.3816758096,,,
116.2500000000,14,0.3803949952,,,
116.5000000000,14,0.3791142106,,,
116.7500000000,14,0.3803949952,,,
117.0000000000,14,0.3791142106,,,
117.2500000000,14,0.3778333962,,,
117.5000000000,14,0.3765526116,,,
117.7500000000,14,0.3778333962,,,
118.0000000000,14,0.3765526116,,,
118.2500000000,14,0.3778333962,,,
118.5000000000,14,0.3765526116,,,
118.7500000000,14,0.3727101982,,,
119.0000000000,14,0.3727101982,,,
119.2500000000,14,0.3675870001,,,
119.5000000000,14,0.3675870001,,,
119.7500000000,14,0.3688678145,,,
120.0000000000,15,0.3675870001,,,
120.2500000000,15,0.3675870001,,,
120.5000000000,15,0.3714294136,,,
120.7500000000,15,0.3688678145,,,
121.0000000000,15,0.3727101982,,,
121.2500000000,15,0.3727101982,,,
121.5000000000,15,0.3714294136,,,
121.7500000000,15,0.3765526116,,,
122.0000000000,15,0.3791142106,,,
122.2500000000,15,0.3803949952,,,
122.5000000000,15,0.3867988884,,,
122.7500000000,15,0.3880797029,,,
123.0000000000,15,0.3855181038,,,
123.2500000000,15,0.3906413019,,,
123.5000000000,15,0.3919220865,,,
123.7500000000,15,0.3906413019,,,
124.0000000000,15,0.3944836855,,,
124.2500000000,15,0.3944836855,,,
124.5000000000,15,0.3957644105,,,
124.7500000000,15,0.3996067941,,,
125.0000000000,15,0.4111338854,,,
125.2500000000,15,0.4008876085,,,
125.5000000000,15,0.4047299922,,,
125.7500000000,15,0.3996067941,,,
126.0000000000,15,0.4008876085,,,
126.2500000000,15,0.4008876085,,,
126.5000000000,15,0.3970451951,,,
126.7500000000,15,0.3944836855,,,
127.0000000000,15,0.3957644105,,,
127.2500000000,15,0.3932029009,,,
127.5000000000,15,0.3970451951,,,
127.7500000000,15,0.3996067941,,,
128.0000000000,16,0.4008876085,,,
128.2500000000,16,0.4047299922,,,
128.5000000000,16,0.4047299922,,,
128.7500000000,16,0.4047299922,,,
129.0000000000,16,0.4060108066,,,
129.2500000000,16,0.4085722864,,,
129.5000000000,16,0.4047299922,,,
129.7500000000,16,0.4047299922,,,
130.0000000000,16,0.3996067941,,,
130.2500000000,16,0.3996067941,,,
130.5000000000,16,0.3970451951,,,
130.7500000000,16,0.3932029009,,,
131.0000000000,16,0.3919220865,,,
131.2500000000,16,0.3932029009,,,
131.5000000000,16,0.3932029009,,,
131.7500000000,16,0.3970451951,,,
132.0000000000,16,0.3983260095,,,
132.2500000000,16,0.3957644105,,,
132.5000000000,16,0.3944836855,,,
132.7500000000,16,0.3957644105,,,
133.0000000000,16,0.3932029009,,,
133.2500000000,16,0.3932029009,,,
133.5000000000,16,0.3957644105,,,
133.7500000000,16,0.3970451951,,,
134.0000000000,16,0.4085722864,,,
134.2500000000,16,0.4085722864,,,
134.5000000000,16,0.4034492075,,,
134.7500000000,16,0.4047299922,,,
135.0000000000,16,0.4021683931,,,
135.2500000000,16,0.4008876085,,,
135.5000000000,16,0.4034492075,,,
135.7500000000,16,0.4008876085,,,
136.0000000000,17,0.3996067941,,,
136.2500000000,17,0.3996067941,,,
136.5000000000,17,0.3970451951,,,
136.7500000000,17,0.3957644105,,,
137.0000000000,17,0.3996067941,,,
137.2500000000,17,0.3996067941,,,
137.5000000000,17,0.3983260095,,,
137.7500000000,17,0.3996067941,,,
138.0000000000,17,0.3983260095,,,
138.2500000000,17,0.3983260095,,,
138.5000000000,17,0.3996067941,,,
138.7500000000,17,0.3996067941,,,
139.0000000000,17,0.3983260095,,,
139.2500000000,17,0.4008876085,,,
139.5000000000,17,0.3983260095,,,
139.7500000000,17,0.3996067941,,,
140.0000000000,17,0.4021683931,,,
140.2500000000,17,0.4008876085,,,
140.5000000000,17,0.4021683931,,,
140.7500000000,17,0.4047299922,,,
141.0000000000,17,0.4021683931,,,
141.2500000000,17,0.4060108066,,,
141.5000000000,17,0.4047299922,,,
141.7500000000,17,0.4034492075,,,
142.0000000000,17,0.4047299922,,,
142.2500000000,17,0.4034492075,,,
142.5000000000,17,0.4008876085,,,
142.7500000000,17,0.4008876085,,,
143.0000000000,17,0.4008876085,,,
143.2500000000,17,0.3996067941,,,
143.5000000000,17,0.3996067941,,,
143.7500000000,17,0.4008876085,,,
144.0000000000,18,0.3970451951,,,
144.2500000000,18,0.3996067941,,,
144.5000000000,18,0.4008876085,,,
144.7500000000,18,0.3983260095,,,
145.0000000000,18,0.3996067941,,,
145.2500000000,18,0.4047299922,,,
145.5000000000,18,0.4034492075,,,
145.7500000000,18,0.4098531902,,,
146.0000000000,18,0.4124146998,,,
146.2500000000,18,0.4111338854,,,
146.5000000000,18,0.4162571132,,,
146.7500000000,18,0.4162571132,,,
147.0000000000,18,0.4149762988,,,
147.2500000000,18,0.4162571132,,,
147.5000000000,18,0.4136955142,,,
147.7500000000,18,0.4098531902,,,
148.0000000000,18,0.4136955142,,,
148.2500000000,18,0.4111338854,,,
148.5000000000,18,0.4098531902,,,
148.7500000000,18,0.4111338854,,,
149.0000000000,18,0.4085722864,,,
149.2500000000,18,0.4072915912,,,
149.5000000000,18,0.4098531902,,,
149.7500000000,18,0.4072915912,,,
150.0000000000,18,0.4047299922,,,
150.2500000000,18,0.4060108066,,,
150.5000000000,18,0.4021683931,,,
150.7500000000,18,0.4021683931,,,
151.0000000000,18,0.4034492075,,,
151.2500000000,18,0.4060108066,,,
151.5000000000,18,0.4021683931,,,
151.7500000000,18,0.4047299922,,,
152.0000000000,19,0.4021683931,,,
152.2500000000,19,0.4021683931,,,
152.5000000000,19,0.4034492075,,,
152.7500000000,19,0.4021683931,,,
153.0000000000,19,0.4034492075,,,
153.2500000000,19,0.4034492075,,,
153.5000000000,19,0.4034492075,,,
153.7500000000,19,0.4047299922,,,
154.0000000000,19,0.4047299922,,,
154.2500000000,19,0.4047299922,,,
154.5000000000,19,0.4060108066,,,
154.7500000000,19,0.4072915912,,,
155.0000000000,19,0.4060108066,,,
155.2500000000,19,0.4098531902,,,
155.5000000000,19,0.4098531902,,,
155.7500000000,19,0.4098531902,,,
156.0000000000,19,0.4136955142,,,
156.2500000000,19,0.4188187122,,,
156.5000000000,19,0.4188187122,,,
156.7500000000,19,0.4226610959,,,
157.0000000000,19,0.4213803113,,,
157.2500000000,19,0.4226610959,,,
157.5000000000,19,0.4252226055,,,
157.7500000000,19,0.4252226055,,,
158.0000000000,19,0.4252226055,,,
158.2500000000,19,0.4252226055,,,
158.5000000000,19,0.4239419103,,,
158.7500000000,19,0.4213803113,,,
159.0000000000,19,0.4226610959,,,
159.2500000000,19,0.4200994968,,,
159.5000000000,19,0.4200994968,,,
159.7500000000,19,0.4188187122,,,
160.0000000000,20,0.4149762988,,,
160.2500000000,20,0.4149762988,,,
160.5000000000,20,0.4162571132,,,
160.7500000000,20,0.4111338854,,,
161.0000000000,20,0.4124146998,,,
161.2500000000,20,0.4111338854,,,
161.5000000000,20,0.4072915912,,,
161.7500000000,20,0.4098531902,,,
162.0000000000,20,0.4085722864,,,
162.2500000000,20,0.4072915912,,,
162.5000000000,20,0.4098531902,,,
162.7500000000,20,0.4085722864,,,
163.0000000000,20,0.4060108066,,,
163.2500000000,20,0.4072915912,,,
163.5000000000,20,0.4060108066,,,
163.7500000000,20,0.4047299922,,,
164.0000000000,20,0.4085722864,,,
164.2500000000,20,0.4034492075,,,
164.5000000000,20,0.4047299922,,,
164.7500000000,20,0.4060108066,,,
165.0000000000,20,0.4047299922,,,
165.2500000000,20,0.4047299922,,,
165.5000000000,20,0.4072915912,,,
165.7500000000,20,0.4060108066,,,
166.0000000000,20,0.4034492075,,,
166.2500000000,20,0.4060108066,,,
166.5000000000,20,0.4047299922,,,
166.7500000000,20,0.4034492075,,,
167.0000000000,20,0.4021683931,,,
167.2500000000,20,0.4021683931,,,
167.5000000000,20,0.4047299922,,,
167.7500000000,20,0.4060108066,,,
168.0000000000,21,0.4021683931,,,
168.2500000000,21,0.4047299922,,,
168.5000000000,21,0.4034492075,,,
168.7500000000,21,0.4021683931,,,
169.0000000000,21,0.4175378978,,,
169.2500000000,21,0.4034492075,,,
169.5000000000,21,0.4008876085,,,
169.7500000000,21,0.4021683931,,,
170.0000000000,21,0.4008876085,,,
170.2500000000,21,0.4008876085,,,
170.5000000000,21,0.4008876085,,,
170.7500000000,21,0.3996067941,,,
171.0000000000,21,0.4008876085,,,
171.2500000000,21,0.4008876085,,,
171.5000000000,21,0.3996067941,,,
171.7500000000,21,0.4008876085,,,
172.0000000000,21,0.4021683931,,,
172.2500000000,21,0.4034492075,,,
172.5000000000,21,0.4034492075,,,
172.7500000000,21,0.4047299922,,,
173.0000000000,21,0.4034492075,,,
173.2500000000,21,0.4047299922,,,
173.5000000000,21,0.4072915912,,,
173.7500000000,21,0.4060108066,,,
174.0000000000,21,0.4098531902,,,
174.2500000000,21,0.4111338854,,,
174.5000000000,21,0.4072915912,,,
174.7500000000,21,0.4098531902,,,
175.0000000000,21,0.4085722864,,,
175.2500000000,21,0.4060108066,,,
175.5000000000,21,0.4085722864,,,
175.7500000000,21,0.4060108066,,,
176.0000000000,22,0.4072915912,,,
176.2500000000,22,0.4098531902,,,
176.5000000000,22,0.4072915912,,,
176.7500000000,22,0.4072915912,,,
177.0000000000,22,0.4085722864,,,
177.2500000000,22,0.4060108066,,,
177.5000000000,22,0.4072915912,,,
177.7500000000,22,0.4072915912,,,
178.0000000000,22,0.4047299922,,,
178.2500000000,22,0.4072915912,,,
178.5000000000,22,0.4072915912,,,
178.7500000000,22,0.4047299922,,,
179.0000000000,22,0.4060108066,,,
179.2500000000,22,0.4034492075,,,
179.5000000000,22,0.4034492075,,,
179.7500000000,22,0.4034492075,,,
180.0000000000,22,0.4034492075,,,
180.2500000000,22,0.4034492075,,,
180.5000000000,22,0.4060108066,,,
180.7500000000,22,0.4034492075,,,
181.0000000000,22,0.4072915912,,,
181.2500000000,22,0.4072915912,,,
181.5000000000,22,0.4047299922,,,
181.7500000000,22,0.4072915912,,,
182.0000000000,22,0.4047299922,,,
182.2500000000,22,0.4047299922,,,
182.5000000000,22,0.4047299922,,,
182.7500000000,22,0.4047299922,,,
183.0000000000,22,0.4047299922,,,
183.2500000000,22,0.4060108066,,,
183.5000000000,22,0.4021683931,,,
183.7500000000,22,0.4239419103,,,
184.0000000000,23,0.4213803113,,,
184.2500000000,23,0.4213803113,,,
184.5000000000,23,0.4226610959,,,
184.7500000000,23,0.4213803113,,,
185.0000000000,23,0.4188187122,,,
185.2500000000,23,0.4213803113,,,
185.5000000000,23,0.4200994968,,,
185.7500000000,23,0.4162571132,,,
186.0000000000,23,0.4188187122,,,
186.2500000000,23,0.4162571132,,,
186.5000000000,23,0.4149762988,,,
186.7500000000,23,0.4175378978,,,
187.0000000000,23,0.4136955142,,,
187.2500000000,23,0.4136955142,,,
187.5000000000,23,0.4162571132,,,
187.7500000000,23,0.4124146998,,,
188.0000000000,23,0.4124146998,,,
188.2500000000,23,0.4124146998,,,
188.5000000000,23,0.4111338854,,,
188.7500000000,23,0.4111338854,,,
189.0000000000,23,0.4098531902,,,
189.2500000000,23,0.4098531902,,,
189.5000000000,23,0.4098531902,,,
189.7500000000,23,0.4124146998,,,
190.0000000000,23,0.4098531902,,,
190.2500000000,23,0.4098531902,,,
190.5000000000,23,0.4111338854,,,
190.7500000000,23,0.4098531902,,,
191.0000000000,23,0.4085722864,,,
191.2500000000,23,0.4124146998,,,
191.5000000000,23,0.4098531902,,,
191.7500000000,23,0.4098531902,,,
192.0000000000,24,0.4111338854,,,
192.2500000000,24,0.4098531902,,,
192.5000000000,24,0.4136955142,,,
192.7500000000,24,0.4136955142,,,
193.0000000000,24,0.4136955142,,,
193.2500000000,24,0.4175378978,,,
193.5000000000,24,0.4188187122,,,
193.7500000000,24,0.4175378978,,,
194.0000000000,24,0.4200994968,,,
194.2500000000,24,0.4213803113,,,
194.5000000000,24,0.4188187122,,,
194.7500000000,24,0.4213803113,,,
195.0000000000,24,0.4175378978,,,
195.2500000000,24,0.4188187122,,,
195.5000000000,24,0.4213803113,,,
195.7500000000,24,0.4200994968,,,
196.0000000000,24,0.4175378978,,,
196.2500000000,24,0.4200994968,,,
196.5000000000,24,0.4162571132,,,
196.7500000000,24,0.4175378978,,,
197.0000000000,24,0.4162571132,,,
197.2500000000,24,0.4124146998,,,
197.5000000000,24,0.4149762988,,,
197.7500000000,24,0.4162571132,,,
198.0000000000,24,0.4111338854,,,
198.2500000000,24,0.4136955142,,,
198.5000000000,24,0.4098531902,,,
198.7500000000,24,0.4098531902,,,
199.0000000000,24,0.4111338854,,,
199.2500000000,24,0.4085722864,,,
199.5000000000,24,0.4085722864,,,
199.7500000000,24,0.4111338854,,,
200.0000000000,25,0.4060108066,,,
200.2500000000,25,0.4072915912,,,
200.5000000000,25,0.4085722864,,,
200.7500000000,25,0.4072915912,,,
201.0000000000,25,0.4098531902,,,
201.2500000000,25,0.4098531902,,,
201.5000000000,25,0.4072915912,,,
201.7500000000,25,0.4098531902,,,
202.0000000000,25,0.4060108066,,,
202.2500000000,25,0.4060108066,,,
202.5000000000,25,0.4085722864,,,
202.7500000000,25,0.4034492075,,,
203.0000000000,25,0.4060108066,,,
203.2500000000,25,0.4085722864,,,
203.5000000000,25,0.4060108066,,,
203.7500000000,25,0.4085722864,,,
204.0000000000,25,0.4085722864,,,
204.2500000000,25,0.4085722864,,,
204.5000000000,25,0.4124146998,,,
204.7500000000,25,0.4111338854,,,
205.0000000000,25,0.4111338854,,,
205.2500000000,25,0.4136955142,,,
205.5000000000,25,0.4111338854,,,
205.7500000000,25,0.4136955142,,,
206.0000000000,25,0.4124146998,,,
206.2500000000,25,0.4136955142,,,
206.5000000000,25,0.4124146998,,,
206.7500000000,25,0.4124146998,,,
207.0000000000,25,0.4098531902,,,
207.2500000000,25,0.4111338854,,,
207.5000000000,25,0.4111338854,,,
207.7500000000,25,0.4085722864,,,
208.0000000000,26,0.4111338854,,,
208.2500000000,26,0.4085722864,,,
208.5000000000,26,0.4072915912,,,
208.7500000000,26,0.4098531902,,,
209.0000000000,26,0.4072915912,,,
209.2500000000,26,0.4072915912,,,
209.5000000000,26,0.4085722864,,,
209.7500000000,26,0.4047299922,,,
210.0000000000,26,0.4060108066,,,
210.2500000000,26,0.4060108066,,,
210.5000000000,26,0.4047299922,,,
210.7500000000,26,0.4047299922,,,
211.0000000000,26,0.4047299922,,,
211.2500000000,26,0.4047299922,,,
211.5000000000,26,0.4072915912,,,
211.7500000000,26,0.4072915912,,,
212.0000000000,26,0.4047299922,,,
212.2500000000,26,0.4072915912,,,
212.5000000000,26,0.4060108066,,,
212.7500000000,26,0.4047299922,,,
213.0000000000,26,0.4047299922,,,
213.2500000000,26,0.4021683931,,,
213.5000000000,26,0.4034492075,,,
213.7500000000,26,0.4021683931,,,
214.0000000000,26,0.4021683931,,,
214.2500000000,26,0.4021683931,,,
214.5000000000,26,0.4072915912,,,
214.7500000000,26,0.4060108066,,,
215.0000000000,26,0.4098531902,,,
215.2500000000,26,0.4111338854,,,
215.5000000000,26,0.4098531902,,,
215.7500000000,26,0.4098531902,,,
216.0000000000,27,0.4085722864,,,
216.2500000000,27,0.4098531902,,,
216.5000000000,27,0.4085722864,,,
216.7500000000,27,0.4085722864,,,
217.0000000000,27,0.4072915912,,,
217.2500000000,27,0.4098531902,,,
217.5000000000,27,0.4085722864,,,
217.7500000000,27,0.4060108066,,,
218.0000000000,27,0.4072915912,,,
218.2500000000,27,0.4047299922,,,
218.5000000000,27,0.4072915912,,,
218.7500000000,27,0.4060108066,,,
219.0000000000,27,0.4047299922,,,
219.2500000000,27,0.4034492075,,,
219.5000000000,27,0.4047299922,,,
219.7500000000,27,0.4034492075,,,
220.0000000000,27,0.4047299922,,,
220.2500000000,27,0.4008876085,,,
220.5000000000,27,0.4021683931,,,
220.7500000000,27,0.4021683931,,,
221.0000000000,27,0.4008876085,,,
221.2500000000,27,0.4021683931,,,
221.5000000000,27,0.4021683931,,,
221.7500000000,27,0.4008876085,,,
222.0000000000,27,0.4008876085,,,
222.2500000000,27,0.4021683931,,,
222.5000000000,27,0.3996067941,,,
222.7500000000,27,0.4021683931,,,
223.0000000000,27,0.4008876085,,,
223.2500000000,27,0.3996067941,,,
223.5000000000,27,0.3983260095,,,
223.7500000000,27,0.3970451951,,,
224.0000000000,28,0.3983260095,,,
224.2500000000,28,0.3983260095,,,
224.5000000000,28,0.3970451951,,,
224.7500000000,28,0.3957644105,,,
225.0000000000,28,0.3983260095,,,
225.2500000000,28,0.3983260095,,,
225.5000000000,28,0.4008876085,,,
225.7500000000,28,0.3996067941,,,
226.0000000000,28,0.3983260095,,,
226.2500000000,28,0.4021683931,,,
226.5000000000,28,0.3996067941,,,
226.7500000000,28,0.3996067941,,,
227.0000000000,28,0.4034492075,,,
227.2500000000,28,0.3996067941,,,
227.5000000000,28,0.3970451951,,,
227.7500000000,28,0.4021683931,,,
228.0000000000,28,0.3970451951,,,
228.2500000000,28,0.3983260095,,,
228.5000000000,28,0.3996067941,,,
228.7500000000,28,0.3970451951,,,
229.0000000000,28,0.3996067941,,,
229.2500000000,28,0.4008876085,,,
229.5000000000,28,0.3983260095,,,
229.7500000000,28,0.3996067941,,,
230.0000000000,28,0.3957644105,,,
230.2500000000,28,0.3957644105,,,
230.5000000000,28,0.3983260095,,,
230.7500000000,28,0.3957644105,,,
231.0000000000,28,0.3970451951,,,
231.2500000000,28,0.3970451951,,,
231.5000000000,28,0.3957644105,,,
231.7500000000,28,0.3970451951,,,
232.0000000000,29,0.3970451951,,,
232.2500000000,29,0.3957644105,,,
232.5000000000,29,0.3983260095,,,
232.7500000000,29,0.3970451951,,,
233.0000000000,29,0.3932029009,,,
233.2500000000,29,0.3970451951,,,
233.5000000000,29,0.3944836855,,,
233.7500000000,29,0.3944836855,,,
234.0000000000,29,0.3957644105,,,
234.2500000000,29,0.3932029009,,,
234.5000000000,29,0.3932029009,,,
234.7500000000,29,0.3944836855,,,
235.0000000000,29,0.3932029009,,,
235.2500000000,29,0.3957644105,,,
235.5000000000,29,0.3944836855,,,
235.7500000000,29,0.3906413019,,,
236.0000000000,29,0.3944836855,,,
236.2500000000,29,0.3944836855,,,
236.5000000000,29,0.3919220865,,,
236.7500000000,29,0.3944836855,,,
237.0000000000,29,0.3906413019,,,
237.2500000000,29,0.3919220865,,,
237.5000000000,29,0.3944836855,,,
237.7500000000,29,0.3919220865,,,
238.0000000000,29,0.3919220865,,,
238.2500000000,29,0.3944836855,,,
238.5000000000,29,0.3906413019,,,
238.7500000000,29,0.3919220865,,,
239.0000000000,29,0.3932029009,,,
239.2500000000,29,0.3919220865,,,
239.5000000000,29,0.3957644105,,,
239.7500000000,29,0.3944836855,,,
240.0000000000,30,0.3919220865,,,
240.2500000000,30,0.3944836855,,,
240.5000000000,30,0.3919220865,,,
240.7500000000,30,0.3932029009,,,
241.0000000000,30,0.3944836855,,,
241.2500000000,30,0.3932029009,,,
241.5000000000,30,0.3932029009,,,
241.7500000000,30,0.3944836855,,,
242.0000000000,30,0.3944836855,,,
242.2500000000,30,0.3970451951,,,
242.5000000000,30,0.3970451951,,,
242.7500000000,30,0.3944836855,,,
243.0000000000,30,0.3970451951,,,
243.2500000000,30,0.3932029009,,,
243.5000000000,30,0.3944836855,,,
243.7500000000,30,0.3957644105,,,
244.0000000000,30,0.3906413019,,,
244.2500000000,30,0.3932029009,,,
244.5000000000,30,0.3906413019,,,
244.7500000000,30,0.3919220865,,,
245.0000000000,30,0.3944836855,,,
245.2500000000,30,0.3932029009,,,
245.5000000000,30,0.3919220865,,,
245.7500000000,30,0.3944836855,,,
246.0000000000,30,0.3919220865,,,
246.2500000000,30,0.3893604875,,,
246.5000000000,30,0.3932029009,,,
246.7500000000,30,0.3880797029,,,
247.0000000000,30,0.3893604875,,,
247.2500000000,30,0.3919220865,,,
247.5000000000,30,0.3893604875,,,
247.7500000000,30,0.3932029009,,,
248.0000000000,31,0.3906413019,,,
248.2500000000,31,0.3880797029,,,
248.5000000000,31,0.3906413019,,,
248.7500000000,31,0.3906413019,,,
249.0000000000,31,0.3880797029,,,
249.2500000000,31,0.3919220865,,,
249.5000000000,31,0.3906413019,,,
249.7500000000,31,0.3919220865,,,
250.0000000000,31,0.3957644105,,,
250.2500000000,31,0.3957644105,,,
250.5000000000,31,0.3983260095,,,
250.7500000000,31,0.4008876085,,,
251.0000000000,31,0.4021683931,,,
251.2500000000,31,0.4034492075,,,
251.5000000000,31,0.4047299922,,,
251.7500000000,31,0.4034492075,,,
252.0000000000,31,0.4060108066,,,
252.2500000000,31,0.4047299922,,,
252.5000000000,31,0.4034492075,,,
252.7500000000,31,0.4034492075,,,
253.0000000000,31,0.4021683931,,,
253.2500000000,31,0.4008876085,,,
253.5000000000,31,0.4034492075,,,
253.7500000000,31,0.3996067941,,,
254.0000000000,31,0.3996067941,,,
254.2500000000,31,0.4008876085,,,
254.5000000000,31,0.3996067941,,,
254.7500000000,31,0.3970451951,,,
255.0000000000,31,0.3957644105,,,
255.2500000000,31,0.3944836855,,,
255.5000000000,31,0.3970451951,,,
255.7500000000,31,0.3957644105,,,
256.0000000000,32,0.3932029009,,,
256.2500000000,32,0.3944836855,,,
256.5000000000,32,0.3932029009,,,
256.7500000000,32,0.3919220865,,,
257.0000000000,32,0.3944836855,,,
257.2500000000,32,0.3944836855,,,
257.5000000000,32,0.3919220865,,,
257.7500000000,32,0.3944836855,,,
258.0000000000,32,0.3919220865,,,
258.2500000000,32,0.3932029009,,,
258.5000000000,32,0.3932029009,,,
258.7500000000,32,0.3906413019,,,
259.0000000000,32,0.3906413019,,,
259.2500000000,32,0.3932029009,,,
259.5000000000,32,0.3906413019,,,
259.7500000000,32,0.3919220865,,,
260.0000000000,32,0.3919220865,,,
260.2500000000,32,0.3919220865,,,
260.5000000000,32,0.3919220865,,,
260.7500000000,32,0.3970451951,,,
261.0000000000,32,0.4008876085,,,
261.2500000000,32,0.4098531902,,,
261.5000000000,32,0.4098531902,,,
261.7500000000,32,0.4072915912,,,
262.0000000000,32,0.4111338854,,,
262.2500000000,32,0.4085722864,,,
262.5000000000,32,0.4085722864,,,
262.7500000000,32,0.4111338854,,,
263.0000000000,32,0.4098531902,,,
263.2500000000,32,0.4098531902,,,
263.5000000000,32,0.4124146998,,,
263.7500000000,32,0.4098531902,,,
264.0000000000,33,0.4124146998,,,
264.2500000000,33,0.4136955142,,,
264.5000000000,33,0.4085722864,,,
264.7500000000,33,0.4111338854,,,
265.0000000000,33,0.4072915912,,,
265.2500000000,33,0.4072915912,,,
265.5000000000,33,0.4072915912,,,
265.7500000000,33,0.4047299922,,,
266.0000000000,33,0.4021683931,,,
266.2500000000,33,0.4060108066,,,
266.5000000000,33,0.4034492075,,,
266.7500000000,33,0.4034492075,,,
267.0000000000,33,0.4047299922,,,
267.2500000000,33,0.4034492075,,,
267.5000000000,33,0.4047299922,,,
267.7500000000,33,0.4060108066,,,
268.0000000000,33,0.4021683931,,,
268.2500000000,33,0.4047299922,,,
268.5000000000,33,0.4047299922,,,
268.7500000000,33,0.4008876085,,,
269.0000000000,33,0.4034492075,,,
269.2500000000,33,0.4034492075,,,
269.5000000000,33,0.4008876085,,,
269.7500000000,33,0.4034492075,,,
270.0000000000,33,0.3996067941,,,
270.2500000000,33,0.4008876085,,,
270.5000000000,33,0.4008876085,,,
270.7500000000,33,0.3996067941,,,
271.0000000000,33,0.3996067941,,,
271.2500000000,33,0.4008876085,,,
271.5000000000,33,0.3983260095,,,
271.7500000000,33,0.3983260095,,,
272.0000000000,34,0.3983260095,,,
272.2500000000,34,0.3983260095,,,
272.5000000000,34,0.3970451951,,,
272.7500000000,34,0.3957644105,,,
273.0000000000,34,0.3944836855,,,
273.2500000000,34,0.3957644105,,,
273.5000000000,34,0.3970451951,,,
273.7500000000,34,0.3944836855,,,
274.0000000000,34,0.3957644105,,,
274.2500000000,34,0.3944836855,,,
274.5000000000,34,0.3932029009,,,
274.7500000000,34,0.3944836855,,,
275.0000000000,34,0.3932029009,,,
275.2500000000,34,0.3919220865,,,
275.5000000000,34,0.3932029009,,,
275.7500000000,34,0.3932029009,,,
276.0000000000,34,0.3906413019,,,
276.2500000000,34,0.3932029009,,,
276.5000000000,34,0.3919220865,,,
276.7500000000,34,0.3906413019,,,
277.0000000000,34,0.3906413019,,,
277.2500000000,34,0.3893604875,,,
277.5000000000,34,0.3906413019,,,
277.7500000000,34,0.3932029009,,,
278.0000000000,34,0.3893604875,,,
278.2500000000,34,0.3880797029,,,
278.5000000000,34,0.3906413019,,,
278.7500000000,34,0.3880797029,,,
279.0000000000,34,0.3893604875,,,
279.2500000000,34,0.3893604875,,,
279.5000000000,34,0.3867988884,,,
279.7500000000,34,0.3880797029,,,
280.0000000000,35,0.3893604875,,,
280.2500000000,35,0.3855181038,,,
280.5000000000,35,0.3893604875,,,
280.7500000000,35,0.3867988884,,,
281.0000000000,35,0.3880797029,,,
281.2500000000,35,0.3893604875,,,
281.5000000000,35,0.3880797029,,,
281.7500000000,35,0.3893604875,,,
282.0000000000,35,0.3906413019,,,
282.2500000000,35,0.3906413019,,,
282.5000000000,35,0.3893604875,,,
282.7500000000,35,0.3906413019,,,
283.0000000000,35,0.3893604875,,,
283.2500000000,35,0.3919220865,,,
283.5000000000,35,0.3919220865,,,
283.7500000000,35,0.3880797029,,,
284.0000000000,35,0.3893604875,,,
284.2500000000,35,0.3893604875,,,
284.5000000000,35,0.3855181038,,,
284.7500000000,35,0.3880797029,,,
285.0000000000,35,0.3855181038,,,
285.2500000000,35,0.3829565048,,,
285.5000000000,35,0.3855181038,,,
285.7500000000,35,0.3855181038,,,
286.0000000000,35,0.3842372894,,,
286.2500000000,35,0.3867988884,,,
286.5000000000,35,0.3829565048,,,
286.7500000000,35,0.3855181038,,,
287.0000000000,35,0.3829565048,,,
287.2500000000,35,0.3816758096,,,
287.5000000000,35,0.3829565048,,,
287.7500000000,35,0.3803949952,,,
288.0000000000,36,0.3791142106,,,
288.2500000000,36,0.3842372894,,,
288.5000000000,36,0.3803949952,,,
288.7500000000,36,0.3803949952,,,
289.0000000000,36,0.3816758096,,,
289.2500000000,36,0.3791142106,,,
289.5000000000,36,0.3816758096,,,
289.7500000000,36,0.3816758096,,,
290.0000000000,36,0.3791142106,,,
290.2500000000,36,0.3816758096,,,
290.5000000000,36,0.3816758096,,,
290.7500000000,36,0.3752717972,,,
291.0000000000,36,0.3803949952,,,
291.2500000000,36,0.3765526116,,,
291.5000000000,36,0.3765526116,,,
291.7500000000,36,0.3791142106,,,
292.0000000000,36,0.3765526116,,,
292.2500000000,36,0.3765526116,,,
292.5000000000,36,0.3791142106,,,
292.7500000000,36,0.3752717972,,,
293.0000000000,36,0.3752717972,,,
293.2500000000,36,0.3752717972,,,
293.5000000000,36,0.3727101982,,,
293.7500000000,36,0.3739910126,,,
294.0000000000,36,0.3752717972,,,
294.2500000000,36,0.3727101982,,,
294.5000000000,36,0.3752717972,,,
294.7500000000,36,0.3765526116,,,
295.0000000000,36,0.3727101982,,,
295.2500000000,36,0.3752717972,,,
295.5000000000,36,0.3752717972,,,
295.7500000000,36,0.3714294136,,,
