Time:4Hz,Epoch,Channel 1,Event Id,Event Date,Event Duration
0.0000000000,0,2.9343569279,,,
0.2500000000,0,2.9433219433,,,
0.5000000000,0,2.9433219433,,,
0.7500000000,0,2.9356369972,,,
1.0000000000,0,2.9356369972,,,
1.2500000000,0,2.9305140972,,,
1.5000000000,0,2.9266719818,,,
1.7500000000,0,2.9253909588,,,
2.0000000000,0,2.9202680588,,,
2.2500000000,0,2.9164249897,,,
2.5000000000,0,2.9113020897,,,
2.7500000000,0,2.9061789513,,,
3.0000000000,0,2.9100220203,,,
3.2500000000,0,2.9010560513,,,
3.5000000000,0,2.9036180973,,,
3.7500000000,0,2.9023370743,,,
4.0000000000,0,2.9036180973,,,
4.2500000000,0,2.9048979282,,,
4.5000000000,0,2.9048979282,,,
4.7500000000,0,2.9061789513,,,
5.0000000000,0,2.9087409973,,,
5.2500000000,0,2.9087409973,,,
5.5000000000,0,2.9010560513,,,
5.7500000000,0,2.9074599743,,,
6.0000000000,0,2.8959329128,,,
6.2500000000,0,2.8984940052,,,
6.5000000000,0,2.8972139359,,,
6.7500000000,0,2.8908100128,,,
7.0000000000,0,2.8972139359,,,
7.2500000000,0,2.8920910358,,,
7.5000000000,0,2.8920910358,,,
7.7500000000,0,2.8972139359,,,
8.0000000000,1,2.8933711052,,,
8.2500000000,1,2.8920910358,,,
8.5000000000,1,2.8959329128,,,
8.7500000000,1,2.8908100128,,,
9.0000000000,1,2.9036180973,,,
9.2500000000,1,2.8959329128,,,
9.5000000000,1,2.8920910358,,,
9.7500000000,1,2.8920910358,,,
10.0000000000,1,2.8844060898,,,
10.2500000000,1,2.8895289898,,,
10.5000000000,1,2.8869669437,,,
10.7500000000,1,2.8882479668,,,
11.0000000000,1,2.8882479668,,,
11.2500000000,1,2.8972139359,,,
11.5000000000,1,2.8972139359,,,
11.7500000000,1,2.9010560513,,,
12.0000000000,1,2.8997750282,,,
12.2500000000,1,2.8984940052,,,
12.5000000000,1,2.9036180973,,,
12.7500000000,1,2.8933711052,,,
13.0000000000,1,2.8908100128,,,
13.2500000000,1,2.8997750282,,,
13.5000000000,1,2.8920910358,,,
13.7500000000,1,2.8895289898,,,
14.0000000000,1,2.8946518898,,,
14.2500000000,1,2.8908100128,,,
14.5000000000,1,2.8920910358,,,
14.7500000000,1,2.8869669437,,,
15.0000000000,1,2.8818440437,,,
15.2500000000,1,2.8844060898,,,
15.5000000000,1,2.8728790283,,,
15.7500000000,1,2.8831250668,,,
16.0000000000,2,2.8920910358,,,
16.2500000000,2,2.9125831127,,,
16.5000000000,2,2.9343569279,,,
16.7500000000,2,2.9510068893,,,
17.0000000000,2,2.9599719048,,,
17.2500000000,2,2.9791839123,,,
17.5000000000,2,2.9855880737,,,
17.7500000000,2,2.9843080044,,,
18.0000000000,2,2.9830269814,,,
18.2500000000,2,2.9727799892,,,
18.5000000000,2,2.9714999199,,,
18.7500000000,2,2.9676570892,,,
19.0000000000,2,2.9586920738,,,
19.2500000000,2,2.9535679817,,,
19.5000000000,2,2.9548490047,,,
19.7500000000,2,2.9484450817,,,
20.0000000000,2,2.9881498814,,,
20.2500000000,2,3.0304160118,,,
20.5000000000,2,3.0957360268,,,
20.7500000000,2,3.1572139263,,,
21.0000000000,2,3.1981999874,,,
21.2500000000,2,3.2340619564,,,
21.5000000000,2,3.2468700409,,,
21.7500000000,2,3.2519929409,,,
22.0000000000,2,3.2340619564,,,
22.2500000000,2,3.2212541103,,,
22.5000000000,2,3.1956379414,,,
22.7500000000,2,3.1764259338,,,
23.0000000000,2,3.1572139263,,,
23.2500000000,2,3.1444060802,,,
23.5000000000,2,3.1341600418,,,
23.7500000000,2,3.1251950264,,,
24.0000000000,3,3.1111059189,,,
24.2500000000,3,3.1085441113,,,
24.5000000000,3,3.1059830189,,,
24.7500000000,3,3.1034209728,,,
25.0000000000,3,3.0982980728,,,
25.2500000000,3,3.0918939114,,,
25.5000000000,3,3.0893321037,,,
25.7500000000,3,3.0957360268,,,
26.0000000000,3,3.0893321037,,,
26.2500000000,3,3.0829279423,,,
26.5000000000,3,3.0918939114,,,
26.7500000000,3,3.0918939114,,,
27.0000000000,3,3.0893321037,,,
27.2500000000,3,3.0906128883,,,
27.5000000000,3,3.0854899883,,,
27.7500000000,3,3.0829279423,,,
28.0000000000,3,3.0765240192,,,
28.2500000000,3,3.0714008808,,,
28.5000000000,3,3.0701210499,,,
28.7500000000,3,3.0701210499,,,
29.0000000000,3,3.0611550808,,,
29.2500000000,3,3.0585939884,,,
29.5000000000,3,3.0509090424,,,
29.7500000000,3,3.0509090424,,,
30.0000000000,3,3.0509090424,,,
30.2500000000,3,3.0534698963,,,
30.5000000000,3,3.0432240963,,,
30.7500000000,3,3.0496280193,,,
31.0000000000,3,3.0432240963,,,
31.2500000000,3,3.0406620502,,,
31.5000000000,3,3.0355389118,,,
31.7500000000,3,3.0278539658,,,
32.0000000000,4,3.0278539658,,,
32.2500000000,4,3.0342578888,,,
32.5000000000,4,3.0240120888,,,
32.7500000000,4,3.0265738964,,,
33.0000000000,4,3.0227310658,,,
33.2500000000,4,3.0163269043,,,
33.5000000000,4,3.0176079273,,,
33.7500000000,4,3.0099229813,,,
34.0000000000,4,3.0048000813,,,
34.2500000000,4,3.0073618889,,,
34.5000000000,4,2.9996769428,,,
34.7500000000,4,2.9971148968,,,
35.0000000000,4,2.9971148968,,,
35.2500000000,4,2.9945540428,,,
35.5000000000,4,2.9894309044,,,
35.7500000000,4,2.9881498814,,,
36.0000000000,4,2.9855880737,,,
36.2500000000,4,2.9881498814,,,
36.5000000000,4,2.9855880737,,,
36.7500000000,4,2.9766230583,,,
37.0000000000,4,2.9740610123,,,
37.2500000000,4,2.9727799892,,,
37.5000000000,4,2.9625339508,,,
37.7500000000,4,2.9689381123,,,
38.0000000000,4,2.9638149738,,,
38.2500000000,4,2.9599719048,,,
38.5000000000,4,2.9599719048,,,
38.7500000000,4,2.9484450817,,,
39.0000000000,4,2.9433219433,,,
39.2500000000,4,2.9407610893,,,
39.5000000000,4,2.9343569279,,,
39.7500000000,4,2.9305140972,,,
40.0000000000,5,2.9266719818,,,
40.2500000000,5,2.9253909588,,,
40.5000000000,5,2.9215490818,,,
40.7500000000,5,2.9215490818,,,
41.0000000000,5,2.9151449203,,,
41.2500000000,5,2.9189870358,,,
41.5000000000,5,2.9343569279,,,
41.7500000000,5,2.9561300278,,,
42.0000000000,5,3.0022389889,,,
42.2500000000,5,3.0457849503,,,
42.5000000000,5,3.0611550808,,,
42.7500000000,5,3.0829279423,,,
43.0000000000,5,3.0893321037,,,
43.2500000000,5,3.0893321037,,,
43.5000000000,5,3.0867710114,,,
43.7500000000,5,3.0739629269,,,
44.0000000000,5,3.0585939884,,,
44.2500000000,5,3.0419430733,,,
44.5000000000,5,3.0291349888,,,
44.7500000000,5,3.0163269043,,,
45.0000000000,5,3.0035190582,,,
45.2500000000,5,2.9907109737,,,
45.5000000000,5,2.9919919968,,,
45.7500000000,5,2.9817459583,,,
46.0000000000,5,2.9766230583,,,
46.2500000000,5,2.9740610123,,,
46.5000000000,5,2.9638149738,,,
46.7500000000,5,2.9548490047,,,
47.0000000000,5,2.9586920738,,,
47.2500000000,5,2.9535679817,,,
47.5000000000,5,2.9458839893,,,
47.7500000000,5,2.9471650124,,,
48.0000000000,6,2.9343569279,,,
48.2500000000,6,2.9330759048,,,
48.5000000000,6,2.9330759048,,,
48.7500000000,6,2.9266719818,,,
49.0000000000,6,2.9215490818,,,
49.2500000000,6,2.9266719818,,,
49.5000000000,6,2.9266719818,,,
49.7500000000,6,2.9253909588,,,
50.0000000000,6,2.9164249897,,,
50.2500000000,6,2.9113020897,,,
50.5000000000,6,2.9151449203,,,
50.7500000000,6,2.9151449203,,,
51.0000000000,6,2.9023370743,,,
51.2500000000,6,2.9023370743,,,
51.5000000000,6,2.8972139359,,,
51.7500000000,6,2.8908100128,,,
52.0000000000,6,2.8831250668,,,
52.2500000000,6,2.8754398823,,,
52.5000000000,6,2.8818440437,,,
52.7500000000,6,2.8767209053,,,
53.0000000000,6,2.8677549362,,,
53.2500000000,6,2.8703169823,,,
53.5000000000,6,2.8562281132,,,
53.7500000000,6,2.8562281132,,,
54.0000000000,6,2.8498239517,,,
54.2500000000,6,2.8447010517,,,
54.5000000000,6,2.8421399593,,,
54.7500000000,6,2.8395779133,,,
55.0000000000,6,2.8318929672,,,
55.2500000000,6,2.8318929672,,,
55.5000000000,6,2.8293321133,,,
55.7500000000,6,2.8216469288,,,
56.0000000000,7,2.8293321133,,,
56.2500000000,7,2.8216469288,,,
56.5000000000,7,2.8126809597,,,
56.7500000000,7,2.8139619827,,,
57.0000000000,7,2.8088390827,,,
57.2500000000,7,2.8062779903,,,
57.5000000000,7,2.8049969673,,,
57.7500000000,7,2.7960309982,,,
58.0000000000,7,2.7934699059,,,
58.2500000000,7,2.7947499752,,,
58.5000000000,7,2.7870659828,,,
58.7500000000,7,2.7909080982,,,
59.0000000000,7,2.7832229137,,,
59.2500000000,7,2.7781000137,,,
59.5000000000,7,2.7793810368,,,
59.7500000000,7,2.7716960907,,,
60.0000000000,7,2.7704150677,,,
60.2500000000,7,2.7781000137,,,
60.5000000000,7,2.7652919292,,,
60.7500000000,7,2.7601690292,,,
61.0000000000,7,2.7550458908,,,
61.2500000000,7,2.7550458908,,,
61.5000000000,7,2.7486419678,,,
61.7500000000,7,2.7550458908,,,
62.0000000000,7,2.7448000908,,,
62.2500000000,7,2.7486419678,,,
62.5000000000,7,2.7448000908,,,
62.7500000000,7,2.7409570217,,,
63.0000000000,7,2.7435190678,,,
63.2500000000,7,2.7409570217,,,
63.5000000000,7,2.7294299603,,,
63.7500000000,7,2.7345530987,,,
64.0000000000,8,2.7243070602,,,
64.2500000000,8,2.7230260372,,,
64.5000000000,8,2.7217450142,,,
64.7500000000,8,2.7102179527,,,
65.0000000000,8,2.7063760757,,,
65.2500000000,8,2.7038140297,,,
65.5000000000,8,2.6986908913,,,
65.7500000000,8,2.7025330067,,,
66.0000000000,8,2.6974101067,,,
66.2500000000,8,2.6922869682,,,
66.5000000000,8,2.6961300373,,,
66.7500000000,8,2.6961300373,,,
67.0000000000,8,2.6794788837,,,
67.2500000000,8,2.6858830452,,,
67.5000000000,8,2.6756370068,,,
67.7500000000,8,2.6666710377,,,
68.0000000000,8,2.6730749607,,,
68.2500000000,8,2.6615478992,,,
68.5000000000,8,2.6679520607,,,
68.7500000000,8,2.6628289223,,,
69.0000000000,8,2.6589870453,,,
69.2500000000,8,2.6589870453,,,
69.5000000000,8,2.6551439762,,,
69.7500000000,8,2.6487400532,,,
70.0000000000,8,2.6461789608,,,
70.2500000000,8,2.6436169147,,,
70.5000000000,8,2.6372129917,,,
70.7500000000,8,2.6436169147,,,
71.0000000000,8,2.6410551071,,,
71.2500000000,8,2.6423358917,,,
71.5000000000,8,2.6410551071,,,
71.7500000000,8,2.6333711147,,,
72.0000000000,9,2.6346509457,,,
72.2500000000,9,2.6256859303,,,
72.5000000000,9,2.6231238842,,,
72.7500000000,9,2.6269669533,,,
73.0000000000,9,2.6180009842,,,
73.2500000000,9,2.6154398918,,,
73.5000000000,9,2.6192820072,,,
73.7500000000,9,2.6103169918,,,
74.0000000000,9,2.6167199612,,,
74.2500000000,9,2.6141591072,,,
74.5000000000,9,2.6090359688,,,
74.7500000000,9,2.6077549458,,,
75.0000000000,9,2.6039130688,,,
75.2500000000,9,2.6026320457,,,
75.5000000000,9,2.6000699997,,,
75.7500000000,9,2.6026320457,,,
76.0000000000,9,2.5923850536,,,
76.2500000000,9,2.5885429382,,,
76.5000000000,9,2.5923850536,,,
76.7500000000,9,2.5847010612,,,
77.0000000000,9,2.5821390152,,,
77.2500000000,9,2.5795769691,,,
77.5000000000,9,2.5859808922,,,
77.7500000000,9,2.5808579922,,,
78.0000000000,9,2.5718929768,,,
78.2500000000,9,2.5782968998,,,
78.5000000000,9,2.5693309307,,,
78.7500000000,9,2.5642080307,,,
79.0000000000,9,2.5629270077,,,
79.2500000000,9,2.5565230846,,,
79.5000000000,9,2.5616459846,,,
79.7500000000,9,2.5552430153,,,
80.0000000000,10,2.5488390923,,,
80.2500000000,10,2.5526809692,,,
80.5000000000,10,2.5449960232,,,
80.7500000000,10,2.5411539078,,,
81.0000000000,10,2.5449960232,,,
81.2500000000,10,2.5373110771,,,
81.5000000000,10,2.5398728848,,,
81.7500000000,10,2.5385921001,,,
82.0000000000,10,2.5270650387,,,
82.2500000000,10,2.5283460617,,,
82.5000000000,10,2.5206611156,,,
82.7500000000,10,2.5206611156,,,
83.0000000000,10,2.5193800926,,,
83.2500000000,10,2.5193800926,,,
83.5000000000,10,2.5104150772,,,
83.7500000000,10,2.5129759312,,,
84.0000000000,10,2.5052919388,,,
84.2500000000,10,2.5078530312,,,
84.5000000000,10,2.5014491081,,,
84.7500000000,10,2.4988880157,,,
85.0000000000,10,2.5001680851,,,
85.2500000000,10,2.4937639236,,,
85.5000000000,10,2.4899220467,,,
85.7500000000,10,2.4937639236,,,
86.0000000000,10,2.4873600006,,,
86.2500000000,10,2.4886410236,,,
86.5000000000,10,2.4899220467,,,
86.7500000000,10,2.4796760082,,,
87.0000000000,10,2.4847989082,,,
87.2500000000,10,2.4847989082,,,
87.5000000000,10,2.4732720852,,,
87.7500000000,10,2.4809570313,,,
88.0000000000,11,2.4694290161,,,
88.2500000000,11,2.4719910622,,,
88.5000000000,11,2.4758329391,,,
88.7500000000,11,2.4732720852,,,
89.0000000000,11,2.4707100391,,,
89.2500000000,11,2.4655869007,,,
89.5000000000,11,2.4643061161,,,
89.7500000000,11,2.4681489468,,,
90.0000000000,11,2.4617450237,,,
90.2500000000,11,2.4579019547,,,
90.5000000000,11,2.4839138985,,,
90.7500000000,11,2.4749488831,,,
91.0000000000,11,2.4711060524,,,
91.2500000000,11,2.4672639370,,,
91.5000000000,11,2.4582979679,,,
91.7500000000,11,2.4608600140,,,
92.0000000000,11,2.4544560909,,,
92.2500000000,11,2.4506130219,,,
92.5000000000,11,2.4493329525,,,
92.7500000000,11,2.4480519295,,,
93.0000000000,11,2.4442100525,,,
93.2500000000,11,2.4531750679,,,
93.5000000000,11,2.4429290295,,,
93.7500000000,11,2.4416480064,,,
94.0000000000,11,2.4390859604,,,
94.2500000000,11,2.4365251064,,,
94.5000000000,11,2.4378058910,,,
94.7500000000,11,2.4365251064,,,
95.0000000000,11,2.4301209450,,,
95.2500000000,11,2.4288399220,,,
95.5000000000,11,2.4314019680,,,
95.7500000000,11,2.4288399220,,,
96.0000000000,12,2.4275588989,,,
96.2500000000,12,2.4224359989,,,
96.5000000000,12,2.4173130989,,,
96.7500000000,12,2.4275588989,,,
97.0000000000,12,2.4185938835,,,
97.2500000000,12,2.4109089375,,,
97.5000000000,12,2.4134709835,,,
97.7500000000,12,2.4057860374,,,
98.0000000000,12,2.4109089375,,,
98.2500000000,12,2.4173130989,,,
98.5000000000,12,2.4057860374,,,
98.7500000000,12,2.4045050144,,,
99.0000000000,12,2.3968200684,,,
99.2500000000,12,2.3981010914,,,
99.5000000000,12,2.3942589760,,,
99.7500000000,12,2.3878550529,,,
100.0000000000,12,2.3878550529,,,
100.2500000000,12,2.3904159069,,,
100.5000000000,12,2.3840119839,,,
100.7500000000,12,2.3878550529,,,
101.0000000000,12,2.3827319145,,,
101.2500000000,12,2.3763279915,,,
101.5000000000,12,2.3801701069,,,
101.7500000000,12,2.3801701069,,,
102.0000000000,12,2.3750469685,,,
102.2500000000,12,2.3763279915,,,
102.5000000000,12,2.3699240685,,,
102.7500000000,12,2.3750469685,,,
103.0000000000,12,2.3699240685,,,
103.2500000000,12,2.3686430454,,,
103.5000000000,12,2.3647999763,,,
103.7500000000,12,2.3635199070,,,
104.0000000000,13,2.3635199070,,,
104.2500000000,13,2.3609580994,,,
104.5000000000,13,2.3558349609,,,
104.7500000000,13,2.3583970070,,,
105.0000000000,13,2.3507120609,,,
105.2500000000,13,2.3468689919,,,
105.5000000000,13,2.3519930840,,,
105.7500000000,13,2.3430271149,,,
106.0000000000,13,2.3455889225,,,
106.2500000000,13,2.3430271149,,,
106.5000000000,13,2.3468689919,,,
106.7500000000,13,2.3404660225,,,
107.0000000000,13,2.3379039764,,,
107.2500000000,13,2.3315000534,,,
107.5000000000,13,2.3366229534,,,
107.7500000000,13,2.3391849995,,,
108.0000000000,13,2.3289380074,,,
108.2500000000,13,2.3353419304,,,
108.5000000000,13,2.3250958920,,,
108.7500000000,13,2.3250958920,,,
109.0000000000,13,2.3212540150,,,
109.2500000000,13,2.3186919689,,,
109.5000000000,13,2.3289380074,,,
109.7500000000,13,2.3174109459,,,
110.0000000000,13,2.3110070229,,,
110.2500000000,13,2.3199729919,,,
110.5000000000,13,2.3135690689,,,
110.7500000000,13,2.3046030998,,,
111.0000000000,13,2.3058838844,,,
111.2500000000,13,2.3020420074,,,
111.5000000000,13,2.2994799614,,,
111.7500000000,13,2.3007609844,,,
112.0000000000,14,2.3186919689,,,
112.2500000000,14,2.3673620224,,,
112.5000000000,14,2.4416480064,,,
112.7500000000,14,2.5402688980,,,
113.0000000000,14,2.6273629665,,,
113.2500000000,14,2.6811559200,,,
113.5000000000,14,2.7080531120,,,
113.7500000000,14,2.7208600044,,,
114.0000000000,14,2.7195799351,,,
114.2500000000,14,2.7247030735,,,
114.5000000000,14,2.7311069965,,,
114.7500000000,14,2.7567229271,,,
115.0000000000,14,2.7784960270,,,
115.2500000000,14,2.7810580730,,,
115.5000000000,14,2.7746539116,,,
115.7500000000,14,2.7784960270,,,
116.0000000000,14,2.7580029964,,,
116.2500000000,14,2.7400720119,,,
116.5000000000,14,2.7029290199,,,
116.7500000000,14,2.6670670509,,,
117.0000000000,14,2.6324861050,,,
117.2500000000,14,2.6017470360,,,
117.5000000000,14,2.5876579285,,,
117.7500000000,14,2.5735700130,,,
118.0000000000,14,2.5479540825,,,
118.2500000000,14,2.5351459980,,,
118.5000000000,14,2.5197761059,,,
118.7500000000,14,2.5108110905,,,
119.0000000000,14,2.4967219830,,,
119.2500000000,14,2.4941599369,,,
119.5000000000,14,2.4915990829,,,
119.7500000000,14,2.4813530445,,,
120.0000000000,15,2.4787909985,,,
120.2500000000,15,2.4877560139,,,
120.5000000000,15,2.4928801060,,,
120.7500000000,15,2.4967219830,,,
121.0000000000,15,2.5018448830,,,
121.2500000000,15,2.4992840290,,,
121.5000000000,15,2.4980030060,,,
121.7500000000,15,2.4903180599,,,
122.0000000000,15,2.4813530445,,,
122.2500000000,15,2.4775099754,,,
122.5000000000,15,2.4659829140,33025,122.6562500000,0.0000000000
122.7500000000,15,2.4582979679,33024:33025:33024,122.7500000000:122.8437500000:122.9062500000,0.0000000000:0.0000000000:0.0000000000
123.0000000000,15,2.4518940449,33025:33024,123.0000000000:123.1250000000,0.0000000000:0.0000000000
123.2500000000,15,2.4506130219,,,
123.5000000000,15,2.4429290295,,,
123.7500000000,15,2.4352440834,,,
124.0000000000,15,2.4288399220,,,
124.2500000000,15,2.4326829910,,,
124.5000000000,15,2.4262781143,,,
124.7500000000,15,2.4160320759,,,
125.0000000000,15,2.4134709835,,,
125.2500000000,15,2.4083468914,,,
125.5000000000,15,2.4019429684,,,
125.7500000000,15,2.4032239914,,,
126.0000000000,15,2.3942589760,,,
126.2500000000,15,2.3993821144,,,
126.5000000000,15,2.3916969299,,,
126.7500000000,15,2.3852930069,,,
127.0000000000,15,2.3840119839,,,
127.2500000000,15,2.3788890839,,,
127.5000000000,15,2.3788890839,,,
127.7500000000,15,2.3737659454,,,
128.0000000000,16,2.3724849224,,,
128.2500000000,16,2.3788890839,,,
128.5000000000,16,2.4032239914,,,
128.7500000000,16,2.4326829910,,,
129.0000000000,16,2.4762289524,,,
129.2500000000,16,2.4941599369,,,
129.5000000000,16,2.5095300674,,,
129.7500000000,16,2.5172150135,,,
130.0000000000,16,2.5146529675,,,
130.2500000000,16,2.5108110905,,,
130.5000000000,16,2.4915990829,,,
130.7500000000,16,2.4775099754,,,
131.0000000000,16,2.4570169449,,,
131.2500000000,16,2.4442100525,,,
131.5000000000,16,2.4378058910,,,
131.7500000000,16,2.4262781143,,,
132.0000000000,16,2.4121899605,,,
132.2500000000,16,2.4096279144,,,
132.5000000000,16,2.3916969299,,,
132.7500000000,16,2.3904159069,,,
133.0000000000,16,2.3852930069,,,
133.2500000000,16,2.3865740299,,,
133.5000000000,16,2.3955399990,,,
133.7500000000,16,2.3865740299,,,
134.0000000000,16,2.3852930069,,,
134.2500000000,16,2.3916969299,,,
134.5000000000,16,2.3852930069,,,
134.7500000000,16,2.3776080608,,,
135.0000000000,16,2.3814508915,,,
135.2500000000,16,2.3763279915,,,
135.5000000000,16,2.3712038994,,,
135.7500000000,16,2.3699240685,,,
136.0000000000,17,2.3635199070,,,
136.2500000000,17,2.3596770763,,,
136.5000000000,17,2.3532729149,,,
136.7500000000,17,2.3519930840,,,
137.0000000000,17,2.3532729149,,,
137.2500000000,17,2.3455889225,,,
137.5000000000,17,2.3443078995,,,
137.7500000000,17,2.3481500149,,,
138.0000000000,17,2.3391849995,,,
138.2500000000,17,2.3481500149,,,
138.5000000000,17,2.3404660225,,,
138.7500000000,17,2.3327810764,,,
139.0000000000,17,2.3315000534,,,
139.2500000000,17,2.3250958920,,,
139.5000000000,17,2.3199729919,,,
139.7500000000,17,2.3263769150,,,
140.0000000000,17,2.3148500919,,,
140.2500000000,17,2.3148500919,,,
140.5000000000,17,2.3122880459,,,
140.7500000000,17,2.3097259998,,,
141.0000000000,17,2.3161299229,,,
141.2500000000,17,2.3161299229,,,
141.5000000000,17,2.3058838844,,,
141.7500000000,17,2.3084459305,,,
142.0000000000,17,2.2994799614,,,
142.2500000000,17,2.2969191074,,,
142.5000000000,17,2.3007609844,,,
142.7500000000,17,2.2930760384,,,
143.0000000000,17,2.2905149460,,,
143.2500000000,17,2.2879528999,,,
143.5000000000,17,2.2853910923,,,
143.7500000000,17,2.2892339230,,,
144.0000000000,18,2.2815489769,,,
144.2500000000,18,2.2764260769,,,
144.5000000000,18,2.2725830078,,,
144.7500000000,18,2.2700219154,,,
145.0000000000,18,2.2648990154,,,
145.2500000000,18,2.2674601078,,,
145.5000000000,18,2.2610559464,,,
145.7500000000,18,2.2648990154,,,
146.0000000000,18,2.2533719540,,,
146.2500000000,18,2.2559330463,,,
146.5000000000,18,2.2546529770,,,
146.7500000000,18,2.2495288849,,,
147.0000000000,18,2.2546529770,,,
147.2500000000,18,2.2495288849,,,
147.5000000000,18,2.2380020618,,,
147.7500000000,18,2.2431249619,,,
148.0000000000,18,2.2367210388,,,
148.2500000000,18,2.2380020618,,,
148.5000000000,18,2.2341599464,,,
148.7500000000,18,2.2290370464,,,
149.0000000000,18,2.2354400158,,,
149.2500000000,18,2.2277560234,,,
149.5000000000,18,2.2264750004,,,
149.7500000000,18,2.2239129543,,,
150.0000000000,18,2.2213521004,,,
150.2500000000,18,2.2162289619,,,
150.5000000000,18,2.2187900543,,,
150.7500000000,18,2.2136669159,,,
151.0000000000,18,2.2213521004,,,
151.2500000000,18,2.2123858929,,,
151.5000000000,18,2.2123858929,,,
151.7500000000,18,2.2098250389,,,
152.0000000000,19,2.2034211159,,,
152.2500000000,19,2.2072629929,,,
152.5000000000,19,2.2098250389,,,
152.7500000000,19,2.1970169544,,,
153.0000000000,19,2.1970169544,,,
153.2500000000,19,2.1944549084,,,
153.5000000000,19,2.1918940544,,,
153.7500000000,19,2.1918940544,,,
154.0000000000,19,2.1906130314,,,
154.2500000000,19,2.1957359314,,,
154.5000000000,19,2.1944549084,,,
154.7500000000,19,2.1906130314,,,
155.0000000000,19,2.1931738853,,,
155.2500000000,19,2.1893320084,,,
155.5000000000,19,2.1944549084,,,
155.7500000000,19,2.1893320084,,,
156.0000000000,19,2.1906130314,,,
156.2500000000,19,2.1982979774,,,
156.5000000000,19,2.1880509853,,,
156.7500000000,19,2.1867699623,,,
157.0000000000,19,2.1829280853,,,
157.2500000000,19,2.1816470623,,,
157.5000000000,19,2.1803669930,,,
157.7500000000,19,2.1739630699,,,
158.0000000000,19,2.1739630699,,,
158.2500000000,19,2.1778049469,,,
158.5000000000,19,2.1714010239,,,
158.7500000000,19,2.1649971008,,,
159.0000000000,19,2.1688389778,,,
159.2500000000,19,2.1675589085,,,
159.5000000000,19,2.1675589085,,,
159.7500000000,19,2.1624360085,,,
160.0000000000,20,2.1611549854,,,
160.2500000000,20,2.1611549854,,,
160.5000000000,20,2.1560320854,,,
160.7500000000,20,2.1585929394,,,
161.0000000000,20,2.1547510624,,,
161.2500000000,20,2.1445040703,,,
161.5000000000,20,2.1534700394,,,
161.7500000000,20,2.1445040703,,,
162.0000000000,20,2.1445040703,,,
162.2500000000,20,2.1406619549,,,
162.5000000000,20,2.1419429779,,,
162.7500000000,20,2.1483469009,,,
163.0000000000,20,2.1445040703,,,
163.2500000000,20,2.1380999088,,,
163.5000000000,20,2.1393809319,,,
163.7500000000,20,2.1316959858,,,
164.0000000000,20,2.1252930164,,,
164.2500000000,20,2.1393809319,,,
164.5000000000,20,2.1278541088,,,
164.7500000000,20,2.1329770088,,,
165.0000000000,20,2.1316959858,,,
165.2500000000,20,2.1278541088,,,
165.5000000000,20,2.1304159164,,,
165.7500000000,20,2.1188890934,,,
166.0000000000,20,2.1201689243,,,
166.2500000000,20,2.1163270473,,,
166.5000000000,20,2.1163270473,,,
166.7500000000,20,2.1227309704,,,
167.0000000000,20,2.1176080704,,,
167.2500000000,20,2.1150460243,,,
167.5000000000,20,2.1112039089,,,
167.7500000000,20,2.1060810089,,,
168.0000000000,21,2.1099228859,,,
168.2500000000,21,2.1124849319,,,
168.5000000000,21,2.1073620319,,,
168.7500000000,21,2.1099228859,,,
169.0000000000,21,2.0971150398,,,
169.2500000000,21,2.0983960629,,,
169.5000000000,21,2.0971150398,,,
169.7500000000,21,2.0971150398,,,
170.0000000000,21,2.0983960629,,,
170.2500000000,21,2.0907111168,,,
170.5000000000,21,2.0907111168,,,
170.7500000000,21,2.0907111168,,,
171.0000000000,21,2.0868690014,,,
171.2500000000,21,2.0843069553,,,
171.5000000000,21,2.0881500244,,,
171.7500000000,21,2.0817461014,,,
172.0000000000,21,2.0855879784,,,
172.2500000000,21,2.0740609169,,,
172.5000000000,21,2.0727798939,,,
172.7500000000,21,2.0779030323,,,
173.0000000000,21,2.0689380169,,,
173.2500000000,21,2.0676569939,,,
173.5000000000,21,2.0702190399,,,
173.7500000000,21,2.0650949478,,,
174.0000000000,21,2.0702190399,,,
174.2500000000,21,2.0650949478,,,
174.5000000000,21,2.0612530708,,,
174.7500000000,21,2.0586919785,,,
175.0000000000,21,2.0510070324,,,
175.2500000000,21,2.0535678864,,,
175.5000000000,21,2.0586919785,,,
175.7500000000,21,2.0497260094,,,
176.0000000000,22,2.0535678864,,,
176.2500000000,22,2.0446031094,,,
176.5000000000,22,2.0446031094,,,
176.7500000000,22,2.0497260094,,,
177.0000000000,22,2.0394790173,,,
177.2500000000,22,2.0407600403,,,
177.5000000000,22,2.0381989479,,,
177.7500000000,22,2.0305140018,,,
178.0000000000,22,2.0407600403,,,
178.2500000000,22,2.0330760479,,,
178.5000000000,22,2.0279519558,,,
178.7500000000,22,2.0305140018,,,
179.0000000000,22,2.0266718864,,,
179.2500000000,22,2.0241100788,,,
179.5000000000,22,2.0241100788,,,
179.7500000000,22,2.0228290558,,,
180.0000000000,22,2.0266718864,,,
180.2500000000,22,2.0253911018,,,
180.5000000000,22,2.0113019943,,,
180.7500000000,22,2.0215489864,,,
181.0000000000,22,2.0151450634,,,
181.2500000000,22,2.0113019943,,,
181.5000000000,22,2.0138640404,,,
181.7500000000,22,2.0074601173,,,
182.0000000000,22,2.0061790943,,,
182.2500000000,22,2.0100209713,,,
182.5000000000,22,2.0036170483,,,
182.7500000000,22,2.0036170483,,,
183.0000000000,22,2.0036170483,,,
183.2500000000,22,1.9984940290,,,
183.5000000000,22,2.0048980713,,,
183.7500000000,22,2.0061790943,,,
184.0000000000,23,1.9972130060,,,
184.2500000000,23,2.0010559559,,,
184.5000000000,23,1.9882479906,,,
184.7500000000,23,1.9856859446,,,
185.0000000000,23,1.9882479906,,,
185.2500000000,23,1.9831249714,,,
185.5000000000,23,1.9831249714,,,
185.7500000000,23,1.9920899868,,,
186.0000000000,23,1.9780019522,,,
186.2500000000,23,1.9818439484,,,
186.5000000000,23,1.9805630445,,,
186.7500000000,23,1.9780019522,,,
187.0000000000,23,1.9805630445,,,
187.2500000000,23,1.9741590023,,,
187.5000000000,23,1.9703170061,,,
187.7500000000,23,1.9780019522,,,
188.0000000000,23,1.9639129639,,,
188.2500000000,23,1.9651939869,,,
188.5000000000,23,1.9639129639,,,
188.7500000000,23,1.9536670446,,,
189.0000000000,23,1.9884220362,,,
189.2500000000,23,1.9897030592,,,
189.5000000000,23,1.9794570208,,,
189.7500000000,23,1.9794570208,,,
190.0000000000,23,1.9781759977,,,
190.2500000000,23,1.9743330479,,,
190.5000000000,23,1.9743330479,,,
190.7500000000,23,1.9704910517,,,
191.0000000000,23,1.9704910517,,,
191.2500000000,23,1.9717719555,,,
191.5000000000,23,1.9628059864,,,
191.7500000000,23,1.9615249634,,,
192.0000000000,24,1.9615249634,,,
192.2500000000,24,1.9628059864,,,
192.5000000000,24,1.9564019442,,,
192.7500000000,24,1.9538409710,,,
193.0000000000,24,1.9499980211,,,
193.2500000000,24,1.9525599480,,,
193.5000000000,24,1.9512790442,,,
193.7500000000,24,1.9448750019,,,
194.0000000000,24,1.9448750019,,,
194.2500000000,24,1.9410330057,,,
194.5000000000,24,1.9448750019,,,
194.7500000000,24,1.9423140287,,,
195.0000000000,24,1.9371900558,,,
195.2500000000,24,1.9384709597,,,
195.5000000000,24,1.9371900558,,,
195.7500000000,24,1.9282250404,,,
196.0000000000,24,1.9295059443,,,
196.2500000000,24,1.9231020212,,,
196.5000000000,24,1.9192589521,,,
196.7500000000,24,1.9205399752,,,
197.0000000000,24,1.9128550291,,,
197.2500000000,24,1.9166979790,,,
197.5000000000,24,1.9090130329,,,
197.7500000000,24,1.9051710367,,,
198.0000000000,24,1.9077320099,,,
198.2500000000,24,1.9038900137,,,
198.5000000000,24,1.9026089907,,,
198.7500000000,24,1.9026089907,,,
199.0000000000,24,1.9000469446,,,
199.2500000000,24,1.8936430216,,,
199.5000000000,24,1.8936430216,,,
199.7500000000,24,1.8872400522,,,
200.0000000000,25,1.8910820484,,,
200.2500000000,25,1.8885200024,,,
200.5000000000,25,1.8846780062,,,
200.7500000000,25,1.8859590292,,,
201.0000000000,25,1.8769929409,,,
201.2500000000,25,1.8769929409,,,
201.5000000000,25,1.8821159601,,,
201.7500000000,25,1.8718700409,,,
202.0000000000,25,1.8795549870,,,
202.2500000000,25,1.8782739639,,,
202.5000000000,25,1.8705890179,,,
202.7500000000,25,1.8757120371,,,
203.0000000000,25,1.8667470217,,,
203.2500000000,25,1.8641849756,,,
203.5000000000,25,1.8590619564,,,
203.7500000000,25,1.8603429794,,,
204.0000000000,25,1.8629050255,,,
204.2500000000,25,1.8565009832,,,
204.5000000000,25,1.8526580334,,,
204.7500000000,25,1.8526580334,,,
205.0000000000,25,1.8475350142,,,
205.2500000000,25,1.8513770103,,,
205.5000000000,25,1.8500969410,,,
205.7500000000,25,1.8436930180,,,
206.0000000000,25,1.8475350142,,,
206.2500000000,25,1.8411309719,,,
206.5000000000,25,1.8398499489,,,
206.7500000000,25,1.8398499489,,,
207.0000000000,25,1.8360079527,,,
207.2500000000,25,1.8347270489,,,
207.5000000000,25,1.8372889757,,,
207.7500000000,25,1.8308850527,,,
208.0000000000,26,1.8321650028,,,
208.2500000000,26,1.8296040297,,,
208.5000000000,26,1.8296040297,,,
208.7500000000,26,1.8347270489,,,
209.0000000000,26,1.8219189644,,,
209.2500000000,26,1.8231999874,,,
209.5000000000,26,1.8231999874,,,
209.7500000000,26,1.8231999874,,,
210.0000000000,26,1.8283230066,,,
210.2500000000,26,1.8244810104,,,
210.5000000000,26,1.8180769682,,,
210.7500000000,26,1.8167959452,,,
211.0000000000,26,1.8116730452,,,
211.2500000000,26,1.8091109991,,,
211.5000000000,26,1.8116730452,,,
211.7500000000,26,1.8078299761,,,
212.0000000000,26,1.8129539490,,,
212.2500000000,26,1.8103920221,,,
212.5000000000,26,1.8052690029,,,
212.7500000000,26,1.8091109991,,,
213.0000000000,26,1.8027069569,,,
213.2500000000,26,1.8052690029,,,
213.5000000000,26,1.8027069569,,,
213.7500000000,26,1.8014270067,,,
214.0000000000,26,1.8091109991,,,
214.2500000000,26,1.8014270067,,,
214.5000000000,26,1.7975840569,,,
214.7500000000,26,1.8014270067,,,
215.0000000000,26,1.7963030338,,,
215.2500000000,26,1.7975840569,,,
215.5000000000,26,1.7911800146,,,
215.7500000000,26,1.7873380184,,,
216.0000000000,27,1.7898989916,,,
216.2500000000,27,1.7847759724,,,
216.5000000000,27,1.7886190414,,,
216.7500000000,27,1.7873380184,,,
217.0000000000,27,1.7796529531,,,
217.2500000000,27,1.7834949493,,,
217.5000000000,27,1.7809339762,,,
217.7500000000,27,1.7745300531,,,
218.0000000000,27,1.7770919800,,,
218.2500000000,27,1.7745300531,,,
218.5000000000,27,1.7732490301,,,
218.7500000000,27,1.7706880569,,,
219.0000000000,27,1.7630029917,,,
219.2500000000,27,1.7706880569,,,
219.5000000000,27,1.7655639648,,,
219.7500000000,27,1.7630029917,,,
220.0000000000,27,1.7642840147,,,
220.2500000000,27,1.7630029917,,,
220.5000000000,27,1.7694070339,,,
220.7500000000,27,1.7630029917,,,
221.0000000000,27,1.7553180456,,,
221.2500000000,27,1.7591600418,,,
221.5000000000,27,1.7540370226,,,
221.7500000000,27,1.7476329803,,,
222.0000000000,27,1.7540370226,,,
222.2500000000,27,1.7514760494,,,
222.5000000000,27,1.7489140034,,,
222.7500000000,27,1.7514760494,,,
223.0000000000,27,1.7450720072,,,
223.2500000000,27,1.7437909842,,,
223.5000000000,27,1.7386679649,,,
223.7500000000,27,1.7348250151,,,
224.0000000000,28,1.7412290573,,,
224.2500000000,28,1.7399489880,,,
224.5000000000,28,1.7309830189,,,
224.7500000000,28,1.7373869419,,,
225.0000000000,28,1.7309830189,,,
225.2500000000,28,1.7335449457,,,
225.5000000000,28,1.7373869419,,,
225.7500000000,28,1.7271410227,,,
226.0000000000,28,1.7297019958,,,
226.2500000000,28,1.7232979536,,,
226.5000000000,28,1.7232979536,,,
226.7500000000,28,1.7232979536,,,
227.0000000000,28,1.7156130075,,,
227.2500000000,28,1.7194559574,,,
227.5000000000,28,1.7181750536,,,
227.7500000000,28,1.7156130075,,,
228.0000000000,28,1.7143330574,,,
228.2500000000,28,1.7130520344,,,
228.5000000000,28,1.7181750536,,,
228.7500000000,28,1.7143330574,,,
229.0000000000,28,1.7092100382,,,
229.2500000000,28,1.7143330574,,,
229.5000000000,28,1.7066479921,,,
229.7500000000,28,1.7079290152,,,
230.0000000000,28,1.7015249729,,,
230.2500000000,28,1.7015249729,,,
230.5000000000,28,1.7079290152,,,
230.7500000000,28,1.7040859461,,,
231.0000000000,28,1.6989630461,,,
231.2500000000,28,1.7028059959,,,
231.5000000000,28,1.6925590038,,,
231.7500000000,28,1.6951210499,,,
232.0000000000,29,1.6938400269,,,
232.2500000000,29,1.6925590038,,,
232.5000000000,29,1.6964019537,,,
232.7500000000,29,1.6887170076,,,
233.0000000000,29,1.6848750114,,,
233.2500000000,29,1.6899980307,,,
233.5000000000,29,1.6810319424,,,
233.7500000000,29,1.6759090424,,,
234.0000000000,29,1.6810319424,,,
234.2500000000,29,1.6784709692,,,
234.5000000000,29,1.6797510386,,,
234.7500000000,29,1.6746280193,,,
235.0000000000,29,1.6707860231,,,
235.2500000000,29,1.6746280193,,,
235.5000000000,29,1.6643819809,,,
235.7500000000,29,1.6643819809,,,
236.0000000000,29,1.6643819809,,,
236.2500000000,29,1.6579780579,,,
236.5000000000,29,1.6579780579,,,
236.7500000000,29,1.6631009579,,,
237.0000000000,29,1.6566970348,,,
237.2500000000,29,1.6579780579,,,
237.5000000000,29,1.6490119696,,,
237.7500000000,29,1.6477320194,,,
238.0000000000,29,1.6490119696,,,
238.2500000000,29,1.6387660503,,,
238.5000000000,29,1.6490119696,,,
238.7500000000,29,1.6502929926,,,
239.0000000000,29,1.6374850273,,,
239.2500000000,29,1.6451699734,,,
239.5000000000,29,1.6464509964,,,
239.7500000000,29,1.6374850273,,,
240.0000000000,30,1.6349240541,,,
240.2500000000,30,1.6298010349,,,
240.5000000000,30,1.6349240541,,,
240.7500000000,30,1.6285200119,,,
241.0000000000,30,1.6233969927,,,
241.2500000000,30,1.6298010349,,,
241.5000000000,30,1.6246769428,,,
241.7500000000,30,1.6259579659,,,
242.0000000000,30,1.6285200119,,,
242.2500000000,30,1.6195540428,,,
242.5000000000,30,1.6169929504,,,
242.7500000000,30,1.6144310236,,,
243.0000000000,30,1.6093080044,,,
243.2500000000,30,1.6105890274,,,
243.5000000000,30,1.6080269814,,,
243.7500000000,30,1.6016230583,,,
244.0000000000,30,1.6093080044,,,
244.2500000000,30,1.6118689775,,,
244.5000000000,30,1.6029039621,,,
244.7500000000,30,1.6054660082,,,
245.0000000000,30,1.5977809429,,,
245.2500000000,30,1.5965000391,,,
245.5000000000,30,1.5913770199,,,
245.7500000000,30,1.5900959969,,,
246.0000000000,30,1.5926580429,,,
246.2500000000,30,1.5939379930,,,
246.5000000000,30,1.5836919546,,,
246.7500000000,30,1.5926580429,,,
247.0000000000,30,1.5849729776,,,
247.2500000000,30,1.5836919546,,,
247.5000000000,30,1.5888149738,,,
247.7500000000,30,1.5798499584,,,
248.0000000000,31,1.5798499584,,,
248.2500000000,31,1.5772880316,,,
248.5000000000,31,1.5734460354,,,
248.7500000000,31,1.5721650124,,,
249.0000000000,31,1.5721650124,,,
249.2500000000,31,1.5670419931,,,
249.5000000000,31,1.5747259855,,,
249.7500000000,31,1.5760070086,,,
250.0000000000,31,1.5683230162,,,
250.2500000000,31,1.5747259855,,,
250.5000000000,31,1.5721650124,,,
250.7500000000,31,1.5644799471,,,
251.0000000000,31,1.5670419931,,,
251.2500000000,31,1.5606379509,,,
251.5000000000,31,1.5593570471,,,
251.7500000000,31,1.5657609701,,,
252.0000000000,31,1.5542340279,,,
252.2500000000,31,1.5567950010,,,
252.5000000000,31,1.5542340279,,,
252.7500000000,31,1.5593570471,,,
253.0000000000,31,1.5593570471,,,
253.2500000000,31,1.5555150509,,,
253.5000000000,31,1.5503909588,,,
253.7500000000,31,1.5567950010,,,
254.0000000000,31,1.5503909588,,,
254.2500000000,31,1.5439879894,,,
254.5000000000,31,1.5503909588,,,
254.7500000000,31,1.5388640165,,,
255.0000000000,31,1.5414259434,,,
255.2500000000,31,1.5414259434,,,
255.5000000000,31,1.5375839472,,,
255.7500000000,31,1.5388640165,,,
256.0000000000,32,1.5375839472,,,
256.2500000000,32,1.5337409973,,,
256.5000000000,32,1.5363030434,,,
256.7500000000,32,1.5324599743,,,
257.0000000000,32,1.5286179781,,,
257.2500000000,32,1.5337409973,,,
257.5000000000,32,1.5324599743,,,
257.7500000000,32,1.5260560513,,,
258.0000000000,32,1.5273369551,,,
258.2500000000,32,1.5273369551,,,
258.5000000000,32,1.5234949589,,,
258.7500000000,32,1.5247759819,,,
259.0000000000,32,1.5209330320,,,
259.2500000000,32,1.5170910358,,,
259.5000000000,32,1.5234949589,,,
259.7500000000,32,1.5183720589,,,
260.0000000000,32,1.5158100128,,,
260.2500000000,32,1.5132490396,,,
260.5000000000,32,1.5119680166,,,
260.7500000000,32,1.5119680166,,,
261.0000000000,32,1.5119680166,,,
261.2500000000,32,1.5106869936,,,
261.5000000000,32,1.5081249475,,,
261.7500000000,32,1.5081249475,,,
262.0000000000,32,1.5042829514,,,
262.2500000000,32,1.5068449974,,,
262.5000000000,32,1.5068449974,,,
262.7500000000,32,1.5017210245,,,
263.0000000000,32,1.4978790283,,,
263.2500000000,32,1.4991600513,,,
263.5000000000,32,1.4940370321,,,
263.7500000000,32,1.5017210245,,,
264.0000000000,33,1.4940370321,,,
264.2500000000,33,1.4940370321,,,
264.5000000000,33,1.4940370321,,,
264.7500000000,33,1.4927560091,,,
265.0000000000,33,1.4876329899,,,
265.2500000000,33,1.4914749861,,,
265.5000000000,33,1.4850709438,,,
265.7500000000,33,1.4825090170,,,
266.0000000000,33,1.4850709438,,,
266.2500000000,33,1.4799480438,,,
266.5000000000,33,1.4837900400,,,
266.7500000000,33,1.4837900400,,,
267.0000000000,33,1.4748250246,,,
267.2500000000,33,1.4850709438,,,
267.5000000000,33,1.4722629786,,,
267.7500000000,33,1.4735440016,,,
268.0000000000,33,1.4761060476,,,
268.2500000000,33,1.4709819555,,,
268.5000000000,33,1.4671399593,,,
268.7500000000,33,1.4697020054,,,
269.0000000000,33,1.4658590555,,,
269.2500000000,33,1.4645789862,,,
269.5000000000,33,1.4709819555,,,
269.7500000000,33,1.4645789862,,,
270.0000000000,33,1.4607360363,,,
270.2500000000,33,1.4607360363,,,
270.5000000000,33,1.4581739902,,,
270.7500000000,33,1.4594550133,,,
271.0000000000,33,1.4581739902,,,
271.2500000000,33,1.4504899979,,,
271.5000000000,33,1.4594550133,,,
271.7500000000,33,1.4607360363,,,
272.0000000000,34,1.4530509710,,,
272.2500000000,34,1.4543319941,,,
272.5000000000,34,1.4530509710,,,
272.7500000000,34,1.4440859556,,,
273.0000000000,34,1.4504899979,,,
273.2500000000,34,1.4453669786,,,
273.5000000000,34,1.4453669786,,,
273.7500000000,34,1.4517710209,,,
274.0000000000,34,1.4402430058,,,
274.2500000000,34,1.4733450413,,,
274.5000000000,34,1.4746259451,,,
274.7500000000,34,1.4682220221,,,
275.0000000000,34,1.4682220221,,,
275.2500000000,34,1.4630980492,,,
275.5000000000,34,1.4618179798,,,
275.7500000000,34,1.4618179798,,,
276.0000000000,34,1.4592560530,,,
276.2500000000,34,1.4579750299,,,
276.5000000000,34,1.4579750299,,,
276.7500000000,34,1.4528520107,,,
277.0000000000,34,1.4566940069,,,
277.2500000000,34,1.4490100145,,,
277.5000000000,34,1.4502910376,,,
277.7500000000,34,1.4541330338,,,
278.0000000000,34,1.4464479685,,,
278.2500000000,34,1.4438869953,,,
278.5000000000,34,1.4438869953,,,
278.7500000000,34,1.4400440454,,,
279.0000000000,34,1.4374829531,,,
279.2500000000,34,1.4438869953,,,
279.5000000000,34,1.4349210262,,,
279.7500000000,34,1.4426059723,,,
280.0000000000,35,1.4362020493,,,
280.2500000000,35,1.4336400032,,,
280.5000000000,35,1.4374829531,,,
280.7500000000,35,1.4285169840,,,
281.0000000000,35,1.4310790300,,,
281.2500000000,35,1.4297980070,,,
281.5000000000,35,1.4310790300,,,
281.7500000000,35,1.4285169840,,,
282.0000000000,35,1.4246749878,,,
282.2500000000,35,1.4208320379,,,
282.5000000000,35,1.4272359610,,,
282.7500000000,35,1.4246749878,,,
283.0000000000,35,1.4208320379,,,
283.2500000000,35,1.4208320379,,,
283.5000000000,35,1.4195510149,,,
283.7500000000,35,1.4157090187,,,
284.0000000000,35,1.4169900417,,,
284.2500000000,35,1.4169900417,,,
284.5000000000,35,1.4157090187,,,
284.7500000000,35,1.4131480455,,,
285.0000000000,35,1.4105859995,,,
285.2500000000,35,1.4093049765,,,
285.5000000000,35,1.4093049765,,,
285.7500000000,35,1.4131480455,,,
286.0000000000,35,1.4080239534,,,
286.2500000000,35,1.4054629803,,,
286.5000000000,35,1.4105859995,,,
286.7500000000,35,1.4029010534,,,
287.0000000000,35,1.4016209841,,,
287.2500000000,35,1.4067440033,,,
287.5000000000,35,1.4016209841,,,
287.7500000000,35,1.4041819572,,,
288.0000000000,36,1.4016209841,,,
288.2500000000,36,1.3977780342,,,
288.5000000000,36,1.4041819572,,,
288.7500000000,36,1.3939360380,,,
289.0000000000,36,1.3952159882,,,
289.2500000000,36,1.3964970112,,,
289.5000000000,36,1.3926550150,,,
289.7500000000,36,1.3952159882,,,
290.0000000000,36,1.3926550150,,,
290.2500000000,36,1.3875319958,,,
290.5000000000,36,1.3913739920,,,
290.7500000000,36,1.3888130188,,,
291.0000000000,36,1.3875319958,,,
291.2500000000,36,1.3888130188,,,
291.5000000000,36,1.3849699497,,,
291.7500000000,36,1.3888130188,,,
292.0000000000,36,1.3862509727,,,
292.2500000000,36,1.3798470497,,,
292.5000000000,36,1.3811279535,,,
292.7500000000,36,1.3772850037,,,
293.0000000000,36,1.3747240305,,,
293.2500000000,36,1.3760050535,,,
293.5000000000,36,1.3734430075,,,
293.7500000000,36,1.3811279535,,,
294.0000000000,36,1.3708809614,,,
294.2500000000,36,1.3670389652,,,
294.5000000000,36,1.3760050535,,,
294.7500000000,36,1.3708809614,,,
295.0000000000,36,1.3696010113,,,
295.2500000000,36,1.3721619844,,,
295.5000000000,36,1.3670389652,,,
295.7500000000,36,1.3708809614,,,
