Time:4Hz,Epoch,Channel 1,Event Id,Event Date,Event Duration
0.0000000000,0,1.1697690487,,,
0.2500000000,0,1.1723300219,,,
0.5000000000,0,1.1697690487,,,
0.7500000000,0,1.1697690487,,,
1.0000000000,0,1.1684880257,,,
1.2500000000,0,1.1723300219,,,
1.5000000000,0,1.1710489988,,,
1.7500000000,0,1.1736110449,,,
2.0000000000,0,1.1710489988,,,
2.2500000000,0,1.1736110449,,,
2.5000000000,0,1.1684880257,,,
2.7500000000,0,1.1748919487,,,
3.0000000000,0,1.1697690487,,,
3.2500000000,0,1.1723300219,,,
3.5000000000,0,1.1697690487,,,
3.7500000000,0,1.1723300219,,,
4.0000000000,0,1.1672070026,,,
4.2500000000,0,1.1736110449,,,
4.5000000000,0,1.1684880257,,,
4.7500000000,0,1.1710489988,,,
5.0000000000,0,1.1684880257,,,
5.2500000000,0,1.1646449566,,,
5.5000000000,0,1.1659259796,,,
5.7500000000,0,1.1672070026,,,
6.0000000000,0,1.1633640528,,,
6.2500000000,0,1.1672070026,,,
6.5000000000,0,1.1620830297,,,
6.7500000000,0,1.1633640528,,,
7.0000000000,0,1.1620830297,,,
7.2500000000,0,1.1646449566,,,
7.5000000000,0,1.1646449566,,,
7.7500000000,0,1.1659259796,,,
8.0000000000,1,1.1582410336,,,
8.2500000000,1,1.1646449566,,,
8.5000000000,1,1.1582410336,,,
8.7500000000,1,1.1633640528,,,
9.0000000000,1,1.1569600105,,,
9.2500000000,1,1.1620830297,,,
9.5000000000,1,1.1569600105,,,
9.7500000000,1,1.1582410336,,,
10.0000000000,1,1.1543979645,,,
10.2500000000,1,1.1595220566,,,
10.5000000000,1,1.1531169415,,,
10.7500000000,1,1.1556789875,,,
11.0000000000,1,1.1556789875,,,
11.2500000000,1,1.1582410336,,,
11.5000000000,1,1.1543979645,,,
11.7500000000,1,1.1569600105,,,
12.0000000000,1,1.1556789875,,,
12.2500000000,1,1.1556789875,,,
12.5000000000,1,1.1531169415,,,
12.7500000000,1,1.1556789875,,,
13.0000000000,1,1.1198149920,,,
13.2500000000,1,1.0544899702,,,
13.5000000000,1,1.0199069977,,,
13.7500000000,1,1.0160640478,,,
14.0000000000,1,1.0211880207,,,
14.2500000000,1,1.0621759892,,,
14.5000000000,1,1.0544899702,,,
14.7500000000,1,1.0173449516,,,
15.0000000000,1,1.0096600056,,,
15.2500000000,1,1.0083789825,,,
15.5000000000,1,1.0442440510,,,
15.7500000000,1,1.0391199589,,,
16.0000000000,2,1.0301539898,,,
16.2500000000,2,1.0480860472,,,
16.5000000000,2,1.1095679998,,,
16.7500000000,2,1.1146910191,,,
17.0000000000,2,1.1159720421,,,
17.2500000000,2,1.1159720421,,,
17.5000000000,2,1.1198149920,,,
17.7500000000,2,1.1172529459,,,
18.0000000000,2,1.1223770380,,,
18.2500000000,2,1.1159720421,,,
18.5000000000,2,1.1210960150,,,
18.7500000000,2,1.1198149920,,,
19.0000000000,2,1.1185339689,,,
19.2500000000,2,1.1172529459,,,
19.5000000000,2,1.1210960150,,,
19.7500000000,2,1.1172529459,,,
20.0000000000,2,1.1249380112,,,
20.2500000000,2,1.1287809610,,,
20.5000000000,2,1.1390279531,,,
20.7500000000,2,1.1364660263,,,
21.0000000000,2,1.1390279531,,,
21.2500000000,2,1.1428699493,,,
21.5000000000,2,1.1467130184,,,
21.7500000000,2,1.1518369913,,,
22.0000000000,2,1.1582410336,,,
22.2500000000,2,1.1633640528,,,
22.5000000000,2,1.1684880257,,,
22.7500000000,2,1.1748919487,,,
23.0000000000,2,1.1697690487,,,
23.2500000000,2,1.1723300219,,,
23.5000000000,2,1.1723300219,,,
23.7500000000,2,1.1723300219,,,
24.0000000000,3,1.1723300219,,,
24.2500000000,3,1.1710489988,,,
24.5000000000,3,1.1684880257,,,
24.7500000000,3,1.1697690487,,,
25.0000000000,3,1.1672070026,,,
25.2500000000,3,1.1672070026,,,
25.5000000000,3,1.1620830297,,,
25.7500000000,3,1.0083789825,,,
26.0000000000,3,0.9533019066,,,
26.2500000000,3,0.9673913717,,,
26.5000000000,3,0.9609870911,,,
26.7500000000,3,0.9571444988,,,
27.0000000000,3,0.9545828104,,,
27.2500000000,3,0.9392123222,,,
27.5000000000,3,0.9686722755,,,
27.7500000000,3,1.0096600056,,,
28.0000000000,3,1.0647369623,,,
28.2500000000,3,1.0737040043,,,
28.5000000000,3,1.0839500427,,,
28.7500000000,3,1.0852309465,,,
29.0000000000,3,1.0852309465,,,
29.2500000000,3,1.0903550386,,,
29.5000000000,3,1.0852309465,,,
29.7500000000,3,1.0852309465,,,
30.0000000000,3,1.0839500427,,,
30.2500000000,3,1.0865119696,,,
30.5000000000,3,1.0839500427,,,
30.7500000000,3,1.0903550386,,,
31.0000000000,3,1.0826699734,,,
31.2500000000,3,1.0826699734,,,
31.5000000000,3,1.0826699734,,,
31.7500000000,3,1.0813889503,,,
32.0000000000,4,1.0813889503,,,
32.2500000000,4,1.0852309465,,,
32.5000000000,4,1.0826699734,,,
32.7500000000,4,1.0801080465,,,
33.0000000000,4,1.0788270235,,,
33.2500000000,4,1.0801080465,,,
33.5000000000,4,1.0788270235,,,
33.7500000000,4,1.0788270235,,,
34.0000000000,4,1.0775460005,,,
34.2500000000,4,1.0775460005,,,
34.5000000000,4,1.0762649775,,,
34.7500000000,4,1.0788270235,,,
35.0000000000,4,1.0801080465,,,
35.2500000000,4,1.0813889503,,,
35.5000000000,4,1.0762649775,,,
35.7500000000,4,1.0813889503,,,
36.0000000000,4,1.0775460005,,,
36.2500000000,4,1.0775460005,,,
36.5000000000,4,1.0762649775,,,
36.7500000000,4,1.0775460005,,,
37.0000000000,4,1.0749839544,,,
37.2500000000,4,1.0724229813,,,
37.5000000000,4,1.0724229813,,,
37.7500000000,4,1.0737040043,,,
38.0000000000,4,1.0724229813,,,
38.2500000000,4,1.0685800314,,,
38.5000000000,4,1.0724229813,,,
38.7500000000,4,1.0762649775,,,
39.0000000000,4,1.0685800314,,,
39.2500000000,4,1.0737040043,,,
39.5000000000,4,1.0685800314,,,
39.7500000000,4,1.0737040043,,,
40.0000000000,5,1.0672990084,,,
40.2500000000,5,1.0749839544,,,
40.5000000000,5,1.0698610544,,,
40.7500000000,5,1.0737040043,,,
41.0000000000,5,1.0698610544,,,
41.2500000000,5,1.0724229813,,,
41.5000000000,5,1.0660179853,,,
41.7500000000,5,1.0698610544,,,
42.0000000000,5,1.0660179853,,,
42.2500000000,5,1.0698610544,,,
42.5000000000,5,1.0621759892,,,
42.7500000000,5,1.0647369623,,,
43.0000000000,5,1.0583330393,,,
43.2500000000,5,1.0608949661,,,
43.5000000000,5,1.0596139431,,,
43.7500000000,5,1.0634570122,,,
44.0000000000,5,1.0596139431,,,
44.2500000000,5,1.0621759892,,,
44.5000000000,5,1.0608949661,,,
44.7500000000,5,1.0608949661,,,
45.0000000000,5,1.0557709932,,,
45.2500000000,5,1.0608949661,,,
45.5000000000,5,1.0570520163,,,
45.7500000000,5,1.0596139431,,,
46.0000000000,5,1.0557709932,,,
46.2500000000,5,1.0583330393,,,
46.5000000000,5,1.0544899702,,,
46.7500000000,5,1.0532100201,,,
47.0000000000,5,1.0557709932,,,
47.2500000000,5,1.0506479740,,,
47.5000000000,5,1.0557709932,,,
47.7500000000,5,1.0506479740,,,
48.0000000000,6,1.0557709932,,,
48.2500000000,6,1.0506479740,,,
48.5000000000,6,1.0519289970,,,
48.7500000000,6,1.0506479740,,,
49.0000000000,6,1.0519289970,,,
49.2500000000,6,1.0442440510,,,
49.5000000000,6,1.0506479740,,,
49.7500000000,6,1.0442440510,,,
50.0000000000,6,1.0493669510,,,
50.2500000000,6,1.0455240011,,,
50.5000000000,6,1.0480860472,,,
50.7500000000,6,1.0416820049,,,
51.0000000000,6,1.0480860472,,,
51.2500000000,6,1.0442440510,,,
51.5000000000,6,1.0429630280,,,
51.7500000000,6,1.0416820049,,,
52.0000000000,6,1.0429630280,,,
52.2500000000,6,1.0404009819,,,
52.5000000000,6,1.0429630280,,,
52.7500000000,6,1.0391199589,,,
53.0000000000,6,1.0416820049,,,
53.2500000000,6,1.0378390551,,,
53.5000000000,6,1.0429630280,,,
53.7500000000,6,1.0391199589,,,
54.0000000000,6,1.0404009819,33025:33024,54.0312500000:54.1250000000,0.0000000000:0.0000000000
54.2500000000,6,1.0365580320,,,
54.5000000000,6,1.0404009819,,,
54.7500000000,6,1.0339970589,,,
55.0000000000,6,1.0365580320,,,
55.2500000000,6,1.0378390551,,,
55.5000000000,6,1.0365580320,,,
55.7500000000,6,1.0365580320,,,
56.0000000000,7,1.0378390551,,,
56.2500000000,7,1.0339970589,,,
56.5000000000,7,1.0352770090,,,
56.7500000000,7,1.0327160358,,,
57.0000000000,7,1.0365580320,,,
57.2500000000,7,1.0352770090,,,
57.5000000000,7,1.0339970589,,,
57.7500000000,7,1.0314350128,,,
58.0000000000,7,1.0339970589,,,
58.2500000000,7,1.0314350128,,,
58.5000000000,7,1.0352770090,,,
58.7500000000,7,1.0288729668,,,
59.0000000000,7,1.0314350128,,,
59.2500000000,7,1.0314350128,,,
59.5000000000,7,1.0314350128,,,
59.7500000000,7,1.0288729668,,,
60.0000000000,7,1.0327160358,,,
60.2500000000,7,1.0250300169,,,
60.5000000000,7,1.0327160358,,,
60.7500000000,7,1.0301539898,,,
61.0000000000,7,1.0339970589,,,
61.2500000000,7,1.0275919437,,,
61.5000000000,7,1.0314350128,,,
61.7500000000,7,1.0275919437,,,
62.0000000000,7,1.0275919437,,,
62.2500000000,7,1.0365580320,,,
62.5000000000,7,1.0275919437,,,
62.7500000000,7,1.0301539898,,,
63.0000000000,7,1.0237499475,,,
63.2500000000,7,1.0263110399,,,
63.5000000000,7,1.0263110399,,,
63.7500000000,7,1.0275919437,,,
64.0000000000,8,1.0250300169,,,
64.2500000000,8,1.0263110399,,,
64.5000000000,8,1.0250300169,,,
64.7500000000,8,1.0263110399,,,
65.0000000000,8,1.0237499475,,,
65.2500000000,8,1.0250300169,,,
65.5000000000,8,1.0275919437,,,
65.7500000000,8,1.0250300169,,,
66.0000000000,8,1.0263110399,,,
66.2500000000,8,1.0263110399,,,
66.5000000000,8,1.0237499475,,,
66.7500000000,8,1.0250300169,,,
67.0000000000,8,1.0237499475,,,
67.2500000000,8,1.0263110399,,,
67.5000000000,8,1.0211880207,,,
67.7500000000,8,1.0275919437,,,
68.0000000000,8,1.0237499475,,,
68.2500000000,8,1.0250300169,,,
68.5000000000,8,1.0173449516,,,
68.7500000000,8,1.0224690437,,,
69.0000000000,8,1.0211880207,,,
69.2500000000,8,1.0224690437,,,
69.5000000000,8,1.0211880207,,,
69.7500000000,8,1.0211880207,,,
70.0000000000,8,1.0211880207,,,
70.2500000000,8,1.0237499475,,,
70.5000000000,8,1.0186259747,,,
70.7500000000,8,1.0199069977,,,
71.0000000000,8,1.0135029554,,,
71.2500000000,8,1.0173449516,,,
71.5000000000,8,1.0122220516,,,
71.7500000000,8,1.0147839785,,,
72.0000000000,9,1.0109410286,,,
72.2500000000,9,1.0147839785,,,
72.5000000000,9,1.0109410286,,,
72.7500000000,9,1.0135029554,,,
73.0000000000,9,1.0109410286,,,
73.2500000000,9,1.0147839785,,,
73.5000000000,9,1.0096600056,,,
73.7500000000,9,1.0160640478,,,
74.0000000000,9,1.0083789825,,,
74.2500000000,9,1.0147839785,,,
74.5000000000,9,1.0135029554,,,
74.7500000000,9,1.0135029554,,,
75.0000000000,9,1.0096600056,,,
75.2500000000,9,1.0096600056,,,
75.5000000000,9,1.0083789825,,,
75.7500000000,9,1.0122220516,,,
76.0000000000,9,1.0070979595,,,
76.2500000000,9,1.0070979595,,,
76.5000000000,9,1.0058180094,,,
76.7500000000,9,1.0058180094,,,
77.0000000000,9,1.0032559633,,,
77.2500000000,9,1.0096600056,,,
77.5000000000,9,1.0032559633,,,
77.7500000000,9,1.0070979595,,,
78.0000000000,9,1.0058180094,,,
78.2500000000,9,1.0109410286,,,
78.5000000000,9,1.0083789825,,,
78.7500000000,9,1.0058180094,,,
79.0000000000,9,1.0058180094,,,
79.2500000000,9,1.0058180094,,,
79.5000000000,9,1.0032559633,,,
79.7500000000,9,1.0070979595,,,
80.0000000000,10,1.0019750595,,,
80.2500000000,10,1.0045369864,,,
80.5000000000,10,1.0032559633,,,
80.7500000000,10,1.0032559633,,,
81.0000000000,10,1.0006940365,,,
81.2500000000,10,1.0032559633,,,
81.5000000000,10,0.9994130731,,,
81.7500000000,10,1.0019750595,,,
82.0000000000,10,0.9994130731,,,
82.2500000000,10,0.9994130731,,,
82.5000000000,10,0.9994130731,,,
82.7500000000,10,1.0019750595,,,
83.0000000000,10,1.0006940365,,,
83.2500000000,10,1.0032559633,,,
83.5000000000,10,0.9994130731,,,
83.7500000000,10,1.0032559633,,,
84.0000000000,10,0.9981322885,,,
84.2500000000,10,0.9994130731,,,
84.5000000000,10,0.9968513846,,,
84.7500000000,10,1.0006940365,,,
85.0000000000,10,0.9955704808,,,
85.2500000000,10,1.0006940365,,,
85.5000000000,10,0.9968513846,,,
85.7500000000,10,1.0006940365,,,
86.0000000000,10,0.9955704808,,,
86.2500000000,10,1.0006940365,,,
86.5000000000,10,0.9968513846,,,
86.7500000000,10,0.9994130731,,,
87.0000000000,10,0.9942896962,,,
87.2500000000,10,0.9981322885,,,
87.5000000000,10,0.9955704808,,,
87.7500000000,10,0.9955704808,,,
88.0000000000,11,0.9942896962,,,
88.2500000000,11,0.9942896962,,,
88.5000000000,11,0.9930087924,,,
88.7500000000,11,0.9981322885,,,
89.0000000000,11,0.9930087924,,,
89.2500000000,11,0.9968513846,,,
89.5000000000,11,0.9930087924,,,
89.7500000000,11,0.9968513846,,,
90.0000000000,11,0.9917278886,,,
90.2500000000,11,0.9942896962,,,
90.5000000000,11,0.9878854156,,,
90.7500000000,11,0.9930087924,,,
91.0000000000,11,0.9917278886,,,
91.2500000000,11,0.9955704808,,,
91.5000000000,11,0.9904469848,,,
91.7500000000,11,0.9917278886,,,
92.0000000000,11,0.9891662002,,,
92.2500000000,11,0.9904469848,,,
92.5000000000,11,0.9904469848,,,
92.7500000000,11,0.9891662002,,,
93.0000000000,11,0.9891662002,,,
93.2500000000,11,0.9878854156,,,
93.5000000000,11,0.9891662002,,,
93.7500000000,11,0.9891662002,,,
94.0000000000,11,0.9878854156,,,
94.2500000000,11,0.9878854156,,,
94.5000000000,11,0.9853236079,,,
94.7500000000,11,0.9853236079,,,
95.0000000000,11,0.9866045117,,,
95.2500000000,11,0.9853236079,,,
95.5000000000,11,0.9891662002,,,
95.7500000000,11,0.9827619195,,,
96.0000000000,12,0.9853236079,,,
96.2500000000,12,0.9840427041,,,
96.5000000000,12,0.9866045117,,,
96.7500000000,12,0.9840427041,,,
97.0000000000,12,0.9866045117,,,
97.2500000000,12,0.9853236079,,,
97.5000000000,12,0.9853236079,,,
97.7500000000,12,0.9827619195,,,
98.0000000000,12,0.9827619195,,,
98.2500000000,12,0.9827619195,,,
98.5000000000,12,0.9814810157,,,
98.7500000000,12,0.9827619195,,,
99.0000000000,12,0.9827619195,,,
99.2500000000,12,0.9827619195,,,
99.5000000000,12,0.9853236079,,,
99.7500000000,12,0.9789193273,,,
100.0000000000,12,0.9814810157,,,
100.2500000000,12,0.9802001119,,,
100.5000000000,12,0.9802001119,,,
100.7500000000,12,0.9802001119,,,
101.0000000000,12,0.9802001119,,,
101.2500000000,12,0.9725149274,,,
101.5000000000,12,0.9699531794,,,
101.7500000000,12,0.9673913717,,,
102.0000000000,12,0.9725149274,,,
102.2500000000,12,0.9712340236,,,
102.5000000000,12,0.9750766754,,,
102.7500000000,12,0.9712340236,,,
103.0000000000,12,0.9737957716,,,
103.2500000000,12,0.9725149274,,,
103.5000000000,12,0.9776384234,,,
103.7500000000,12,0.9712340236,,,
104.0000000000,13,0.9763575196,,,
104.2500000000,13,0.9725149274,,,
104.5000000000,13,0.9776384234,,,
104.7500000000,13,0.9737957716,,,
105.0000000000,13,0.9737957716,,,
105.2500000000,13,0.9725149274,,,
105.5000000000,13,0.9776384234,,,
105.7500000000,13,0.9699531794,,,
106.0000000000,13,0.9776384234,,,
106.2500000000,13,0.9712340236,,,
106.5000000000,13,0.9763575196,,,
106.7500000000,13,0.9725149274,,,
107.0000000000,13,0.9686722755,,,
107.2500000000,13,0.9686722755,,,
107.5000000000,13,0.9750766754,,,
107.7500000000,13,0.9712340236,,,
108.0000000000,13,0.9725149274,,,
108.2500000000,13,0.9686722755,,,
108.5000000000,13,0.9737957716,,,
108.7500000000,13,0.9661105871,,,
109.0000000000,13,0.9725149274,,,
109.2500000000,13,0.9648296833,,,
109.5000000000,13,0.9686722755,,,
109.7500000000,13,0.9648296833,,,
110.0000000000,13,0.9686722755,,,
110.2500000000,13,0.9648296833,,,
110.5000000000,13,0.9635487795,,,
110.7500000000,13,0.9661105871,,,
111.0000000000,13,0.9648296833,,,
111.2500000000,13,0.9635487795,,,
111.5000000000,13,0.9635487795,,,
111.7500000000,13,0.9661105871,,,
112.0000000000,14,0.9635487795,,,
112.2500000000,14,0.9622678757,,,
112.5000000000,14,0.9609870911,,,
112.7500000000,14,0.9622678757,,,
113.0000000000,14,0.9597061872,,,
113.2500000000,14,0.9635487795,,,
113.5000000000,14,0.9609870911,,,
113.7500000000,14,0.9648296833,,,
114.0000000000,14,0.9622678757,,,
114.2500000000,14,0.9597061872,,,
114.5000000000,14,0.9584252834,,,
114.7500000000,14,0.9597061872,,,
115.0000000000,14,0.9533019066,,,
115.2500000000,14,0.9571444988,,,
115.5000000000,14,0.9533019066,,,
115.7500000000,14,0.9609870911,,,
116.0000000000,14,0.9558635950,,,
116.2500000000,14,0.9597061872,,,
116.5000000000,14,0.9584252834,,,
116.7500000000,14,0.9545828104,,,
117.0000000000,14,0.9533019066,,,
117.2500000000,14,0.9545828104,,,
117.5000000000,14,0.9584252834,,,
117.7500000000,14,0.9533019066,,,
118.0000000000,14,0.9520210028,,,
118.2500000000,14,0.9533019066,,,
118.5000000000,14,0.9558635950,,,
118.7500000000,14,0.9545828104,,,
119.0000000000,14,0.9545828104,,,
119.2500000000,14,0.9520210028,,,
119.5000000000,14,0.9545828104,,,
119.7500000000,14,0.9533019066,,,
120.0000000000,15,0.9558635950,,,
120.2500000000,15,0.9520210028,,,
120.5000000000,15,0.9545828104,,,
120.7500000000,15,0.9494593143,,,
121.0000000000,15,0.9520210028,,,
121.2500000000,15,0.9494593143,,,
121.5000000000,15,0.9545828104,,,
121.7500000000,15,0.9520210028,,,
122.0000000000,15,0.9507402182,,,
122.2500000000,15,0.9520210028,,,
122.5000000000,15,0.9507402182,,,
122.7500000000,15,0.9481784105,,,
123.0000000000,15,0.9507402182,,,
123.2500000000,15,0.9494593143,,,
123.5000000000,15,0.9456167221,,,
123.7500000000,15,0.9494593143,,,
124.0000000000,15,0.9494593143,,,
124.2500000000,15,0.9494593143,,,
124.5000000000,15,0.9545828104,,,
124.7500000000,15,0.9494593143,,,
125.0000000000,15,0.9520210028,,,
125.2500000000,15,0.9468976259,,,
125.5000000000,15,0.9533019066,,,
125.7500000000,15,0.9507402182,,,
126.0000000000,15,0.9533019066,,,
126.2500000000,15,0.9494593143,,,
126.5000000000,15,0.9533019066,,,
126.7500000000,15,0.9481784105,,,
127.0000000000,15,0.9520210028,,,
127.2500000000,15,0.9507402182,,,
127.5000000000,15,0.9533019066,,,
127.7500000000,15,0.9468976259,,,
128.0000000000,16,0.9533019066,,,
128.2500000000,16,0.9456167221,,,
128.5000000000,16,0.9533019066,,,
128.7500000000,16,0.9481784105,,,
129.0000000000,16,0.9468976259,,,
129.2500000000,16,0.9481784105,,,
129.5000000000,16,0.9507402182,,,
129.7500000000,16,0.9456167221,,,
130.0000000000,16,0.9520210028,,,
130.2500000000,16,0.9456167221,,,
130.5000000000,16,0.9494593143,,,
130.7500000000,16,0.9456167221,,,
131.0000000000,16,0.9494593143,,,
131.2500000000,16,0.9417740703,,,
131.5000000000,16,0.9443358183,,,
131.7500000000,16,0.9379314780,,,
132.0000000000,16,0.9430549145,,,
132.2500000000,16,0.9404932261,,,
132.5000000000,16,0.9456167221,,,
132.7500000000,16,0.9430549145,,,
133.0000000000,16,0.9443358183,,,
133.2500000000,16,0.9404932261,,,
133.5000000000,16,0.9443358183,,,
133.7500000000,16,0.9417740703,,,
134.0000000000,16,0.9430549145,,,
134.2500000000,16,0.9417740703,,,
134.5000000000,16,0.9430549145,,,
134.7500000000,16,0.9417740703,,,
135.0000000000,16,0.9443358183,,,
135.2500000000,16,0.9417740703,,,
135.5000000000,16,0.9456167221,,,
135.7500000000,16,0.9392123222,,,
136.0000000000,17,0.9404932261,,,
136.2500000000,17,0.8943818808,,,
136.5000000000,17,0.8956627846,,,
136.7500000000,17,0.8866968155,,,
137.0000000000,17,0.8713263273,,,
137.2500000000,17,0.8354619741,,,
137.5000000000,17,0.8316193819,,,
137.7500000000,17,0.8149681091,,,
138.0000000000,17,0.8124064207,,,
138.2500000000,17,0.8136873245,,,
138.5000000000,17,0.8098446131,,,
138.7500000000,17,0.8149681091,,,
139.0000000000,17,0.8008785844,,,
139.2500000000,17,0.7957550883,,,
139.5000000000,17,0.7931932807,,,
139.7500000000,17,0.7931932807,,,
140.0000000000,17,0.7919124961,,,
140.2500000000,17,0.7983167768,,,
140.5000000000,17,0.8008785844,,,
140.7500000000,17,0.8252149820,,,
141.0000000000,17,0.8341810703,,,
141.2500000000,17,0.8367428780,,,
141.5000000000,17,0.8200916052,,,
141.7500000000,17,0.8072829247,,,
142.0000000000,17,0.8008785844,,,
142.2500000000,17,0.8124064207,,,
142.5000000000,17,0.8213723898,,,
142.7500000000,17,0.8175299168,,,
143.0000000000,17,0.8200916052,,,
143.2500000000,17,0.8226532936,,,
143.5000000000,17,0.8162490129,,,
143.7500000000,17,0.8200916052,,,
144.0000000000,18,0.8149681091,,,
144.2500000000,18,0.8188107014,,,
144.5000000000,18,0.8124064207,,,
144.7500000000,18,0.8188107014,,,
145.0000000000,18,0.8034402728,,,
145.2500000000,18,0.7983167768,,,
145.5000000000,18,0.8021594286,,,
145.7500000000,18,0.8034402728,,,
146.0000000000,18,0.8047211766,,,
146.2500000000,18,0.8060020208,,,
146.5000000000,18,0.8098446131,,,
146.7500000000,18,0.8226532936,,,
147.0000000000,18,0.8521133065,,,
147.2500000000,18,0.8533942103,,,
147.5000000000,18,0.8559558988,,,
147.7500000000,18,0.8674836755,,,
148.0000000000,18,0.8892583847,,,
148.2500000000,18,0.8802924156,,,
148.5000000000,18,0.8854159117,,,
148.7500000000,18,0.8777307272,,,
149.0000000000,18,0.8777307272,,,
149.2500000000,18,0.8726071715,,,
149.5000000000,18,0.8713263273,,,
149.7500000000,18,0.8623601794,,,
150.0000000000,18,0.8700454235,,,
150.2500000000,18,0.8623601794,,,
150.5000000000,18,0.8662027717,,,
150.7500000000,18,0.8610793948,,,
151.0000000000,18,0.8585175872,,,
151.2500000000,18,0.8546751142,,,
151.5000000000,18,0.8585175872,,,
151.7500000000,18,0.8521133065,,,
152.0000000000,19,0.8482707143,,,
152.2500000000,19,0.8444281220,,,
152.5000000000,19,0.8508324027,,,
152.7500000000,19,0.8418663740,,,
153.0000000000,19,0.8431472182,,,
153.2500000000,19,0.8431472182,,,
153.5000000000,19,0.8495516181,,,
153.7500000000,19,0.8405854702,,,
154.0000000000,19,0.8457090259,,,
154.2500000000,19,0.8405854702,,,
154.5000000000,19,0.8418663740,,,
154.7500000000,19,0.8444281220,,,
155.0000000000,19,0.8418663740,,,
155.2500000000,19,0.8405854702,,,
155.5000000000,19,0.8380237222,,,
155.7500000000,19,0.8367428780,,,
156.0000000000,19,0.8367428780,,,
156.2500000000,19,0.8316193819,,,
156.5000000000,19,0.8316193819,,,
156.7500000000,19,0.8316193819,,,
157.0000000000,19,0.8354619741,,,
157.2500000000,19,0.8341810703,,,
157.5000000000,19,0.8316193819,,,
157.7500000000,19,0.8393046260,,,
158.0000000000,19,0.8495516181,,,
158.2500000000,19,0.8559558988,,,
158.5000000000,19,0.8674836755,,,
158.7500000000,19,0.8597984910,,,
159.0000000000,19,0.8546751142,,,
159.2500000000,19,0.8533942103,,,
159.5000000000,19,0.8572366834,,,
159.7500000000,19,0.8597984910,,,
160.0000000000,20,0.8572366834,,,
160.2500000000,20,0.8585175872,,,
160.5000000000,20,0.8559558988,,,
160.7500000000,20,0.8572366834,,,
161.0000000000,20,0.8559558988,,,
161.2500000000,20,0.8585175872,,,
161.5000000000,20,0.8546751142,,,
161.7500000000,20,0.8572366834,,,
162.0000000000,20,0.8533942103,,,
162.2500000000,20,0.8585175872,,,
162.5000000000,20,0.8585175872,,,
162.7500000000,20,0.8636410832,,,
163.0000000000,20,0.8597984910,,,
163.2500000000,20,0.8623601794,,,
163.5000000000,20,0.8585175872,,,
163.7500000000,20,0.8623601794,,,
164.0000000000,20,0.8585175872,,,
164.2500000000,20,0.8572366834,,,
164.5000000000,20,0.8559558988,,,
164.7500000000,20,0.8495516181,,,
165.0000000000,20,0.8521133065,,,
165.2500000000,20,0.8610793948,,,
165.5000000000,20,0.8751689196,,,
165.7500000000,20,0.8931010962,,,
166.0000000000,20,0.9148759246,,,
166.2500000000,20,0.9212802052,,,
166.5000000000,20,0.9174376130,,,
166.7500000000,20,0.9212802052,,,
167.0000000000,20,0.9148759246,,,
167.2500000000,20,0.9110332131,,,
167.5000000000,20,0.9046288729,,,
167.7500000000,20,0.9033480287,,,
168.0000000000,21,0.8995053768,,,
168.2500000000,21,0.8995053768,,,
168.5000000000,21,0.9007862806,,,
168.7500000000,21,0.9020671844,,,
169.0000000000,21,0.9123141170,,,
169.2500000000,21,0.9212802052,,,
169.5000000000,21,0.9481784105,,,
169.7500000000,21,0.9545828104,,,
170.0000000000,21,0.9814810157,,,
170.2500000000,21,1.0211880207,,,
170.5000000000,21,1.0250300169,,,
170.7500000000,21,1.0532100201,,,
171.0000000000,21,1.1082869768,,,
171.2500000000,21,1.1185339689,,,
171.5000000000,21,1.1223770380,,,
171.7500000000,21,1.1185339689,,,
172.0000000000,21,1.1403089762,,,
172.2500000000,21,1.1390279531,,,
172.5000000000,21,1.1057250500,,,
172.7500000000,21,1.0058180094,,,
173.0000000000,21,0.9904469848,,,
173.2500000000,21,1.0006940365,33025:33024,173.3125000000:173.4062500000,0.0000000000:0.0000000000
173.5000000000,21,1.0199069977,,,
173.7500000000,21,1.0237499475,,,
174.0000000000,21,1.0301539898,,,
174.2500000000,21,1.0339970589,,,
174.5000000000,21,1.0442440510,,,
174.7500000000,21,1.0544899702,,,
175.0000000000,21,1.0647369623,,,
175.2500000000,21,1.0596139431,,,
175.5000000000,21,1.0557709932,,,
175.7500000000,21,1.0544899702,,,
176.0000000000,22,1.0570520163,,,
176.2500000000,22,1.0442440510,,,
176.5000000000,22,1.0532100201,,,
176.7500000000,22,1.0685800314,,,
177.0000000000,22,1.1339039803,,,
177.2500000000,22,1.1928240061,,,
177.5000000000,22,1.1941050291,,,
177.7500000000,22,1.1979479790,,,
178.0000000000,22,1.2005089521,,,
178.2500000000,22,1.2069139481,,,
178.5000000000,22,1.2145990133,,,
178.7500000000,22,1.2440589666,,,
179.0000000000,22,1.2530250549,,,
179.2500000000,22,1.2568680048,,,
179.5000000000,22,1.2568680048,,,
179.7500000000,22,1.2543059587,,,
180.0000000000,22,1.2530250549,,,
180.2500000000,22,1.2543059587,,,
180.5000000000,22,1.2568680048,,,
180.7500000000,22,1.2543059587,,,
181.0000000000,22,1.2543059587,,,
181.2500000000,22,1.2517440319,,,
181.5000000000,22,1.2517440319,,,
181.7500000000,22,1.2555869818,,,
182.0000000000,22,1.2491819859,,,
182.2500000000,22,1.2555869818,,,
182.5000000000,22,1.2517440319,,,
182.7500000000,22,1.2530250549,,,
183.0000000000,22,1.2504630089,,,
183.2500000000,22,1.2543059587,,,
183.5000000000,22,1.2530250549,,,
183.7500000000,22,1.2543059587,,,
184.0000000000,23,1.2517440319,,,
184.2500000000,23,1.2543059587,,,
184.5000000000,23,1.2504630089,,,
184.7500000000,23,1.2504630089,,,
185.0000000000,23,1.2504630089,,,
185.2500000000,23,1.2491819859,,,
185.5000000000,23,1.2466210127,,,
185.7500000000,23,1.2466210127,,,
186.0000000000,23,1.2414970398,,,
186.2500000000,23,1.2453399897,,,
186.5000000000,23,1.2389349937,,,
186.7500000000,23,1.2427779436,,,
187.0000000000,23,1.2376550436,,,
187.2500000000,23,1.2376550436,,,
187.5000000000,23,1.2389349937,,,
187.7500000000,23,1.2414970398,,,
188.0000000000,23,1.2389349937,,,
188.2500000000,23,1.2376550436,,,
188.5000000000,23,1.2350929976,,,
188.7500000000,23,1.2325309515,,,
189.0000000000,23,1.2376550436,,,
189.2500000000,23,1.2350929976,,,
189.5000000000,23,1.2312500477,,,
189.7500000000,23,1.2338119745,,,
190.0000000000,23,1.2350929976,,,
190.2500000000,23,1.2350929976,,,
190.5000000000,23,1.2363740206,,,
190.7500000000,23,1.2338119745,,,
191.0000000000,23,1.2376550436,,,
191.2500000000,23,1.2325309515,,,
191.5000000000,23,1.2338119745,,,
191.7500000000,23,1.2325309515,,,
192.0000000000,24,1.2325309515,,,
192.2500000000,24,1.2299690247,,,
192.5000000000,24,1.2312500477,,,
192.7500000000,24,1.2299690247,,,
193.0000000000,24,1.2350929976,,,
193.2500000000,24,1.2312500477,,,
193.5000000000,24,1.2325309515,,,
193.7500000000,24,1.2338119745,,,
194.0000000000,24,1.2312500477,,,
194.2500000000,24,1.2274080515,,,
194.5000000000,24,1.2312500477,,,
194.7500000000,24,1.2299690247,,,
195.0000000000,24,1.2312500477,,,
195.2500000000,24,1.2274080515,,,
195.5000000000,24,1.2299690247,,,
195.7500000000,24,1.2286889553,,,
196.0000000000,24,1.2286889553,,,
196.2500000000,24,1.2248460054,,,
196.5000000000,24,1.2286889553,,,
196.7500000000,24,1.2248460054,,,
197.0000000000,24,1.2261270285,,,
197.2500000000,24,1.2248460054,,,
197.5000000000,24,1.2274080515,,,
197.7500000000,24,1.2222839594,,,
198.0000000000,24,1.2235649824,,,
198.2500000000,24,1.2222839594,,,
198.5000000000,24,1.2235649824,,,
198.7500000000,24,1.2248460054,,,
199.0000000000,24,1.2210030556,,,
199.2500000000,24,1.2222839594,,,
199.5000000000,24,1.2184419632,,,
199.7500000000,24,1.2171610594,,,
200.0000000000,25,1.2184419632,,,
200.2500000000,25,1.2184419632,,,
200.5000000000,25,1.2171610594,,,
200.7500000000,25,1.2210030556,,,
201.0000000000,25,1.2197229862,,,
201.2500000000,25,1.2184419632,,,
201.5000000000,25,1.2145990133,,,
201.7500000000,25,1.2133179903,,,
202.0000000000,25,1.2120369673,,,
202.2500000000,25,1.2120369673,,,
202.5000000000,25,1.2107559443,,,
202.7500000000,25,1.2094759941,,,
203.0000000000,25,1.2107559443,,,
203.2500000000,25,1.2081949711,,,
203.5000000000,25,1.2081949711,,,
203.7500000000,25,1.2107559443,,,
204.0000000000,25,1.2069139481,,,
204.2500000000,25,1.2081949711,,,
204.5000000000,25,1.2043520212,,,
204.7500000000,25,1.2081949711,,,
205.0000000000,25,1.2056330442,,,
205.2500000000,25,1.2030709982,,,
205.5000000000,25,1.2017899752,,,
205.7500000000,25,1.2005089521,,,
206.0000000000,25,1.1966669559,,,
206.2500000000,25,1.2017899752,,,
206.5000000000,25,1.1979479790,,,
206.7500000000,25,1.2017899752,,,
207.0000000000,25,1.1979479790,,,
207.2500000000,25,1.2017899752,,,
207.5000000000,25,1.1992290020,,,
207.7500000000,25,1.2005089521,,,
208.0000000000,26,1.1966669559,,,
208.2500000000,26,1.2017899752,,,
208.5000000000,26,1.1966669559,,,
208.7500000000,26,1.1966669559,,,
209.0000000000,26,1.1953860521,,,
209.2500000000,26,1.1941050291,,,
209.5000000000,26,1.1953860521,,,
209.7500000000,26,1.1966669559,,,
210.0000000000,26,1.1953860521,,,
210.2500000000,26,1.1979479790,,,
210.5000000000,26,1.1928240061,,,
210.7500000000,26,1.1966669559,,,
211.0000000000,26,1.1928240061,,,
211.2500000000,26,1.1941050291,,,
211.5000000000,26,1.1902630329,,,
211.7500000000,26,1.1915429831,,,
212.0000000000,26,1.1864199638,,,
212.2500000000,26,1.1902630329,,,
212.5000000000,26,1.1915429831,,,
212.7500000000,26,1.1889820099,,,
213.0000000000,26,1.1877009869,,,
213.2500000000,26,1.1889820099,,,
213.5000000000,26,1.1838580370,,,
213.7500000000,26,1.1864199638,,,
214.0000000000,26,1.1838580370,,,
214.2500000000,26,1.1838580370,,,
214.5000000000,26,1.1838580370,,,
214.7500000000,26,1.1838580370,,,
215.0000000000,26,1.1812959909,,,
215.2500000000,26,1.1787350178,,,
215.5000000000,26,1.1800160408,,,
215.7500000000,26,1.1800160408,,,
216.0000000000,27,1.1812959909,,,
216.2500000000,27,1.1787350178,,,
216.5000000000,27,1.1787350178,,,
216.7500000000,27,1.1774539948,,,
217.0000000000,27,1.1774539948,,,
217.2500000000,27,1.1761729717,,,
217.5000000000,27,1.1787350178,,,
217.7500000000,27,1.1761729717,,,
218.0000000000,27,1.1787350178,,,
218.2500000000,27,1.1748919487,,,
218.5000000000,27,1.1736110449,,,
218.7500000000,27,1.1723300219,,,
219.0000000000,27,1.1761729717,,,
219.2500000000,27,1.1748919487,,,
219.5000000000,27,1.1761729717,,,
219.7500000000,27,1.1710489988,,,
220.0000000000,27,1.1736110449,,,
220.2500000000,27,1.1697690487,,,
220.5000000000,27,1.1710489988,,,
220.7500000000,27,1.1697690487,,,
221.0000000000,27,1.1723300219,,,
221.2500000000,27,1.1697690487,,,
221.5000000000,27,1.1684880257,,,
221.7500000000,27,1.1633640528,,,
222.0000000000,27,1.1672070026,,,
222.2500000000,27,1.1620830297,,,
222.5000000000,27,1.1646449566,,,
222.7500000000,27,1.1620830297,,,
223.0000000000,27,1.1608029604,,,
223.2500000000,27,1.1659259796,,,
223.5000000000,27,1.1620830297,,,
223.7500000000,27,1.1608029604,,,
224.0000000000,28,1.1595220566,,,
224.2500000000,28,1.1620830297,,,
224.5000000000,28,1.1608029604,,,
224.7500000000,28,1.1633640528,,,
225.0000000000,28,1.1608029604,,,
225.2500000000,28,1.1582410336,,,
225.5000000000,28,1.1595220566,,,
225.7500000000,28,1.1620830297,,,
226.0000000000,28,1.1595220566,,,
226.2500000000,28,1.1608029604,,,
226.5000000000,28,1.1582410336,,,
226.7500000000,28,1.1620830297,,,
227.0000000000,28,1.1556789875,,,
227.2500000000,28,1.1582410336,,,
227.5000000000,28,1.1582410336,,,
227.7500000000,28,1.1608029604,,,
228.0000000000,28,1.1582410336,,,
228.2500000000,28,1.1684880257,,,
228.5000000000,28,1.1697690487,,,
228.7500000000,28,1.1787350178,,,
229.0000000000,28,1.1800160408,,,
229.2500000000,28,1.1812959909,,,
229.5000000000,28,1.1774539948,,,
229.7500000000,28,1.1761729717,,,
230.0000000000,28,1.1723300219,,,
230.2500000000,28,1.1748919487,,,
230.5000000000,28,1.1710489988,,,
230.7500000000,28,1.1697690487,,,
231.0000000000,28,1.1659259796,,,
231.2500000000,28,1.1684880257,,,
231.5000000000,28,1.1620830297,,,
231.7500000000,28,1.1659259796,,,
232.0000000000,29,1.1620830297,,,
232.2500000000,29,1.1659259796,,,
232.5000000000,29,1.1633640528,,,
232.7500000000,29,1.1646449566,,,
233.0000000000,29,1.1608029604,,,
233.2500000000,29,1.1659259796,,,
233.5000000000,29,1.1633640528,,,
233.7500000000,29,1.1723300219,,,
234.0000000000,29,1.1723300219,,,
234.2500000000,29,1.1800160408,,,
234.5000000000,29,1.1787350178,,,
234.7500000000,29,1.1877009869,,,
235.0000000000,29,1.1838580370,,,
235.2500000000,29,1.1825770140,,,
235.5000000000,29,1.1812959909,,,
235.7500000000,29,1.1825770140,,,
236.0000000000,29,1.1800160408,,,
236.2500000000,29,1.1825770140,,,
236.5000000000,29,1.1748919487,,,
236.7500000000,29,1.1774539948,,,
237.0000000000,29,1.1697690487,,,
237.2500000000,29,1.1748919487,,,
237.5000000000,29,1.1684880257,,,
237.7500000000,29,1.1697690487,,,
238.0000000000,29,1.1684880257,,,
238.2500000000,29,1.1672070026,,,
238.5000000000,29,1.1646449566,,,
238.7500000000,29,1.1672070026,,,
239.0000000000,29,1.1556789875,,,
239.2500000000,29,1.1646449566,,,
239.5000000000,29,1.1608029604,,,
239.7500000000,29,1.1633640528,,,
240.0000000000,30,1.1582410336,,,
240.2500000000,30,1.1620830297,,,
240.5000000000,30,1.1569600105,,,
240.7500000000,30,1.1595220566,,,
241.0000000000,30,1.1569600105,,,
241.2500000000,30,1.1595220566,,,
241.5000000000,30,1.1543979645,,,
241.7500000000,30,1.1543979645,,,
242.0000000000,30,1.1531169415,,,
242.2500000000,30,1.1543979645,,,
242.5000000000,30,1.1492749453,,,
242.7500000000,30,1.1531169415,,,
243.0000000000,30,1.1518369913,,,
243.2500000000,30,1.1518369913,,,
243.5000000000,30,1.1531169415,,,
243.7500000000,30,1.1531169415,,,
244.0000000000,30,1.1492749453,,,
244.2500000000,30,1.1479940414,,,
244.5000000000,30,1.1479940414,,,
244.7500000000,30,1.1479940414,,,
245.0000000000,30,1.1518369913,,,
245.2500000000,30,1.1479940414,,,
245.5000000000,30,1.1569600105,,,
245.7500000000,30,1.1684880257,,,
246.0000000000,30,1.1902630329,,,
246.2500000000,30,1.2069139481,,,
246.5000000000,30,1.2145990133,,,
246.7500000000,30,1.2222839594,,,
247.0000000000,30,1.2350929976,,,
247.2500000000,30,1.2325309515,,,
247.5000000000,30,1.2402160168,,,
247.7500000000,30,1.2389349937,,,
248.0000000000,31,1.2363740206,,,
248.2500000000,31,1.2312500477,,,
248.5000000000,31,1.2325309515,,,
248.7500000000,31,1.2274080515,,,
249.0000000000,31,1.2286889553,,,
249.2500000000,31,1.2235649824,,,
249.5000000000,31,1.2248460054,,,
249.7500000000,31,1.2210030556,,,
250.0000000000,31,1.2184419632,,,
250.2500000000,31,1.2171610594,,,
250.5000000000,31,1.2184419632,,,
250.7500000000,31,1.2171610594,,,
251.0000000000,31,1.2158800364,,,
251.2500000000,31,1.2120369673,,,
251.5000000000,31,1.2171610594,,,
251.7500000000,31,1.2120369673,,,
252.0000000000,31,1.2184419632,,,
252.2500000000,31,1.2197229862,,,
252.5000000000,31,1.2312500477,,,
252.7500000000,31,1.2363740206,,,
253.0000000000,31,1.2440589666,,,
253.2500000000,31,1.2453399897,,,
253.5000000000,31,1.2581490278,,,
253.7500000000,31,1.2683960199,,,
254.0000000000,31,1.2709569931,,,
254.2500000000,31,1.2683960199,,,
254.5000000000,31,1.2683960199,,,
254.7500000000,31,1.2619910240,,,
255.0000000000,31,1.2594289780,,,
255.2500000000,31,1.2530250549,,,
255.5000000000,31,1.2517440319,,,
255.7500000000,31,1.2491819859,,,
256.0000000000,32,1.2530250549,,,
256.2500000000,32,1.2530250549,,,
256.5000000000,32,1.2760809660,,,
256.7500000000,32,1.2991360426,,,
257.0000000000,32,1.3375619650,,,
257.2500000000,32,1.3952009678,,,
257.5000000000,32,1.4259419441,,,
257.7500000000,32,1.4451550245,,,
258.0000000000,32,1.4682110548,,,
258.2500000000,32,1.4478160143,,,
258.5000000000,32,1.4490970373,,,
258.7500000000,32,1.4426929951,,,
259.0000000000,32,1.4401309490,,,
259.2500000000,32,1.4273220301,,,
259.5000000000,32,1.4234800339,,,
259.7500000000,32,1.4132330418,,,
260.0000000000,32,1.4093899727,,,
260.2500000000,32,1.4081089497,,,
260.5000000000,32,1.4017050266,,,
260.7500000000,32,1.3940199614,,,
261.0000000000,32,1.3953009844,,,
261.2500000000,32,1.3888959885,,,
261.5000000000,32,1.3927390575,,,
261.7500000000,32,1.3901770115,,,
262.0000000000,32,1.4106709957,,,
262.2500000000,32,1.4273220301,,,
262.5000000000,32,1.4593440294,,,
262.7500000000,32,1.4721529484,,,
263.0000000000,32,1.4926459789,,,
263.2500000000,32,1.5259490013,,,
263.5000000000,32,1.5413190126,,,
263.7500000000,32,1.5361959934,,,
264.0000000000,33,1.5349149704,,,
264.2500000000,33,1.5272300243,,,
264.5000000000,33,1.5310720205,,,
264.7500000000,33,1.5515660048,,,
265.0000000000,33,1.5848690271,,,
265.2500000000,33,1.6207330227,,,
265.5000000000,33,1.6745300293,,,
265.7500000000,33,1.7308880091,,,
266.0000000000,33,1.8051780462,,,
266.2500000000,33,1.8231099844,,,
266.5000000000,33,1.8051780462,,,
266.7500000000,33,1.7936509848,,,
267.0000000000,33,1.7744380236,,,
267.2500000000,33,1.7629100084,,,
267.5000000000,33,1.7513819933,,,
267.7500000000,33,1.7411350012,,,
268.0000000000,33,1.7296069860,,,
268.2500000000,33,1.7180789709,,,
268.5000000000,33,1.7142369747,,,
268.7500000000,33,1.7142369747,,,
269.0000000000,33,1.7065520287,,,
269.2500000000,33,1.6963050365,,,
269.5000000000,33,1.6963050365,,,
269.7500000000,33,1.6975849867,,,
270.0000000000,33,1.6950240135,,,
270.2500000000,33,1.6937429905,,,
270.5000000000,33,1.6886190176,,,
270.7500000000,33,1.6911809444,,,
271.0000000000,33,1.6886190176,,,
271.2500000000,33,1.6924619675,,,
271.5000000000,33,1.6899000406,,,
271.7500000000,33,1.6899000406,,,
272.0000000000,34,1.6860580444,,,
272.2500000000,34,1.6847770214,,,
272.5000000000,34,1.6809339523,,,
272.7500000000,34,1.6847770214,,,
273.0000000000,34,1.6770910025,,,
273.2500000000,34,1.6809339523,,,
273.5000000000,34,1.6809339523,,,
273.7500000000,34,1.6886190176,,,
274.0000000000,34,1.6924619675,,,
274.2500000000,34,1.6937429905,,,
274.5000000000,34,1.6950240135,,,
274.7500000000,34,1.6886190176,,,
275.0000000000,34,1.6937429905,,,
275.2500000000,34,1.6886190176,,,
275.5000000000,34,1.6911809444,,,
275.7500000000,34,1.6899000406,,,
276.0000000000,34,1.6899000406,,,
276.2500000000,34,1.6860580444,,,
276.5000000000,34,1.6886190176,,,
276.7500000000,34,1.6873379946,,,
277.0000000000,34,1.6847770214,,,
277.2500000000,34,1.6834959984,,,
277.5000000000,34,1.6847770214,,,
277.7500000000,34,1.6822149754,,,
278.0000000000,34,1.6847770214,,,
278.2500000000,34,1.6809339523,,,
278.5000000000,34,1.6796530485,,,
278.7500000000,34,1.6796530485,,,
279.0000000000,34,1.6796530485,,,
279.2500000000,34,1.6758110523,,,
279.5000000000,34,1.6758110523,,,
279.7500000000,34,1.6745300293,,,
280.0000000000,35,1.6758110523,,,
280.2500000000,35,1.6706869602,,,
280.5000000000,35,1.6732490063,,,
280.7500000000,35,1.6732490063,,,
281.0000000000,35,1.6668449640,,,
281.2500000000,35,1.6681259871,,,
281.5000000000,35,1.6745300293,,,
281.7500000000,35,1.6694060564,,,
282.0000000000,35,1.6706869602,,,
282.2500000000,35,1.6655639410,,,
282.5000000000,35,1.6706869602,,,
282.7500000000,35,1.6668449640,,,
283.0000000000,35,1.6668449640,,,
283.2500000000,35,1.6668449640,,,
283.5000000000,35,1.6630020142,,,
283.7500000000,35,1.6617209911,,,
284.0000000000,35,1.6630020142,,,
284.2500000000,35,1.6591589451,,,
284.5000000000,35,1.6617209911,,,
284.7500000000,35,1.6565979719,,,
285.0000000000,35,1.6617209911,,,
285.2500000000,35,1.6565979719,,,
285.5000000000,35,1.6591589451,,,
285.7500000000,35,1.6578789949,,,
286.0000000000,35,1.6565979719,,,
286.2500000000,35,1.6565979719,,,
286.5000000000,35,1.6540360451,,,
286.7500000000,35,1.6527550220,,,
287.0000000000,35,1.6501929760,,,
287.2500000000,35,1.6540360451,,,
287.5000000000,35,1.6514739990,,,
287.7500000000,35,1.6501929760,,,
288.0000000000,36,1.6514739990,,,
288.2500000000,36,1.6501929760,,,
288.5000000000,36,1.6476320028,,,
288.7500000000,36,1.6501929760,,,
289.0000000000,36,1.6437890530,,,
289.2500000000,36,1.6437890530,,,
289.5000000000,36,1.6412270069,,,
289.7500000000,36,1.6437890530,,,
290.0000000000,36,1.6399459839,,,
290.2500000000,36,1.6425080299,,,
290.5000000000,36,1.6386649609,,,
290.7500000000,36,1.6412270069,,,
291.0000000000,36,1.6361039877,,,
291.2500000000,36,1.6386649609,,,
291.5000000000,36,1.6335419416,,,
291.7500000000,36,1.6425080299,,,
292.0000000000,36,1.6373850107,,,
292.2500000000,36,1.6335419416,,,
292.5000000000,36,1.6335419416,,,
292.7500000000,36,1.6373850107,,,
293.0000000000,36,1.6335419416,,,
293.2500000000,36,1.6309800148,,,
293.5000000000,36,1.6296989918,,,
293.7500000000,36,1.6284190416,,,
294.0000000000,36,1.6258569956,,,
294.2500000000,36,1.6271380186,,,
294.5000000000,36,1.6220140457,,,
294.7500000000,36,1.6245759726,,,
295.0000000000,36,1.6220140457,,,
295.2500000000,36,1.6194519997,,,
295.5000000000,36,1.6181720495,,,
295.7500000000,36,1.6194519997,,,
296.0000000000,37,1.6168910265,,,
296.2500000000,37,1.6194519997,,,
296.5000000000,37,1.6143289804,,,
296.7500000000,37,1.6168910265,,,
297.0000000000,37,1.6117670536,,,
297.2500000000,37,1.6143289804,,,
297.5000000000,37,1.6053630114,,,
297.7500000000,37,1.6092050076,,,
298.0000000000,37,1.6040819883,,,
298.2500000000,37,1.6053630114,,,
298.5000000000,37,1.6053630114,,,
298.7500000000,37,1.6015199423,,,
299.0000000000,37,1.6028009653,,,
299.2500000000,37,1.6015199423,,,
299.5000000000,37,1.5976779461,,,
299.7500000000,37,1.5951160192,,,
300.0000000000,37,1.5989589691,,,
300.2500000000,37,1.5938349962,,,
300.5000000000,37,1.5925539732,,,
300.7500000000,37,1.5887119770,,,
301.0000000000,37,1.5912729502,,,
301.2500000000,37,1.5874309540,,,
301.5000000000,37,1.5887119770,,,
301.7500000000,37,1.5848690271,,,
302.0000000000,37,1.5823069811,,,
302.2500000000,37,1.5784649849,,,
302.5000000000,37,1.5835880041,,,
302.7500000000,37,1.5797460079,,,
303.0000000000,37,1.5759030581,,,
303.2500000000,37,1.5771839619,,,
303.5000000000,37,1.5771839619,,,
303.7500000000,37,1.5823069811,,,
304.0000000000,38,1.5912729502,,,
304.2500000000,38,1.5963970423,,,
304.5000000000,38,1.6104860306,,,
304.7500000000,38,1.6156100035,,,
305.0000000000,38,1.6220140457,,,
305.2500000000,38,1.6271380186,,,
305.5000000000,38,1.6348229647,,,
305.7500000000,38,1.6296989918,,,
306.0000000000,38,1.6322610378,,,
306.2500000000,38,1.6284190416,,,
306.5000000000,38,1.6296989918,,,
306.7500000000,38,1.6220140457,,,
307.0000000000,38,1.6232949495,,,
307.2500000000,38,1.6168910265,,,
307.5000000000,38,1.6181720495,,,
307.7500000000,38,1.6194519997,,,
308.0000000000,38,1.6220140457,,,
308.2500000000,38,1.6130479574,,,
308.5000000000,38,1.6143289804,,,
308.7500000000,38,1.6092050076,,,
309.0000000000,38,1.6066440344,,,
309.2500000000,38,1.5976779461,,,
309.5000000000,38,1.6028009653,,,
309.7500000000,38,1.5797460079,,,
310.0000000000,38,1.5925539732,,,
310.2500000000,38,1.5938349962,,,
310.5000000000,38,1.5925539732,,,
310.7500000000,38,1.5899930000,,,
311.0000000000,38,1.5925539732,,,
311.2500000000,38,1.5874309540,,,
311.5000000000,38,1.5861500502,,,
311.7500000000,38,1.5887119770,,,
312.0000000000,39,1.5848690271,,,
312.2500000000,39,1.5835880041,,,
312.5000000000,39,1.5835880041,,,
312.7500000000,39,1.5810259581,,,
313.0000000000,39,1.5810259581,,,
313.2500000000,39,1.5759030581,,,
313.5000000000,39,1.5784649849,,,
313.7500000000,39,1.5835880041,,,
314.0000000000,39,1.5784649849,,,
314.2500000000,39,1.5759030581,,,
314.5000000000,39,1.5771839619,,,
314.7500000000,39,1.5746220350,,,
315.0000000000,39,1.5707789660,,,
315.2500000000,39,1.5733410120,,,
315.5000000000,39,1.5656559467,,,
315.7500000000,39,1.5694990158,,,
316.0000000000,39,1.5618129969,,,
316.2500000000,39,1.5682179928,,,
316.5000000000,39,1.5656559467,,,
316.7500000000,39,1.5643750429,,,
317.0000000000,39,1.5630940199,,,
317.2500000000,39,1.5656559467,,,
317.5000000000,39,1.5630940199,,,
317.7500000000,39,1.5682179928,,,
318.0000000000,39,1.5618129969,,,
318.2500000000,39,1.5618129969,,,
318.5000000000,39,1.5413190126,,,
318.7500000000,39,1.5387580395,,,
319.0000000000,39,1.5413190126,,,
319.2500000000,39,1.5387580395,,,
319.5000000000,39,1.5361959934,,,
319.7500000000,39,1.5374770164,,,
320.0000000000,40,1.5349149704,,,
320.2500000000,40,1.5413190126,,,
320.5000000000,40,1.5336339474,,,
320.7500000000,40,1.5361959934,,,
321.0000000000,40,1.5349149704,,,
321.2500000000,40,1.5361959934,,,
321.5000000000,40,1.5297919512,,,
321.7500000000,40,1.5323530436,,,
322.0000000000,40,1.5285110474,,,
322.2500000000,40,1.5336339474,,,
322.5000000000,40,1.5272300243,,,
322.7500000000,40,1.5297919512,,,
323.0000000000,40,1.5285110474,,,
323.2500000000,40,1.5310720205,,,
323.5000000000,40,1.5233869553,,,
323.7500000000,40,1.5272300243,,,
324.0000000000,40,1.5297919512,,,
324.2500000000,40,1.5259490013,,,
324.5000000000,40,1.5259490013,,,
324.7500000000,40,1.5285110474,,,
325.0000000000,40,1.5297919512,,,
325.2500000000,40,1.5297919512,,,
325.5000000000,40,1.5233869553,,,
325.7500000000,40,1.5310720205,,,
326.0000000000,40,1.5208259821,,,
326.2500000000,40,1.5246679783,,,
326.5000000000,40,1.5195449591,,,
326.7500000000,40,1.5195449591,,,
327.0000000000,40,1.5182640553,,,
327.2500000000,40,1.5182640553,,,
327.5000000000,40,1.5131399632,,,
327.7500000000,40,1.5182640553,,,
328.0000000000,41,1.5118600130,,,
328.2500000000,41,1.5182640553,,,
328.5000000000,41,1.5105789900,,,
328.7500000000,41,1.5131399632,,,
329.0000000000,41,1.5092979670,,,
329.2500000000,41,1.5131399632,,,
329.5000000000,41,1.5067360401,,,
329.7500000000,41,1.5080169439,,,
330.0000000000,41,1.5118600130,,,
330.2500000000,41,1.5131399632,,,
330.5000000000,41,1.5105789900,,,
330.7500000000,41,1.5157020092,,,
331.0000000000,41,1.5131399632,,,
331.2500000000,41,1.5131399632,,,
331.5000000000,41,1.5157020092,,,
331.7500000000,41,1.5131399632,,,
332.0000000000,41,1.5092979670,,,
332.2500000000,41,1.5105789900,,,
332.5000000000,41,1.5028929710,,,
332.7500000000,41,1.5118600130,,,
333.0000000000,41,1.5144209862,,,
333.2500000000,41,1.5233869553,,,
333.5000000000,41,1.5413190126,,,
333.7500000000,41,1.5669369698,,,
334.0000000000,41,1.6028009653,,,
334.2500000000,41,1.6553169489,,,
334.5000000000,41,1.6950240135,,,
334.7500000000,41,1.7116750479,,,
335.0000000000,41,1.7257649899,,,
335.2500000000,41,1.7308880091,,,
335.5000000000,41,1.7270450592,,,
335.7500000000,41,1.7142369747,,,
336.0000000000,42,1.7039899826,,,
336.2500000000,42,1.6937429905,,,
336.5000000000,42,1.6873379946,,,
336.7500000000,42,1.6796530485,,,
337.0000000000,42,1.6732490063,,,
337.2500000000,42,1.6642830372,,,
337.5000000000,42,1.6591589451,,,
337.7500000000,42,1.6527550220,,,
338.0000000000,42,1.6476320028,,,
338.2500000000,42,1.6450699568,,,
338.5000000000,42,1.6450699568,,,
338.7500000000,42,1.6373850107,,,
339.0000000000,42,1.6373850107,,,
339.2500000000,42,1.6335419416,,,
339.5000000000,42,1.6296989918,,,
339.7500000000,42,1.6284190416,,,
340.0000000000,42,1.6296989918,,,
340.2500000000,42,1.6232949495,,,
340.5000000000,42,1.6284190416,,,
340.7500000000,42,1.6207330227,,,
341.0000000000,42,1.6296989918,,,
341.2500000000,42,1.6361039877,,,
341.5000000000,42,1.6399459839,,,
341.7500000000,42,1.6386649609,,,
342.0000000000,42,1.6361039877,,,
342.2500000000,42,1.6386649609,,,
342.5000000000,42,1.6335419416,,,
342.7500000000,42,1.6348229647,,,
343.0000000000,42,1.6399459839,,,
343.2500000000,42,1.6489119530,,,
343.5000000000,42,1.6604399681,,,
343.7500000000,42,1.6770910025,,,
344.0000000000,43,1.6937429905,,,
344.2500000000,43,1.7001470327,,,
344.5000000000,43,1.7091130018,,,
344.7500000000,43,1.7091130018,,,
345.0000000000,43,1.7103940248,,,
345.2500000000,43,1.7091130018,,,
345.5000000000,43,1.7244839668,,,
345.7500000000,43,1.7565050125,,,
346.0000000000,43,1.8000550270,,,
346.2500000000,43,1.8448849916,,,
346.5000000000,43,1.8909970522,,,
346.7500000000,43,1.9307030439,,,
347.0000000000,43,1.9870619774,,,
347.2500000000,43,1.9757330418,,,
347.5000000000,43,1.9667669535,,,
347.7500000000,43,1.9475539923,,,
348.0000000000,43,1.9270600080,,,
348.2500000000,43,1.9129710197,,,
348.5000000000,43,1.9078470469,,,
348.7500000000,43,1.8963190317,,,
349.0000000000,43,1.8899149895,,,
349.2500000000,43,1.8783869743,,,
349.5000000000,43,1.8668589592,,,
349.7500000000,43,1.8617360592,,,
350.0000000000,43,1.8591740131,,,
350.2500000000,43,1.8463649750,,,
350.5000000000,43,1.8489270210,,,
350.7500000000,43,1.8412419558,,,
351.0000000000,43,1.8399610519,,,
351.2500000000,43,1.8322759867,,,
351.5000000000,43,1.8297139406,,,
351.7500000000,43,1.8207479715,,,
352.0000000000,44,1.8258709908,,,
352.2500000000,44,1.8194669485,,,
352.5000000000,44,1.8181860447,,,
352.7500000000,44,1.8194669485,,,
353.0000000000,44,1.8181860447,,,
353.2500000000,44,1.8156249523,,,
353.5000000000,44,1.8169050217,,,
353.7500000000,44,1.8207479715,,,
354.0000000000,44,1.8143440485,,,
354.2500000000,44,1.8105009794,,,
354.5000000000,44,1.8066589832,,,
354.7500000000,44,1.8105009794,,,
355.0000000000,44,1.8015350103,,,
355.2500000000,44,1.8015350103,,,
355.5000000000,44,1.8079390526,,,
355.7500000000,44,1.8284330368,,,
356.0000000000,44,1.8578929901,,,
356.2500000000,44,1.9052850008,,,
356.5000000000,44,1.9449919462,,,
356.7500000000,44,1.9821369648,,,
357.0000000000,44,2.0000700951,,,
357.2500000000,44,2.0128779411,,,
357.5000000000,44,2.0077550411,,,
357.7500000000,44,2.0000700951,,,
358.0000000000,44,1.9975080490,,,
358.2500000000,44,1.9808570147,,,
358.5000000000,44,1.9706100225,,,
358.7500000000,44,1.9590820074,,,
359.0000000000,44,1.9552390575,,,
359.2500000000,44,1.9462729692,,,
359.5000000000,44,1.9449919462,,,
359.7500000000,44,1.9373070002,,,
360.0000000000,45,1.9347449541,,,
360.2500000000,45,1.9360259771,,,
360.5000000000,45,1.9373070002,,,
360.7500000000,45,1.9437110424,,,
361.0000000000,45,1.9501160383,,,
361.2500000000,45,1.9539580345,,,
361.5000000000,45,1.9693289995,,,
361.7500000000,45,1.9706100225,,,
362.0000000000,45,1.9744520187,,,
362.2500000000,45,1.9795759916,,,
362.5000000000,45,1.9987889528,,,
362.7500000000,45,2.0218439102,,,
363.0000000000,45,2.0538659096,,,
363.2500000000,45,2.0743598938,,,
363.5000000000,45,2.0858879089,,,
363.7500000000,45,2.0961349010,,,
364.0000000000,45,2.1179089546,,,
364.2500000000,45,2.1627399921,,,
364.5000000000,45,2.2293450832,,,
364.7500000000,45,2.3151628971,,,
365.0000000000,45,2.3894538879,,,
365.2500000000,45,2.4163520336,,,
365.5000000000,45,2.4996080399,,,
365.7500000000,45,2.6070270538,,,
366.0000000000,45,2.7030920982,,,
366.2500000000,45,2.8081231117,,,
366.5000000000,45,2.9387719631,,,
366.7500000000,45,3.0373990536,,,
367.0000000000,45,3.1010460854,,,
367.2500000000,45,3.1087319851,,,
367.5000000000,45,3.0818328857,,,
367.7500000000,45,3.0459690094,,,
368.0000000000,46,2.9857680798,,,
368.2500000000,46,2.9409379959,,,
368.5000000000,46,2.9114780426,,,
368.7500000000,46,2.8897030354,,,
369.0000000000,46,2.8704900742,,,
369.2500000000,46,2.8615241051,,,
369.5000000000,46,2.8461530209,,,
369.7500000000,46,2.8397490978,,,
370.0000000000,46,2.8295021057,,,
370.2500000000,46,2.8269400597,,,
370.5000000000,46,2.8320639133,,,
370.7500000000,46,2.8397490978,,,
371.0000000000,46,2.8615241051,,,
371.2500000000,46,2.9486229420,,,
371.5000000000,46,3.1151359081,,,
371.7500000000,46,3.3162319660,,,
372.0000000000,46,3.5416650772,,,
372.2500000000,46,3.7775299549,,,
372.5000000000,46,3.9363579750,,,
372.7500000000,46,3.9875929356,,,
373.0000000000,46,3.9856340885,,,
373.2500000000,46,3.9843530655,,,
373.5000000000,46,3.9305570126,,,
373.7500000000,46,3.8588280678,,,
374.0000000000,46,3.7806949615,,,
374.2500000000,46,3.7166509628,,,
374.5000000000,46,3.6564509869,,,
374.7500000000,46,3.6141819954,,,
375.0000000000,46,3.5936880112,,,
375.2500000000,46,3.5667901039,,,
375.5000000000,46,3.5629470348,,,
375.7500000000,46,3.5527000427,,,
376.0000000000,47,3.5603849888,,,
376.2500000000,47,3.5591049194,,,
376.5000000000,47,3.5706319809,,,
376.7500000000,47,3.5795979500,,,
377.0000000000,47,3.5924069881,,,
377.2500000000,47,3.6333949566,,,
377.5000000000,47,3.6974380016,,,
377.7500000000,47,3.7435500622,,,
378.0000000000,47,3.7858181000,,,
378.2500000000,47,3.7986268997,,,
378.5000000000,47,3.8037509918,,,
378.7500000000,47,3.8703560829,,,
379.0000000000,47,4.1111588478,,,
379.2500000000,47,4.4928569794,,,
379.5000000000,47,4.7482089996,,,
379.7500000000,47,5.0633020401,,,
380.0000000000,47,5.2997941971,,,
380.2500000000,47,5.4125099182,,,
380.5000000000,47,5.4983282089,,,
380.7500000000,47,5.5013060570,,,
381.0000000000,47,5.5243611336,,,
381.2500000000,47,5.3693761826,,,
381.5000000000,47,5.2195138931,,,
381.7500000000,47,5.0786190033,,,
382.0000000000,47,4.9799919128,,,
382.2500000000,47,4.8864889145,,,
382.5000000000,47,4.8361191750,,,
382.7500000000,47,4.7900080681,,,
383.0000000000,47,4.7605481148,,,
383.2500000000,47,4.7285261154,,,
383.5000000000,47,4.7054710388,,,
383.7500000000,47,4.6862578392,,,
384.0000000000,48,4.6747298241,,,
384.2500000000,48,4.6657638550,,,
384.5000000000,48,4.6670451164,,,
384.7500000000,48,4.6606397629,,,
385.0000000000,48,4.6760110855,,,
385.2500000000,48,4.6811342239,,,
385.5000000000,48,4.7900080681,,,
385.7500000000,48,5.1051020622,,,
386.0000000000,48,5.5431590080,,,
386.2500000000,48,5.9649801254,,,
386.5000000000,48,6.2770929337,,,
386.7500000000,48,6.3898100853,,,
387.0000000000,48,6.4205508232,,,
387.2500000000,48,6.3654742241,,,
387.5000000000,48,6.2373871803,,,
387.7500000000,48,6.0939288139,,,
388.0000000000,48,5.9363827705,,,
388.2500000000,48,5.7673082352,,,
388.5000000000,48,5.6340980530,,,
388.7500000000,48,5.5598068237,,,
389.0000000000,48,5.5072917938,,,
389.2500000000,48,5.4368438721,,,
389.5000000000,48,5.4065208435,,,
389.7500000000,48,5.3898701668,,,
390.0000000000,48,5.3847470284,,,
390.2500000000,48,5.3527250290,,,
390.5000000000,48,5.3463211060,,,
390.7500000000,48,5.3219838142,33025:33024,390.8437500000:390.9687500000,0.0000000000:0.0000000000
391.0000000000,48,5.3104557991,,,
391.2500000000,48,5.3130178452,,,
391.5000000000,48,5.3258271217,,,
391.7500000000,48,5.3194217682,,,
392.0000000000,49,5.3040518761,,,
392.2500000000,49,5.2950859070,,,
392.5000000000,49,5.3027710915,,,
392.7500000000,49,5.2950859070,,,
393.0000000000,49,5.2938051224,,,
393.2500000000,49,5.2835578918,,,
393.5000000000,49,5.2835578918,,,
393.7500000000,49,5.2745919228,,,
394.0000000000,49,5.2874011993,,,
394.2500000000,49,5.3335118294,,,
394.5000000000,49,5.3002099991,,,
394.7500000000,49,5.2938051224,,,
395.0000000000,49,5.2592220306,,,
395.2500000000,49,5.2400078773,,,
395.5000000000,49,5.2528171539,,,
395.7500000000,49,5.2041440010,,,
396.0000000000,49,5.2540979385,,,
396.2500000000,49,5.1874928474,,,
396.5000000000,49,5.1503481865,,,
396.7500000000,49,5.1132030487,,,
397.0000000000,49,5.1003937721,,,
397.2500000000,49,5.0965509415,,,
397.5000000000,49,5.0350689888,,,
397.7500000000,49,5.0132951736,,,
398.0000000000,49,4.9992051125,,,
398.2500000000,49,4.9838352203,,,
398.5000000000,49,4.9723072052,,,
398.7500000000,49,4.9607791901,,,
399.0000000000,49,4.9607791901,,,
399.2500000000,49,4.9992051125,,,
399.5000000000,49,5.0145750046,,,
399.7500000000,49,5.0196990967,,,
400.0000000000,50,5.0209798813,,,
400.2500000000,50,5.0107331276,,,
400.5000000000,50,5.0107331276,,,
400.7500000000,50,4.9966440201,,,
401.0000000000,50,4.9863967896,,,
401.2500000000,50,4.9287581444,,,
401.5000000000,50,4.9488358498,,,
401.7500000000,50,4.9782958031,,,
402.0000000000,50,4.9578018188,,,
402.2500000000,50,4.9847002029,,,
402.5000000000,50,5.1768298149,,,
402.7500000000,50,5.5239448547,,,
403.0000000000,50,5.9419240952,,,
403.2500000000,50,6.3001489639,,,
403.5000000000,50,6.3885288239,,,
403.7500000000,50,6.4743480682,,,
404.0000000000,50,6.4828019142,,,
404.2500000000,50,6.4571838379,,,
404.5000000000,50,6.3521528244,,,
404.7500000000,50,6.2304711342,,,
405.0000000000,50,6.0690808296,,,
405.2500000000,50,5.9614877701,,,
405.5000000000,50,5.8513340950,,,
405.7500000000,50,5.7416911125,,,
406.0000000000,50,5.6853318214,,,
406.2500000000,50,5.6123228073,,,
406.5000000000,50,5.5854249001,,,
406.7500000000,50,5.5277857780,,,
407.0000000000,50,5.5124149323,,,
407.2500000000,50,5.4701471329,,,
407.5000000000,50,5.4137878418,,,
407.7500000000,50,5.4052410126,,,
408.0000000000,51,5.3744997978,,,
408.2500000000,51,5.3437590599,,,
408.5000000000,51,5.3040518761,,,
408.7500000000,51,5.3181409836,,,
409.0000000000,51,5.2592220306,,,
409.2500000000,51,5.2592220306,,,
409.5000000000,51,5.3732190132,,,
409.7500000000,51,5.3360729218,,,
410.0000000000,51,5.3232650757,,,
410.2500000000,51,5.3014898300,,,
410.5000000000,51,5.2720298767,,,
410.7500000000,51,5.2412891388,,,
411.0000000000,51,5.2131099701,,,
411.2500000000,51,5.1862120628,,,
411.5000000000,51,5.1580328941,,,
411.7500000000,51,5.1913361549,,,
412.0000000000,51,5.2425699234,,,
412.2500000000,51,5.3565669060,,,
412.5000000000,51,5.5153951645,,,
412.7500000000,51,5.6293931007,,,
413.0000000000,51,5.6626949310,,,
413.2500000000,51,5.6703801155,,,
413.5000000000,51,5.7664451599,,,
413.7500000000,51,5.7395467758,,,
414.0000000000,51,5.6229882240,,,
414.2500000000,51,5.5640678406,,,
414.5000000000,51,5.5153951645,,,
414.7500000000,51,5.2387280464,,,
415.0000000000,51,5.1029548645,,,
415.2500000000,51,5.0991129875,,,
415.5000000000,51,5.1157641411,,,
415.7500000000,51,5.0939888954,,,
416.0000000000,52,5.0978322029,,,
416.2500000000,52,5.0209798813,,,
416.5000000000,52,5.0094518661,,,
416.7500000000,52,4.9915199280,,,
417.0000000000,52,5.0991129875,,,
417.2500000000,52,5.1247301102,,,
417.5000000000,52,5.1080789566,,,
417.7500000000,52,5.0504398346,,,
418.0000000000,52,4.9940819740,,,
418.2500000000,52,4.8352541924,,,
418.5000000000,52,4.6862578392,,,
418.7500000000,52,4.6145291328,,,
419.0000000000,52,4.5889120102,,,
419.2500000000,52,4.5594520569,,,
419.5000000000,52,4.5171828270,,,
419.7500000000,52,4.5466427803,,,
420.0000000000,52,4.6324610710,,,
420.2500000000,52,4.6708869934,,,
420.5000000000,52,4.6811342239,,,
420.7500000000,52,4.6516737938,,,
421.0000000000,52,4.5991587639,,,
421.2500000000,52,4.6350231171,,,
421.5000000000,52,4.6683249474,,,
421.7500000000,52,4.6644830704,,,
422.0000000000,52,4.6375851631,,,
422.2500000000,52,4.6170911789,,,
422.5000000000,52,4.5965971947,,,
422.7500000000,52,4.5709800720,,,
423.0000000000,52,4.5351147652,,,
423.2500000000,52,4.4557008743,,,
423.5000000000,52,4.4031858444,,,
423.7500000000,52,4.3793191910,,,
424.0000000000,53,4.3549818993,,,
424.2500000000,53,4.3601059914,,,
424.5000000000,53,4.3959698677,,,
424.7500000000,53,4.4420809746,,,
425.0000000000,53,4.5227761269,,,
425.2500000000,53,4.5842580795,,,
425.5000000000,53,4.5752911568,,,
425.7500000000,53,4.3805990219,,,
426.0000000000,53,4.3139939308,,,
426.2500000000,53,4.3383312225,,,
426.5000000000,53,4.5112481117,,,
426.7500000000,53,4.5547981262,,,
427.0000000000,53,4.5624828339,,,
427.2500000000,53,4.5804147720,,,
427.5000000000,53,4.5355839729,,,
427.7500000000,53,4.4484848976,,,
428.0000000000,53,4.4305529594,,,
428.2500000000,53,4.3268032074,,,
428.5000000000,53,4.2858147621,,,
428.7500000000,53,4.4728221893,,,
429.0000000000,53,4.5035629272,,,
429.2500000000,53,4.5189328194,,,
429.5000000000,53,4.5266180038,,,
429.7500000000,53,4.5343041420,,,
430.0000000000,53,4.7405228615,,,
430.2500000000,53,4.9275298119,,,
430.5000000000,53,5.0543360710,,,
430.7500000000,53,5.1665830612,,,
431.0000000000,53,5.2370309830,,,
431.2500000000,53,5.2716150284,,,
431.5000000000,53,5.2805809975,,,
431.7500000000,53,5.2306270599,,,
432.0000000000,54,5.0410580635,,,
432.2500000000,54,4.8899149895,,,
432.5000000000,54,4.8156251907,,,
432.7500000000,54,4.7503008842,,,
433.0000000000,54,4.6952238083,,,
433.2500000000,54,4.6555171013,,,
433.5000000000,54,4.6414270401,,,
433.7500000000,54,4.6094059944,,,
434.0000000000,54,4.5965971947,,,
434.2500000000,54,4.5748219490,,,
434.5000000000,54,4.5761032104,,,
434.7500000000,54,4.5530471802,,,
435.0000000000,54,4.5440812111,,,
435.2500000000,54,4.5223059654,,,
435.5000000000,54,4.5082168579,,,
435.7500000000,54,4.4902849197,,,
436.0000000000,54,4.5082168579,,,
436.2500000000,54,4.5914740562,,,
436.5000000000,54,4.7093129158,,,
436.7500000000,54,4.8309960365,,,
437.0000000000,54,4.9193758965,,,
437.2500000000,54,4.9821381569,,,
437.5000000000,54,4.9962282181,,,
437.7500000000,54,4.9706110954,,,
438.0000000000,54,4.9244990349,,,
438.2500000000,54,4.8642978668,,,
438.5000000000,54,4.8053779602,,,
438.7500000000,54,4.7579860687,,,
439.0000000000,54,4.7144370079,,,
439.2500000000,54,4.6439890862,,,
439.5000000000,54,4.5812258720,,,
439.7500000000,54,4.5351147652,,,
440.0000000000,55,4.5453619957,,,
440.2500000000,55,4.5850691795,,,
440.5000000000,55,4.5287108421,,,
440.7500000000,55,4.5197448730,,,
441.0000000000,55,4.4992508888,,,
441.2500000000,55,4.5043749809,,,
441.5000000000,55,4.5030927658,,,
441.7500000000,55,4.4723529816,,,
442.0000000000,55,4.4428930283,,,
442.2500000000,55,4.5010008812,,,
442.5000000000,55,4.5816960335,,,
442.7500000000,55,4.5637640953,,,
443.0000000000,55,4.5535159111,,,
443.2500000000,55,4.5560779572,,,
443.5000000000,55,4.5688872337,,,
443.7500000000,55,4.5688872337,,,
444.0000000000,55,4.5560779572,,,
444.2500000000,55,4.4741029739,,,
444.5000000000,55,4.3703517914,,,
444.7500000000,55,4.3639478683,,,
445.0000000000,55,4.3818798065,,,
445.2500000000,55,4.3972511292,,,
445.5000000000,55,4.3421740532,,,
445.7500000000,55,4.3472971916,,,
446.0000000000,55,4.3306460381,,,
446.2500000000,55,4.3050279617,,,
446.5000000000,55,4.2819719315,,,
446.7500000000,55,4.2614779472,,,
447.0000000000,55,4.2678828239,,,
447.2500000000,55,4.2922201157,,,
447.5000000000,55,4.2435460091,,,
447.7500000000,55,4.2115249634,,,
448.0000000000,56,4.1961550713,,,
448.2500000000,56,4.1833457947,,,
448.5000000000,56,4.1897501945,,,
448.7500000000,56,4.2140870094,,,
449.0000000000,56,4.2115249634,,,
449.2500000000,56,4.2051210403,,,
449.5000000000,56,4.1999969482,,,
449.7500000000,56,4.1948728561,,,
450.0000000000,56,4.2089629173,,,
450.2500000000,56,4.2294569016,,,
450.5000000000,56,4.2499508858,,,
450.7500000000,56,4.2589168549,,,
451.0000000000,56,4.2666020393,,,
451.2500000000,56,4.2691640854,,,
451.5000000000,56,4.2640399933,,,
451.7500000000,56,4.2294569016,,,
452.0000000000,56,4.2166481018,,,
452.2500000000,56,4.1871881485,,,
452.5000000000,56,4.2217721939,,,
452.7500000000,56,4.3024659157,,,
453.0000000000,56,4.4036550522,,,
453.2500000000,56,4.5048441887,,,
453.5000000000,56,4.5829768181,,,
453.7500000000,56,4.6316490173,,,
454.0000000000,56,4.6585478783,,,
454.2500000000,56,4.6431779861,,,
454.5000000000,56,4.6098752022,,,
454.7500000000,56,4.5765719414,,,
455.0000000000,56,4.5368652344,,,
455.2500000000,56,4.5010008812,,,
455.5000000000,56,4.4715409279,,,
455.7500000000,56,4.4433622360,,,
456.0000000000,57,4.4203062057,,,
456.2500000000,57,4.3857231140,,,
456.5000000000,57,4.3780369759,,,
456.7500000000,57,4.4151830673,,,
457.0000000000,57,4.3895649910,,,
457.2500000000,57,4.3729138374,,,
457.5000000000,57,4.3741950989,,,
457.7500000000,57,4.3588252068,,,
458.0000000000,57,4.3639478683,,,
458.2500000000,57,4.3383312225,,,
458.5000000000,57,4.3255219460,,,
458.7500000000,57,4.3101520538,,,
459.0000000000,57,4.3063092232,,,
459.2500000000,57,4.2896580696,,,
459.5000000000,57,4.2909379005,,,
459.7500000000,57,4.3011860847,,,
460.0000000000,57,4.3844418526,,,
460.2500000000,57,4.5368652344,,,
460.5000000000,57,4.7020969391,,,
460.7500000000,57,4.8404312134,,,
461.0000000000,57,4.9493050575,,,
461.2500000000,57,4.9911041260,,,
461.5000000000,57,4.9847002029,,,
461.7500000000,57,4.8668599129,,,
462.0000000000,57,4.7797608376,,,
462.2500000000,57,4.6619210243,,,
462.5000000000,57,4.6260571480,,,
462.7500000000,57,4.6593589783,,,
463.0000000000,57,4.5953159332,,,
463.2500000000,57,4.5376768112,,,
463.5000000000,57,4.5171828270,,,
463.7500000000,57,4.4941267967,,,
464.0000000000,58,4.5159020424,,,
464.2500000000,58,4.5299921036,,,
464.5000000000,58,4.5043749809,,,
464.7500000000,58,4.4787569046,,,
465.0000000000,58,4.4557008743,,,
465.2500000000,58,4.4480161667,,,
465.5000000000,58,4.4267110825,,,
465.7500000000,58,4.3626670837,,,
466.0000000000,58,4.3549818993,,,
466.2500000000,58,4.3293647766,,,
466.5000000000,58,4.3396120071,,,
466.7500000000,58,4.3396120071,,,
467.0000000000,58,4.3268032074,,,
467.2500000000,58,4.3127131462,,,
467.5000000000,58,4.2768487930,,,
467.7500000000,58,4.2768487930,,,
468.0000000000,58,4.3127131462,,,
468.2500000000,58,4.3127131462,,,
468.5000000000,58,4.2537927628,,,
468.7500000000,58,4.2345809937,,,
469.0000000000,58,4.1948728561,,,
469.2500000000,58,4.2614779472,,,
469.5000000000,58,4.2947812080,,,
469.7500000000,58,4.2858147621,,,
470.0000000000,58,4.2794108391,,,
470.2500000000,58,4.2704448700,,,
470.5000000000,58,4.2640399933,,,
470.7500000000,58,4.2499508858,,,
471.0000000000,58,4.2473888397,,,
471.2500000000,58,4.2256150246,,,
471.5000000000,58,4.2166481018,,,
471.7500000000,58,4.2051210403,,,
