Time:4Hz,Epoch,Channel 1,Event Id,Event Date,Event Duration
0.0000000000,0,8.1071062088,,,
0.2500000000,0,8.1365642548,,,
0.5000000000,0,8.1544952393,,,
0.7500000000,0,8.1596183777,,,
1.0000000000,0,8.1596183777,,,
1.2500000000,0,8.1493721008,,,
1.5000000000,0,8.1429681778,,,
1.7500000000,0,8.1340026855,,,
2.0000000000,0,8.1275987625,,,
2.2500000000,0,8.1173515320,,,
2.5000000000,0,8.1096677780,,,
2.7500000000,0,8.1147909164,,,
3.0000000000,0,8.1109485626,,,
3.2500000000,0,8.1045446396,,,
3.5000000000,0,8.1007022858,,,
3.7500000000,0,8.0878944397,,,
4.0000000000,0,8.0853328705,,,
4.2500000000,0,8.0776481628,,,
4.5000000000,0,8.0712442398,,,
4.7500000000,0,8.0699634552,,,
5.0000000000,0,8.0571556091,,,
5.2500000000,0,8.0622787476,,,
5.5000000000,0,8.0648403168,,,
5.7500000000,0,8.0789289474,,,
6.0000000000,0,8.0802097321,,,
6.2500000000,0,8.0738058090,,,
6.5000000000,0,8.0763673782,,,
6.7500000000,0,8.0648403168,,,
7.0000000000,0,8.0545940399,,,
7.2500000000,0,8.0392236710,,,
7.5000000000,0,8.0379428864,,,
7.7500000000,0,8.0276966095,,,
8.0000000000,1,8.0200119019,,,
8.2500000000,1,8.0123271942,,,
8.5000000000,1,8.0046415329,,,
8.7500000000,1,8.0097656250,,,
9.0000000000,1,8.0084848404,,,
9.2500000000,1,7.9969577789,,,
9.5000000000,1,7.9943962097,,,
9.7500000000,1,7.9815878868,,,
10.0000000000,1,8.0059232712,,,
10.2500000000,1,8.0264158249,,,
10.5000000000,1,8.0738058090,,,
10.7500000000,1,8.1058254242,,,
11.0000000000,1,8.1275987625,,,
11.2500000000,1,8.1480913162,,,
11.5000000000,1,8.1865148544,,,
11.7500000000,1,8.2210960388,,,
12.0000000000,1,8.2262191772,,,
12.2500000000,1,8.2287807465,,,
12.5000000000,1,8.2351856232,,,
12.7500000000,1,8.3056287766,,,
13.0000000000,1,8.4221811295,,,
13.2500000000,1,8.5079936981,,,
13.5000000000,1,8.6175279617,,,
13.7500000000,1,8.6649169922,,,
14.0000000000,1,8.6610746384,,,
14.2500000000,1,8.6072816849,,,
14.5000000000,1,8.5368375778,,,
14.7500000000,1,8.4740791321,,,
15.0000000000,1,8.4459018707,,,
15.2500000000,1,8.4843254089,,,
15.5000000000,1,8.5483655930,,,
15.7500000000,1,8.6021585464,,,
16.0000000000,2,8.6264934540,,,
16.2500000000,2,8.6200895309,,,
16.5000000000,2,8.5880699158,,,
16.7500000000,2,8.5291528702,,,
17.0000000000,2,8.4612712860,,,
17.2500000000,2,8.3985128403,,,
17.5000000000,2,8.3459997177,,,
17.7500000000,2,8.3255071640,,,
18.0000000000,2,8.2973299026,,,
18.2500000000,2,8.2755565643,,,
18.5000000000,2,8.2589063644,,,
18.7500000000,2,8.2294483185,,,
19.0000000000,2,8.2217636108,,,
19.2500000000,2,8.2089557648,,,
19.5000000000,2,8.1974287033,,,
19.7500000000,2,8.1948671341,,,
20.0000000000,2,8.1833400726,,,
20.2500000000,2,8.1769361496,,,
20.5000000000,2,8.1666889191,,,
20.7500000000,2,8.1666889191,,,
21.0000000000,2,8.1705322266,,,
21.2500000000,2,8.1615657806,,,
21.5000000000,2,8.1666889191,,,
21.7500000000,2,8.1718130112,,,
22.0000000000,2,8.2243251801,,,
22.2500000000,2,8.2704334259,,,
22.5000000000,2,8.3075761795,,,
22.7500000000,2,8.3293504715,,,
23.0000000000,2,8.3395957947,,,
23.2500000000,2,8.3421573639,,,
23.5000000000,2,8.3203840256,,,
23.7500000000,2,8.2922067642,,,
24.0000000000,3,8.2832412720,,,
24.2500000000,3,8.2678718567,,,
24.5000000000,3,8.2704334259,,,
24.7500000000,3,8.2614679337,,,
25.0000000000,3,8.2870836258,,,
25.2500000000,3,8.3242263794,,,
25.5000000000,3,8.3741779327,,,
25.7500000000,3,8.3972320557,,,
26.0000000000,3,8.4061975479,,,
26.2500000000,3,8.4036359787,,,
26.5000000000,3,8.3805818558,,,
26.7500000000,3,8.3485612869,,,
27.0000000000,3,8.3178224564,,,
27.2500000000,3,8.2934875488,,,
27.5000000000,3,8.3088569641,,,
27.7500000000,3,8.3677740097,,,
28.0000000000,3,8.4612712860,,,
28.2500000000,3,8.5329952240,,,
28.5000000000,3,8.5714197159,,,
28.7500000000,3,8.5919122696,,,
29.0000000000,3,8.6034393311,,,
29.2500000000,3,8.5970354080,,,
29.5000000000,3,8.5560503006,,,
29.7500000000,3,8.5227489471,,,
30.0000000000,3,8.4958524704,,,
30.2500000000,3,8.4817638397,,,
30.5000000000,3,8.4676752090,,,
30.7500000000,3,8.4497442245,,,
31.0000000000,3,8.4459018707,,,
31.2500000000,3,8.4292516708,,,
31.5000000000,3,8.4164438248,,,
31.7500000000,3,8.4023551941,,,
32.0000000000,4,8.3946695328,,,
32.2500000000,4,8.4228477478,,,
32.5000000000,4,8.4459018707,,,
32.7500000000,4,8.4689559937,,,
33.0000000000,4,8.4868869781,,,
33.2500000000,4,8.4843254089,,,
33.5000000000,4,8.4792022705,,,
33.7500000000,4,8.4446210861,,,
34.0000000000,4,8.4138822556,,,
34.2500000000,4,8.4010744095,,,
34.5000000000,4,8.3933897018,,,
34.7500000000,4,8.3805818558,,,
35.0000000000,4,8.3780202866,,,
35.2500000000,4,8.3844242096,,,
35.5000000000,4,8.3767404556,,,
35.7500000000,4,8.3664932251,,,
36.0000000000,4,8.3703355789,,,
36.2500000000,4,8.3613700867,,,
36.5000000000,4,8.3600893021,,,
36.7500000000,4,8.3421573639,,,
37.0000000000,4,8.3370342255,,,
37.2500000000,4,8.3255071640,,,
37.5000000000,4,8.3255071640,,,
37.7500000000,4,8.3216648102,,,
38.0000000000,4,8.3075761795,,,
38.2500000000,4,8.3088569641,,,
38.5000000000,4,8.3062953949,,,
38.7500000000,4,8.2934875488,,,
39.0000000000,4,8.2922067642,,,
39.2500000000,4,8.2806797028,,,
39.5000000000,4,8.2819595337,,,
39.7500000000,4,8.2742757797,,,
40.0000000000,5,8.2729949951,,,
40.2500000000,5,8.2742757797,,,
40.5000000000,5,8.2653102875,,,
40.7500000000,5,8.2640304565,,,
41.0000000000,5,8.2512216568,,,
41.2500000000,5,8.2448177338,,,
41.5000000000,5,8.2435369492,,,
41.7500000000,5,8.2396945953,,,
42.0000000000,5,8.2371330261,,,
42.2500000000,5,8.2268867493,,,
42.5000000000,5,8.2320098877,,,
42.7500000000,5,8.2217636108,,,
43.0000000000,5,8.2192020416,,,
43.2500000000,5,8.2179212570,,,
43.5000000000,5,8.2153596878,,,
43.7500000000,5,8.2102365494,,,
44.0000000000,5,8.2025518417,,,
44.2500000000,5,8.2051134109,,,
44.5000000000,5,8.1961479187,,,
44.7500000000,5,8.2063941956,,,
45.0000000000,5,8.2230443954,,,
45.2500000000,5,8.2320098877,,,
45.5000000000,5,8.2345714569,,,
45.7500000000,5,8.2320098877,,,
46.0000000000,5,8.2384138107,,,
46.2500000000,5,8.2192020416,,,
46.5000000000,5,8.2204828262,,,
46.7500000000,5,8.2115173340,,,
47.0000000000,5,8.1961479187,,,
47.2500000000,5,8.1884632111,,,
47.5000000000,5,8.1782169342,,,
47.7500000000,5,8.1692495346,,,
48.0000000000,6,8.1654081345,,,
48.2500000000,6,8.1820592880,,,
48.5000000000,6,8.1807794571,,,
48.7500000000,6,8.2089557648,,,
49.0000000000,6,8.2012710571,,,
49.2500000000,6,8.1769361496,,,
49.5000000000,6,8.1769361496,,,
49.7500000000,6,8.1743745804,,,
50.0000000000,6,8.2204828262,,,
50.2500000000,6,8.2986106873,,,
50.5000000000,6,8.4049167633,,,
50.7500000000,6,8.5125026703,,,
51.0000000000,6,8.5586118698,,,
51.2500000000,6,8.5842275620,,,
51.5000000000,6,8.5573310852,,,
51.7500000000,6,8.5304336548,,,
52.0000000000,6,8.4727983475,,,
52.2500000000,6,8.4190053940,,,
52.5000000000,6,8.3600893021,,,
52.7500000000,6,8.3216648102,,,
53.0000000000,6,8.2998914719,,,
53.2500000000,6,8.2704334259,,,
53.5000000000,6,8.2448177338,,,
53.7500000000,6,8.2243251801,,,
54.0000000000,6,8.2204828262,,,
54.2500000000,6,8.2038326263,,,
54.5000000000,6,8.1846208572,,,
54.7500000000,6,8.1794977188,,,
55.0000000000,6,8.1756553650,,,
55.2500000000,6,8.1756553650,,,
55.5000000000,6,8.1654081345,,,
55.7500000000,6,8.1679697037,,,
56.0000000000,7,8.1590042114,,,
56.2500000000,7,8.1500387192,,,
56.5000000000,7,8.1500387192,,,
56.7500000000,7,8.1577234268,,,
57.0000000000,7,8.1756553650,,,
57.2500000000,7,8.1871824265,,,
57.5000000000,7,8.2076749802,,,
57.7500000000,7,8.2179212570,,,
58.0000000000,7,8.2115173340,,,
58.2500000000,7,8.2063941956,,,
58.5000000000,7,8.1820592880,,,
58.7500000000,7,8.1679697037,,,
59.0000000000,7,8.1500387192,,,
59.2500000000,7,8.1295461655,,,
59.5000000000,7,8.1205806732,,,
59.7500000000,7,8.1077728271,,,
60.0000000000,7,8.1000881195,,,
60.2500000000,7,8.0872802734,,,
60.5000000000,7,8.0847187042,,,
60.7500000000,7,8.0834379196,,,
61.0000000000,7,8.0706300735,,,
61.2500000000,7,8.0731916428,,,
61.5000000000,7,8.0565414429,,,
61.7500000000,7,8.0629453659,,,
62.0000000000,7,8.0501384735,,,
62.2500000000,7,8.0450143814,,,
62.5000000000,7,8.0488567352,,,
62.7500000000,7,8.0373296738,,,
63.0000000000,7,8.0373296738,,,
63.2500000000,7,8.0168371201,,,
63.5000000000,7,8.0142755508,,,
63.7500000000,7,8.0155563354,,,
64.0000000000,8,7.9976248741,,,
64.2500000000,8,8.0091524124,,,
64.5000000000,8,8.0373296738,,,
64.7500000000,8,8.0667877197,,,
65.0000000000,8,8.0962457657,,,
65.2500000000,8,8.1116151810,,,
65.5000000000,8,8.1257038116,,,
65.7500000000,8,8.1218614578,,,
66.0000000000,8,8.1116151810,,,
66.2500000000,8,8.0847187042,,,
66.5000000000,8,8.0655069351,,,
66.7500000000,8,8.0526990891,,,
67.0000000000,8,8.0386104584,,,
67.2500000000,8,8.0360488892,,,
67.5000000000,8,8.0398912430,,,
67.7500000000,8,8.0501384735,,,
68.0000000000,8,8.0347681046,,,
68.2500000000,8,8.0309257507,,,
68.5000000000,8,8.0334873199,,,
68.7500000000,8,8.0181179047,,,
69.0000000000,8,8.0193986893,,,
69.2500000000,8,7.9989061356,,,
69.5000000000,8,8.0334873199,,,
69.7500000000,8,8.0847187042,,,
70.0000000000,8,8.1628465652,,,
70.2500000000,8,8.2332906723,,,
70.5000000000,8,8.2768373489,,,
70.7500000000,8,8.3037338257,,,
71.0000000000,8,8.2934875488,,,
71.2500000000,8,8.2781181335,,,
71.5000000000,8,8.2358522415,,,
71.7500000000,8,8.1871824265,,,
72.0000000000,9,8.1449155807,,,
72.2500000000,9,8.1077728271,,,
72.5000000000,9,8.0859985352,,,
72.7500000000,9,8.0591030121,,,
73.0000000000,9,8.0514183044,,,
73.2500000000,9,8.0322065353,,,
73.5000000000,9,8.0193986893,,,
73.7500000000,9,8.0322065353,,,
74.0000000000,9,8.0270833969,,,
74.2500000000,9,8.0258026123,,,
74.5000000000,9,8.0091524124,,,
74.7500000000,9,8.0053100586,,,
75.0000000000,9,7.9976248741,,,
75.2500000000,9,7.9822549820,,,
75.5000000000,9,7.9809751511,,,
75.7500000000,9,7.9732899666,,,
76.0000000000,9,7.9950628281,,,
76.2500000000,9,8.0270833969,,,
76.5000000000,9,8.0667877197,,,
76.7500000000,9,8.1013689041,,,
77.0000000000,9,8.1205806732,,,
77.2500000000,9,8.1346693039,,,
77.5000000000,9,8.1205806732,,,
77.7500000000,9,8.1026496887,,,
78.0000000000,9,8.0680694580,,,
78.2500000000,9,8.0437335968,,,
78.5000000000,9,8.0270833969,,,
78.7500000000,9,8.0053100586,,,
79.0000000000,9,7.9989061356,,,
79.2500000000,9,7.9899401665,,,
79.5000000000,9,7.9950628281,,,
79.7500000000,9,8.0040292740,,,
80.0000000000,10,7.9925022125,,,
80.2500000000,10,7.9873790741,,,
80.5000000000,10,7.9745712280,,,
80.7500000000,10,7.9758520126,,,
81.0000000000,10,7.9592008591,,,
81.2500000000,10,7.9540781975,,,
81.5000000000,10,7.9579210281,,,
81.7500000000,10,7.9694480896,,,
82.0000000000,10,8.0091524124,,,
82.2500000000,10,8.0462951660,,,
82.5000000000,10,8.0783147812,,,
82.7500000000,10,8.0911226273,,,
83.0000000000,10,8.0898418427,,,
83.2500000000,10,8.0757532120,,,
83.5000000000,10,8.0539798737,,,
83.7500000000,10,8.0437335968,,,
84.0000000000,10,8.0309257507,,,
84.2500000000,10,8.0232410431,,,
84.5000000000,10,8.0193986893,,,
84.7500000000,10,8.0053100586,,,
85.0000000000,10,7.9873790741,,,
85.2500000000,10,7.9873790741,,,
85.5000000000,10,8.0104331970,,,
85.7500000000,10,8.0424528122,,,
86.0000000000,10,8.0693492889,,,
86.2500000000,10,8.0783147812,,,
86.5000000000,10,8.0783147812,,,
86.7500000000,10,8.0795955658,,,
87.0000000000,10,8.0578222275,,,
87.2500000000,10,8.0398912430,,,
87.5000000000,10,8.0219602585,,,
87.7500000000,10,8.0001869202,,,
88.0000000000,11,7.9950628281,,,
88.2500000000,11,8.0347681046,,,
88.5000000000,11,7.9732899666,,,
88.7500000000,11,7.9617629051,,,
89.0000000000,11,7.9502358437,,,
89.2500000000,11,7.9476737976,,,
89.5000000000,11,7.9361472130,,,
89.7500000000,11,7.9457259178,,,
90.0000000000,11,7.9457259178,,,
90.2500000000,11,7.9431648254,,,
90.5000000000,11,7.9559731483,,,
90.7500000000,11,7.9585337639,,,
91.0000000000,11,7.9636569023,,,
91.2500000000,11,7.9649381638,,,
91.5000000000,11,7.9649381638,,,
91.7500000000,11,7.9610958099,,,
92.0000000000,11,7.9546918869,,,
92.2500000000,11,7.9431648254,,,
92.5000000000,11,7.9418840408,,,
92.7500000000,11,7.9393219948,,,
93.0000000000,11,7.9265151024,,,
93.2500000000,11,7.9265151024,,,
93.5000000000,11,7.9239530563,,,
93.7500000000,11,7.9188299179,,,
94.0000000000,11,7.9162678719,,,
94.2500000000,11,7.9073019028,,,
94.5000000000,11,7.8944950104,,,
94.7500000000,11,7.8919329643,,,
95.0000000000,11,7.8880910873,,,
95.2500000000,11,7.8816871643,,,
95.5000000000,11,7.8791251183,,,
95.7500000000,11,7.8804059029,,,
96.0000000000,12,7.8688788414,,,
96.2500000000,12,7.8701601028,,,
96.5000000000,12,7.8650360107,,,
96.7500000000,12,7.8573517799,,,
97.0000000000,12,7.8637561798,,,
97.2500000000,12,7.8560709953,,,
97.5000000000,12,7.8816871643,,,
97.7500000000,12,7.9085831642,,,
98.0000000000,12,7.9546918869,,,
98.2500000000,12,8.0174503326,,,
98.5000000000,12,8.0507516861,,,
98.7500000000,12,8.0789289474,,,
99.0000000000,12,8.0789289474,,,
99.2500000000,12,8.0789289474,,,
99.5000000000,12,8.0712442398,,,
99.7500000000,12,8.0686826706,,,
100.0000000000,12,8.0738058090,,,
100.2500000000,12,8.0699634552,,,
100.5000000000,12,8.0609979630,,,
100.7500000000,12,8.0443468094,,,
101.0000000000,12,8.0417852402,,,
101.2500000000,12,8.0686826706,,,
101.5000000000,12,8.1327219009,,,
101.7500000000,12,8.1993227005,,,
102.0000000000,12,8.2633628845,,,
102.2500000000,12,8.2838554382,,,
102.5000000000,12,8.2864170074,,,
102.7500000000,12,8.2723283768,,,
103.0000000000,12,8.2467126846,,,
103.2500000000,12,8.2159729004,,,
103.5000000000,12,8.1865148544,,,
103.7500000000,12,8.1532144547,,,
104.0000000000,13,8.1340026855,,,
104.2500000000,13,8.1314411163,,,
104.5000000000,13,8.1391258240,,,
104.7500000000,13,8.1608991623,,,
105.0000000000,13,8.1749877930,,,
105.2500000000,13,8.1737070084,,,
105.5000000000,13,8.1647424698,,,
105.7500000000,13,8.1557760239,,,
106.0000000000,13,8.1442489624,,,
106.2500000000,13,8.1250371933,,,
106.5000000000,13,8.1186332703,,,
106.7500000000,13,8.1109485626,,,
107.0000000000,13,8.1007022858,,,
107.2500000000,13,8.0994224548,,,
107.5000000000,13,8.1135101318,,,
107.7500000000,13,8.1340026855,,,
108.0000000000,13,8.1442489624,,,
108.2500000000,13,8.1480913162,,,
108.5000000000,13,8.1480913162,,,
108.7500000000,13,8.1378450394,,,
109.0000000000,13,8.1327219009,,,
109.2500000000,13,8.1122293472,,,
109.5000000000,13,8.0981407166,,,
109.7500000000,13,8.0968599319,,,
110.0000000000,13,8.1275987625,,,
110.2500000000,13,8.2018842697,,,
110.5000000000,13,8.2684860229,,,
110.7500000000,13,8.3312444687,,,
111.0000000000,13,8.3568601608,,,
111.2500000000,13,8.3607034683,,,
111.5000000000,13,8.3581409454,,,
111.7500000000,13,8.3478946686,,,
112.0000000000,14,8.3248405457,,,
112.2500000000,14,8.2941017151,,,
112.5000000000,14,8.2633628845,,,
112.7500000000,14,8.2364664078,,,
113.0000000000,14,8.1993227005,,,
113.2500000000,14,8.1724262238,,,
113.5000000000,14,8.1570568085,,,
113.7500000000,14,8.1442489624,,,
114.0000000000,14,8.1378450394,,,
114.2500000000,14,8.1429681778,,,
114.5000000000,14,8.1352834702,,,
114.7500000000,14,8.1314411163,,,
115.0000000000,14,8.1301603317,,,
115.2500000000,14,8.1147909164,,,
115.5000000000,14,8.1032638550,,,
115.7500000000,14,8.1071062088,,,
116.0000000000,14,8.1032638550,,,
116.2500000000,14,8.1096677780,,,
116.5000000000,14,8.1045446396,,,
116.7500000000,14,8.1122293472,,,
117.0000000000,14,8.1032638550,,,
117.2500000000,14,8.0942983627,,,
117.5000000000,14,8.0866136551,,,
117.7500000000,14,8.0738058090,,,
118.0000000000,14,8.0750865936,,,
118.2500000000,14,8.0674018860,,,
118.5000000000,14,8.0661211014,,,
118.7500000000,14,8.0597171783,,,
119.0000000000,14,8.0571556091,,,
119.2500000000,14,8.0520324707,,,
119.5000000000,14,8.0481891632,,,
119.7500000000,14,8.0584363937,,,
120.0000000000,15,8.0725250244,,,
120.2500000000,15,8.0827713013,,,
120.5000000000,15,8.1045446396,,,
120.7500000000,15,8.1071062088,,,
121.0000000000,15,8.1186332703,,,
121.2500000000,15,8.1109485626,,,
121.5000000000,15,8.1071062088,,,
121.7500000000,15,8.0994224548,,,
122.0000000000,15,8.0942983627,,,
122.2500000000,15,8.0814914703,,,
122.5000000000,15,8.0648403168,,,
122.7500000000,15,8.0609979630,,,
123.0000000000,15,8.0699634552,,,
123.2500000000,15,8.0827713013,,,
123.5000000000,15,8.0942983627,,,
123.7500000000,15,8.1007022858,,,
124.0000000000,15,8.1032638550,,,
124.2500000000,15,8.0994224548,,,
124.5000000000,15,8.0814914703,,,
124.7500000000,15,8.0802097321,,,
125.0000000000,15,8.0750865936,,,
125.2500000000,15,8.0738058090,,,
125.5000000000,15,8.0674018860,,,
125.7500000000,15,8.0686826706,,,
126.0000000000,15,8.0674018860,,,
126.2500000000,15,8.0571556091,,,
126.5000000000,15,8.0584363937,,,
126.7500000000,15,8.0533132553,,,
127.0000000000,15,8.0520324707,,,
127.2500000000,15,8.0584363937,,,
127.5000000000,15,8.0545940399,,,
127.7500000000,15,8.0558748245,,,
128.0000000000,16,8.0507516861,,,
128.2500000000,16,8.0597171783,,,
128.5000000000,16,8.0597171783,,,
128.7500000000,16,8.0597171783,,,
129.0000000000,16,8.0584363937,,,
129.2500000000,16,8.0571556091,,,
129.5000000000,16,8.0661211014,,,
129.7500000000,16,8.0622787476,,,
130.0000000000,16,8.0648403168,,,
130.2500000000,16,8.0584363937,,,
130.5000000000,16,8.0520324707,,,
130.7500000000,16,8.0520324707,,,
131.0000000000,16,8.0533132553,,,
131.2500000000,16,8.0533132553,,,
131.5000000000,16,8.0443468094,,,
131.7500000000,16,8.0430660248,,,
132.0000000000,16,8.0507516861,,,
132.2500000000,16,8.0545940399,,,
132.5000000000,16,8.0725250244,,,
132.7500000000,16,8.0840520859,,,
133.0000000000,16,8.0827713013,,,
133.2500000000,16,8.0930175781,,,
133.5000000000,16,8.0891752243,,,
133.7500000000,16,8.0878944397,,,
134.0000000000,16,8.0750865936,,,
134.2500000000,16,8.0686826706,,,
134.5000000000,16,8.0699634552,,,
134.7500000000,16,8.0814914703,,,
135.0000000000,16,8.1083869934,,,
135.2500000000,16,8.1506528854,,,
135.5000000000,16,8.1877956390,,,
135.7500000000,16,8.2044458389,,,
136.0000000000,17,8.2172536850,,,
136.2500000000,17,8.2236576080,,,
136.5000000000,17,8.2198152542,,,
136.7500000000,17,8.2159729004,,,
137.0000000000,17,8.2146921158,,,
137.2500000000,17,8.2031650543,,,
137.5000000000,17,8.1877956390,,,
137.7500000000,17,8.1788301468,,,
138.0000000000,17,8.1852340698,,,
138.2500000000,17,8.2095689774,,,
138.5000000000,17,8.2467126846,,,
138.7500000000,17,8.2697668076,,,
139.0000000000,17,8.2812938690,,,
139.2500000000,17,8.2838554382,,,
139.5000000000,17,8.2761707306,,,
139.7500000000,17,8.2761707306,,,
140.0000000000,17,8.2582397461,,,
140.2500000000,17,8.2441511154,,,
140.5000000000,17,8.2313423157,,,
140.7500000000,17,8.2210960388,,,
141.0000000000,17,8.2428703308,,,
141.2500000000,17,8.2633628845,,,
141.5000000000,17,8.2915401459,,,
141.7500000000,17,8.2915401459,,,
142.0000000000,17,8.2915401459,,,
142.2500000000,17,8.2825746536,,,
142.5000000000,17,8.2646436691,,,
142.7500000000,17,8.2505550385,,,
143.0000000000,17,8.2339038849,,,
143.2500000000,17,8.2185344696,,,
143.5000000000,17,8.1993227005,,,
143.7500000000,17,8.1852340698,,,
144.0000000000,18,8.1801109314,,,
144.2500000000,18,8.1724262238,,,
144.5000000000,18,8.1673030853,,,
144.7500000000,18,8.1660223007,,,
145.0000000000,18,8.1506528854,,,
145.2500000000,18,8.1519336700,,,
145.5000000000,18,8.1429681778,,,
145.7500000000,18,8.1493721008,,,
146.0000000000,18,8.1621799469,,,
146.2500000000,18,8.1608991623,,,
146.5000000000,18,8.1724262238,,,
146.7500000000,18,8.2313423157,,,
147.0000000000,18,8.1890764236,,,
147.2500000000,18,8.1826734543,,,
147.5000000000,18,8.1621799469,,,
147.7500000000,18,8.1621799469,,,
148.0000000000,18,8.1762685776,,,
148.2500000000,18,8.1903572083,,,
148.5000000000,18,8.2095689774,,,
148.7500000000,18,8.2172536850,,,
149.0000000000,18,8.2223768234,,,
149.2500000000,18,8.2146921158,,,
149.5000000000,18,8.2108497620,,,
149.7500000000,18,8.2057266235,,,
150.0000000000,18,8.1877956390,,,
150.2500000000,18,8.1788301468,,,
150.5000000000,18,8.1749877930,,,
150.7500000000,18,8.1634607315,,,
151.0000000000,18,8.1557760239,,,
151.2500000000,18,8.1506528854,,,
151.5000000000,18,8.1583375931,,,
151.7500000000,18,8.1890764236,,,
152.0000000000,19,8.2108497620,,,
152.2500000000,19,8.2390279770,,,
152.5000000000,19,8.2326231003,,,
152.7500000000,19,8.2287807465,,,
153.0000000000,19,8.2210960388,,,
153.2500000000,19,8.2159729004,,,
153.5000000000,19,8.2313423157,,,
153.7500000000,19,8.2556781769,,,
154.0000000000,19,8.2941017151,,,
154.2500000000,19,8.3133125305,,,
154.5000000000,19,8.3235597610,,,
154.7500000000,19,8.3274021149,,,
155.0000000000,19,8.3081903458,,,
155.2500000000,19,8.2889785767,,,
155.5000000000,19,8.2812938690,,,
155.7500000000,19,8.2800130844,,,
156.0000000000,19,8.2736091614,,,
156.2500000000,19,8.2556781769,,,
156.5000000000,19,8.2608013153,,,
156.7500000000,19,8.2543973923,,,
157.0000000000,19,8.2620820999,,,
157.2500000000,19,8.2659244537,,,
157.5000000000,19,8.2659244537,,,
157.7500000000,19,8.2697668076,,,
158.0000000000,19,8.2697668076,,,
158.2500000000,19,8.2736091614,,,
158.5000000000,19,8.2838554382,,,
158.7500000000,19,8.2889785767,,,
159.0000000000,19,8.2953815460,,,
159.2500000000,19,8.2966632843,,,
159.5000000000,19,8.2992248535,,,
159.7500000000,19,8.2838554382,,,
160.0000000000,20,8.2672052383,,,
160.2500000000,20,8.2518358231,,,
160.5000000000,20,8.2441511154,,,
160.7500000000,20,8.2633628845,,,
161.0000000000,20,8.2941017151,,,
161.2500000000,20,8.3197174072,,,
161.5000000000,20,8.3350868225,,,
161.7500000000,20,8.3427715302,,,
162.0000000000,20,8.3402099609,,,
162.2500000000,20,8.3171558380,,,
162.5000000000,20,8.3030672073,,,
162.7500000000,20,8.2889785767,,,
163.0000000000,20,8.2684860229,,,
163.2500000000,20,8.2569589615,,,
163.5000000000,20,8.2428703308,,,
163.7500000000,20,8.2274999619,,,
164.0000000000,20,8.2095689774,,,
164.2500000000,20,8.1993227005,,,
164.5000000000,20,8.1993227005,,,
164.7500000000,20,8.1916379929,,,
165.0000000000,20,8.1916379929,,,
165.2500000000,20,8.2300615311,,,
165.5000000000,20,8.2082881927,,,
165.7500000000,20,8.2210960388,,,
166.0000000000,20,8.2339038849,,,
166.2500000000,20,8.2441511154,,,
166.5000000000,20,8.2479934692,,,
166.7500000000,20,8.2326231003,,,
167.0000000000,20,8.2287807465,,,
167.2500000000,20,8.2146921158,,,
167.5000000000,20,8.2198152542,,,
167.7500000000,20,8.2159729004,,,
168.0000000000,21,8.2236576080,,,
168.2500000000,21,8.2172536850,,,
168.5000000000,21,8.2082881927,,,
168.7500000000,21,8.1993227005,,,
169.0000000000,21,8.1980419159,,,
169.2500000000,21,8.2057266235,,,
169.5000000000,21,8.2146921158,,,
169.7500000000,21,8.2262191772,,,
170.0000000000,21,8.2543973923,,,
170.2500000000,21,8.2902593613,,,
170.5000000000,21,8.3286828995,,,
170.7500000000,21,8.3542985916,,,
171.0000000000,21,8.3555793762,,,
171.2500000000,21,8.3555793762,,,
171.5000000000,21,8.3466138840,,,
171.7500000000,21,8.3440523148,,,
172.0000000000,21,8.3722295761,,,
172.2500000000,21,8.4221811295,,,
172.5000000000,21,8.4657278061,,,
172.7500000000,21,8.5060987473,,,
173.0000000000,21,8.5086603165,,,
173.2500000000,21,8.4932909012,,,
173.5000000000,21,8.4663944244,,,
173.7500000000,21,8.4330940247,,,
174.0000000000,21,8.4100399017,,,
174.2500000000,21,8.4061975479,,,
174.5000000000,21,8.3908281326,,,
174.7500000000,21,8.3972320557,,,
175.0000000000,21,8.3946695328,,,
175.2500000000,21,8.3959512711,,,
175.5000000000,21,8.4036359787,,,
175.7500000000,21,8.4049167633,,,
176.0000000000,22,8.3946695328,,,
176.2500000000,22,8.3818626404,,,
176.5000000000,22,8.3741779327,,,
176.7500000000,22,8.3703355789,,,
177.0000000000,22,8.3485612869,,,
177.2500000000,22,8.3280687332,,,
177.5000000000,22,8.3280687332,,,
177.7500000000,22,8.3216648102,,,
178.0000000000,22,8.3126993179,,,
178.2500000000,22,8.3062953949,,,
178.5000000000,22,8.3037338257,,,
178.7500000000,22,8.3344726563,,,
179.0000000000,22,8.3703355789,,,
179.2500000000,22,8.4202861786,,,
179.5000000000,22,8.4535865784,,,
179.7500000000,22,8.4727983475,,,
180.0000000000,22,8.4779205322,,,
180.2500000000,22,8.4599914551,,,
180.5000000000,22,8.4471826553,,,
180.7500000000,22,8.4177246094,,,
181.0000000000,22,8.3972320557,,,
181.2500000000,22,8.3805818558,,,
181.5000000000,22,8.3664932251,,,
181.7500000000,22,8.3703355789,,,
182.0000000000,22,8.3716163635,,,
182.2500000000,22,8.3946695328,,,
182.5000000000,22,8.4100399017,,,
182.7500000000,22,8.4241285324,,,
183.0000000000,22,8.4407787323,,,
183.2500000000,22,8.4382171631,,,
183.5000000000,22,8.4343748093,,,
183.7500000000,22,8.4279708862,,,
184.0000000000,23,8.4202861786,,,
184.2500000000,23,8.4126014709,,,
184.5000000000,23,8.3959512711,,,
184.7500000000,23,8.3908281326,,,
185.0000000000,23,8.3626508713,,,
185.2500000000,23,8.3575277328,,,
185.5000000000,23,8.3908281326,,,
185.7500000000,23,8.4202861786,,,
186.0000000000,23,8.4420604706,,,
186.2500000000,23,8.4471826553,,,
186.5000000000,23,8.4510250092,,,
186.7500000000,23,8.4459018707,,,
187.0000000000,23,8.4266901016,,,
187.2500000000,23,8.4100399017,,,
187.5000000000,23,8.3882665634,,,
187.7500000000,23,8.3677740097,,,
188.0000000000,23,8.3946695328,,,
188.2500000000,23,8.4587097168,,,
188.5000000000,23,8.5560503006,,,
188.7500000000,23,8.6405820847,,,
189.0000000000,23,8.6790056229,,,
189.2500000000,23,8.6982173920,,,
189.5000000000,23,8.6918134689,,,
189.7500000000,23,8.6521091461,,,
190.0000000000,23,8.6034393311,,,
190.2500000000,23,8.5675773621,,,
190.5000000000,23,8.5329952240,,,
190.7500000000,23,8.4881677628,,,
191.0000000000,23,8.4779205322,,,
191.2500000000,23,8.4612712860,,,
191.5000000000,23,8.4471826553,,,
191.7500000000,23,8.4407787323,,,
192.0000000000,24,8.4459018707,,,
192.2500000000,24,8.4689559937,,,
192.5000000000,24,8.4920101166,,,
192.7500000000,24,8.5137834549,,,
193.0000000000,24,8.5214681625,,,
193.2500000000,24,8.5125026703,,,
193.5000000000,24,8.4958524704,,,
193.7500000000,24,8.5022563934,,,
194.0000000000,24,8.4881677628,,,
194.2500000000,24,8.4971332550,,,
194.5000000000,24,8.4843254089,,,
194.7500000000,24,8.4792022705,,,
195.0000000000,24,8.4663944244,,,
195.2500000000,24,8.4548673630,,,
195.5000000000,24,8.4446210861,,,
195.7500000000,24,8.4356555939,,,
196.0000000000,24,8.4792022705,,,
196.2500000000,24,8.5611734390,,,
196.5000000000,24,8.6713209152,,,
196.7500000000,24,8.7635383606,,,
197.0000000000,24,8.8083658218,,,
197.2500000000,24,8.8160505295,,,
197.5000000000,24,8.7955579758,,,
197.7500000000,24,8.7968387604,,,
198.0000000000,24,8.8557548523,,,
198.2500000000,24,8.9095487595,,,
198.5000000000,24,8.9402875900,,,
198.7500000000,24,8.9504375458,,,
199.0000000000,24,8.9094524384,,,
199.2500000000,24,8.8595008850,,,
199.5000000000,24,8.7929000854,,,
199.7500000000,24,8.7070865631,,,
200.0000000000,25,8.6532936096,,,
200.2500000000,25,8.5918159485,,,
200.5000000000,25,8.5597963333,,,
200.7500000000,25,8.5367422104,,,
201.0000000000,25,8.5111255646,,,
201.2500000000,25,8.5034408569,,,
201.5000000000,25,8.5047216415,,,
201.7500000000,25,8.5341806412,,,
202.0000000000,25,8.5790081024,,,
202.2500000000,25,8.6110277176,,,
202.5000000000,25,8.6507320404,,,
202.7500000000,25,8.6571359634,,,
203.0000000000,25,8.6417665482,,,
203.2500000000,25,8.6545743942,,,
203.5000000000,25,8.6699438095,,,
203.7500000000,25,8.6814708710,,,
204.0000000000,25,8.6750669479,,,
204.2500000000,25,8.6814708710,,,
204.5000000000,25,8.6904363632,,,
204.7500000000,25,8.6725053787,,,
205.0000000000,25,8.6545743942,,,
205.2500000000,25,8.6379241943,,,
205.5000000000,25,8.6148700714,,,
205.7500000000,25,8.6571359634,,,
206.0000000000,25,8.7262992859,,,
206.2500000000,25,8.8197965622,,,
206.5000000000,25,8.9068908691,,,
206.7500000000,25,8.9517183304,,,
207.0000000000,25,8.9632453918,,,
207.2500000000,25,8.9261026382,,,
207.5000000000,25,8.8761510849,,,
207.7500000000,25,8.8223581314,,,
208.0000000000,26,8.7557573318,,,
208.2500000000,26,8.7224569321,,,
208.5000000000,26,8.6865940094,,,
208.7500000000,26,8.6571359634,,,
209.0000000000,26,8.6468896866,,,
209.2500000000,26,8.6366434097,,,
209.5000000000,26,8.6353626251,,,
209.7500000000,26,8.6174316406,,,
210.0000000000,26,8.6148700714,,,
210.2500000000,26,8.6161508560,,,
210.5000000000,26,8.6289587021,,,
210.7500000000,26,8.6404857635,,,
211.0000000000,26,8.6468896866,,,
211.2500000000,26,8.6584167480,,,
211.5000000000,26,8.6584167480,,,
211.7500000000,26,8.6584167480,,,
212.0000000000,26,8.6494512558,,,
212.2500000000,26,8.6276779175,,,
212.5000000000,26,8.6033430099,,,
212.7500000000,26,8.5943784714,,,
213.0000000000,26,8.5841312408,,,
213.2500000000,26,8.5841312408,,,
213.5000000000,26,8.5790081024,,,
213.7500000000,26,8.5726041794,,,
214.0000000000,26,8.5687618256,,,
214.2500000000,26,8.5674810410,,,
214.5000000000,26,8.5662002563,,,
214.7500000000,26,8.5597963333,,,
215.0000000000,26,8.5495500565,,,
215.2500000000,26,8.5431461334,,,
215.5000000000,26,8.5367422104,,,
215.7500000000,26,8.5367422104,,,
216.0000000000,27,8.5277757645,,,
216.2500000000,27,8.5188102722,,,
216.5000000000,27,8.5213718414,,,
216.7500000000,27,8.5136871338,,,
217.0000000000,27,8.5085639954,,,
217.2500000000,27,8.5021600723,,,
217.5000000000,27,8.4970369339,,,
217.7500000000,27,8.5047216415,,,
218.0000000000,27,8.4893522263,,,
218.2500000000,27,8.4752635956,,,
218.5000000000,27,8.4739828110,,,
218.7500000000,27,8.4611749649,,,
219.0000000000,27,8.4662981033,,,
219.2500000000,27,8.4534902573,,,
219.5000000000,27,8.4534902573,,,
219.7500000000,27,8.4522094727,,,
220.0000000000,27,8.4496479034,,,
220.2500000000,27,8.4509286880,,,
220.5000000000,27,8.4355592728,,,
220.7500000000,27,8.4382171631,,,
221.0000000000,27,8.4305324554,,,
221.2500000000,27,8.4190053940,,,
221.5000000000,27,8.4151630402,,,
221.7500000000,27,8.3972320557,,,
222.0000000000,27,8.3933897018,,,
222.2500000000,27,8.3985128403,,,
222.5000000000,27,8.4087591171,,,
222.7500000000,27,8.4279708862,,,
223.0000000000,27,8.4279708862,,,
223.2500000000,27,8.4254093170,,,
223.5000000000,27,8.4202861786,,,
223.7500000000,27,8.4113206863,,,
224.0000000000,28,8.4100399017,,,
224.2500000000,28,8.4177246094,,,
224.5000000000,28,8.4471826553,,,
224.7500000000,28,8.4715175629,,,
225.0000000000,28,8.4920101166,,,
225.2500000000,28,8.5291528702,,,
225.5000000000,28,8.5522079468,,,
225.7500000000,28,8.5624542236,,,
226.0000000000,28,8.5547704697,,,
226.2500000000,28,8.5432424545,,,
226.5000000000,28,8.5240297318,,,
226.7500000000,28,8.5112218857,,,
227.0000000000,28,8.4856061935,,,
227.2500000000,28,8.4689559937,,,
227.5000000000,28,8.4535865784,,,
227.7500000000,28,8.4484634399,,,
228.0000000000,28,8.4574289322,,,
228.2500000000,28,8.4753599167,,,
228.5000000000,28,8.5048179626,,,
228.7500000000,28,8.5355567932,,,
229.0000000000,28,8.5381183624,,,
229.2500000000,28,8.5227489471,33025,229.4687500000,0.0000000000
229.5000000000,28,8.5073795319,33024,229.5625000000,0.0000000000
229.7500000000,28,8.4958524704,,,
230.0000000000,28,8.5060987473,,,
230.2500000000,28,8.5265913010,,,
230.5000000000,28,8.5355567932,,,
230.7500000000,28,8.5483655930,,,
231.0000000000,28,8.5393991470,,,
231.2500000000,28,8.5278720856,,,
231.5000000000,28,8.5189065933,,,
231.7500000000,28,8.4945716858,,,
232.0000000000,29,8.4779205322,,,
232.2500000000,29,8.4689559937,,,
232.5000000000,29,8.4587097168,,,
232.7500000000,29,8.4587097168,,,
233.0000000000,29,8.4369363785,,,
233.2500000000,29,8.4100399017,,,
233.5000000000,29,8.2934875488,,,
233.7500000000,29,8.3767404556,,,
234.0000000000,29,8.4407787323,,,
234.2500000000,29,8.3754587173,,,
234.5000000000,29,8.4587097168,,,
234.7500000000,29,8.4907293320,,,
235.0000000000,29,8.5355567932,,,
235.2500000000,29,8.6277742386,,,
235.5000000000,29,8.7507314682,,,
235.7500000000,29,8.8724050522,,,
236.0000000000,29,8.9556570053,,,
236.2500000000,29,9.0003881454,,,
236.5000000000,29,8.9888610840,,,
236.7500000000,29,8.9491567612,,,
237.0000000000,29,8.8902397156,,,
237.2500000000,29,8.8326044083,,,
237.5000000000,29,8.7929000854,,,
237.7500000000,29,8.7096481323,,,
238.0000000000,29,8.6481704712,,,
238.2500000000,29,8.6302385330,,,
238.5000000000,29,8.5995006561,,,
238.7500000000,29,8.5969390869,,,
239.0000000000,29,8.5918159485,,,
239.2500000000,29,8.6071853638,,,
239.5000000000,29,8.7250194550,,,
239.7500000000,29,8.7327032089,,,
240.0000000000,30,8.8133926392,,,
240.2500000000,30,8.8005847931,,,
240.5000000000,30,8.7852153778,,,
240.7500000000,30,8.7698459625,,,
241.0000000000,30,8.8031463623,,,
241.2500000000,30,8.8569393158,,,
241.5000000000,30,8.9158563614,,,
241.7500000000,30,8.9798955917,,,
242.0000000000,30,9.0106344223,,,
242.2500000000,30,8.9991073608,,,
242.5000000000,30,8.9542798996,,,
242.7500000000,30,8.8851165771,,,
243.0000000000,30,8.8197965622,,,
243.2500000000,30,8.7647228241,,,
243.5000000000,30,8.6994018555,,,
243.7500000000,30,8.6545743942,,,
244.0000000000,30,8.5995006561,,,
244.2500000000,30,8.5662002563,,,
244.5000000000,30,8.5047216415,,,
244.7500000000,30,8.4778251648,,,
245.0000000000,30,8.4752635956,,,
245.2500000000,30,8.4509286880,,,
245.5000000000,30,8.4727020264,,,
245.7500000000,30,8.4816684723,,,
246.0000000000,30,8.4931945801,,,
246.2500000000,30,8.4944753647,,,
246.5000000000,30,8.4855098724,,,
246.7500000000,30,8.4163484573,,,
247.0000000000,30,8.3895473480,,,
247.2500000000,30,8.2845220566,,,
247.5000000000,30,8.1692495346,,,
247.7500000000,30,8.1039304733,,,
248.0000000000,31,8.0847187042,,,
248.2500000000,31,8.0578222275,,,
248.5000000000,31,8.0770339966,,,
248.7500000000,31,8.1026496887,,,
249.0000000000,31,8.3216648102,,,
249.2500000000,31,8.4612712860,,,
249.5000000000,31,8.5534887314,,,
249.7500000000,31,8.5522079468,,,
250.0000000000,31,8.5329952240,,,
250.2500000000,31,8.5150642395,,,
250.5000000000,31,8.5393991470,,,
250.7500000000,31,8.5201873779,,,
251.0000000000,31,8.4971332550,,,
251.2500000000,31,8.4907293320,,,
251.5000000000,31,8.4881677628,,,
251.7500000000,31,8.4881677628,,,
252.0000000000,31,8.4945716858,,,
252.2500000000,31,8.4740791321,,,
252.5000000000,31,8.4651136398,,,
252.7500000000,31,8.5009756088,,,
253.0000000000,31,8.4984140396,,,
253.2500000000,31,8.4612712860,,,
253.5000000000,31,8.4971332550,,,
253.7500000000,31,8.5611734390,,,
254.0000000000,31,8.5547704697,,,
254.2500000000,31,8.6008777618,,,
254.5000000000,31,8.6367397308,,,
254.7500000000,31,8.6380214691,,,
255.0000000000,31,8.6239318848,,,
255.2500000000,31,8.5919122696,,,
255.5000000000,31,8.5560503006,,,
255.7500000000,31,8.5867891312,,,
256.0000000000,32,8.5624542236,,,
256.2500000000,32,8.6457052231,,,
256.5000000000,32,8.6713209152,,,
256.7500000000,32,8.6418628693,,,
257.0000000000,32,8.6546707153,,,
257.2500000000,32,8.5803852081,,,
257.5000000000,32,8.5470848083,,,
257.7500000000,32,8.5278720856,,,
258.0000000000,32,8.5240297318,,,
258.2500000000,32,8.4971332550,,,
258.5000000000,32,8.4996948242,,,
258.7500000000,32,8.4779205322,,,
259.0000000000,32,8.4638328552,,,
259.2500000000,32,8.4318132401,,,
259.5000000000,32,8.3741779327,,,
259.7500000000,32,8.4932909012,,,
260.0000000000,32,8.5688581467,,,
260.2500000000,32,8.6726016998,,,
260.5000000000,32,8.8211736679,,,
260.7500000000,32,8.7981195450,,,
261.0000000000,32,8.7084636688,,,
261.2500000000,32,8.6277742386,,,
261.5000000000,32,8.5586118698,,,
261.7500000000,32,8.4907293320,,,
262.0000000000,32,8.4420604706,,,
262.2500000000,32,8.3959512711,,,
262.5000000000,32,8.3716163635,,,
262.7500000000,32,8.3716163635,,,
263.0000000000,32,8.3242263794,,,
263.2500000000,32,8.2179212570,,,
263.5000000000,32,7.8746690750,,,
263.7500000000,32,7.9060220718,,,
264.0000000000,33,8.0072040558,,,
264.2500000000,33,7.9918351173,,,
264.5000000000,33,7.9828691483,,,
264.7500000000,33,7.9636569023,,,
265.0000000000,33,8.0059232712,,,
265.2500000000,33,8.1007022858,,,
265.5000000000,33,8.2633628845,,,
265.7500000000,33,8.4388313293,,,
266.0000000000,33,8.4382171631,,,
266.2500000000,33,8.3088569641,,,
266.5000000000,33,8.1628465652,,,
266.7500000000,33,8.3203840256,,,
267.0000000000,33,8.3062953949,,,
267.2500000000,33,8.3178224564,,,
267.5000000000,33,8.3280687332,,,
267.7500000000,33,8.3139801025,,,
268.0000000000,33,8.3126993179,,,
268.2500000000,33,8.2870836258,,,
268.5000000000,33,8.2704334259,,,
268.7500000000,33,8.2653102875,,,
269.0000000000,33,8.2486600876,,,
269.2500000000,33,8.2294483185,,,
269.5000000000,33,8.1679697037,,,
269.7500000000,33,8.1871824265,,,
270.0000000000,33,8.1692495346,,,
270.2500000000,33,8.1718130112,,,
270.5000000000,33,8.2384138107,,,
270.7500000000,33,8.2486600876,,,
271.0000000000,33,8.2512216568,,,
271.2500000000,33,8.2691526413,,,
271.5000000000,33,8.1948671341,,,
271.7500000000,33,8.1372308731,,,
272.0000000000,34,8.1884632111,,,
272.2500000000,34,8.1846208572,,,
272.5000000000,34,8.1961479187,,,
272.7500000000,34,8.2448177338,,,
273.0000000000,34,8.3050146103,,,
273.2500000000,34,8.3767404556,,,
273.5000000000,34,8.4228477478,,,
273.7500000000,34,8.4330940247,,,
274.0000000000,34,8.4459018707,,,
274.2500000000,34,8.4215669632,,,
274.5000000000,34,8.3818626404,,,
274.7500000000,34,8.3447189331,,,
275.0000000000,34,8.3114185333,,,
275.2500000000,34,8.2883644104,,,
275.5000000000,34,8.2729949951,,,
275.7500000000,34,8.2589063644,,,
276.0000000000,34,8.2332906723,,,
276.2500000000,34,8.2192020416,,,
276.5000000000,34,8.2063941956,,,
276.7500000000,34,8.1897439957,,,
277.0000000000,34,8.1820592880,,,
277.2500000000,34,8.1820592880,,,
277.5000000000,34,8.1807794571,,,
277.7500000000,34,8.1769361496,,,
278.0000000000,34,8.1692495346,,,
278.2500000000,34,8.1807794571,,,
278.5000000000,34,8.1718130112,,,
278.7500000000,34,8.1654081345,,,
279.0000000000,34,8.1513204575,,,
279.2500000000,34,8.1359500885,,,
279.5000000000,34,8.1257038116,,,
279.7500000000,34,8.1192998886,,,
280.0000000000,35,8.1461963654,,,
280.2500000000,35,8.1782169342,,,
280.5000000000,35,8.2115173340,,,
280.7500000000,35,8.2358522415,,,
281.0000000000,35,8.2704334259,,,
281.2500000000,35,8.3088569641,,,
281.5000000000,35,8.3344726563,,,
281.7500000000,35,8.3383150101,,,
282.0000000000,35,8.3408765793,,,
282.2500000000,35,8.3229455948,,,
282.5000000000,35,8.3088569641,,,
282.7500000000,35,8.2973299026,,,
283.0000000000,35,8.2627487183,,,
283.2500000000,35,8.2371330261,,,
283.5000000000,35,8.2115173340,,,
283.7500000000,35,8.2025518417,,,
284.0000000000,35,8.1871824265,,,
284.2500000000,35,8.1743745804,,,
284.5000000000,35,8.1807794571,,,
284.7500000000,35,8.1833400726,,,
285.0000000000,35,8.1756553650,,,
285.2500000000,35,8.1705322266,,,
285.5000000000,35,8.1526002884,,,
285.7500000000,35,8.1410732269,,,
286.0000000000,35,8.1282653809,,,
286.2500000000,35,8.1500387192,,,
286.5000000000,35,8.2115173340,,,
286.7500000000,35,8.3216648102,,,
287.0000000000,35,8.4036359787,,,
287.2500000000,35,8.4920101166,,,
287.5000000000,35,8.5547704697,,,
287.7500000000,35,8.5662965775,,,
288.0000000000,36,8.5291528702,,,
288.2500000000,36,8.4907293320,,,
288.5000000000,36,8.4241285324,,,
288.7500000000,36,8.3780202866,,,
289.0000000000,36,8.3434381485,,,
289.2500000000,36,8.3216648102,,,
289.5000000000,36,8.3255071640,,,
289.7500000000,36,8.2691526413,,,
290.0000000000,36,8.3255071640,,,
290.2500000000,36,8.2870836258,,,
290.5000000000,36,8.3562469482,,,
290.7500000000,36,8.3869857788,,,
291.0000000000,36,8.4241285324,,,
291.2500000000,36,8.3985128403,,,
291.5000000000,36,8.4138822556,,,
291.7500000000,36,8.4010744095,,,
292.0000000000,36,8.3728971481,,,
292.2500000000,36,8.4023551941,,,
292.5000000000,36,8.3754587173,,,
292.7500000000,36,8.4164438248,,,
293.0000000000,36,8.4894485474,,,
293.2500000000,36,8.4856061935,,,
293.5000000000,36,8.4753599167,,,
293.7500000000,36,8.4599914551,,,
294.0000000000,36,8.4459018707,,,
294.2500000000,36,8.4330940247,,,
294.5000000000,36,8.4151630402,,,
294.7500000000,36,8.1935863495,,,
295.0000000000,36,8.2755565643,,,
295.2500000000,36,8.3267879486,,,
295.5000000000,36,8.2934875488,,,
295.7500000000,36,8.2858028412,,,
296.0000000000,37,8.2922067642,,,
296.2500000000,37,8.2960491180,,,
296.5000000000,37,8.3434381485,,,
296.7500000000,37,8.4190053940,,,
297.0000000000,37,8.4996948242,,,
297.2500000000,37,8.5650157928,,,
297.5000000000,37,8.6047201157,,,
297.7500000000,37,8.6277742386,,,
298.0000000000,37,8.6341781616,,,
298.2500000000,37,8.6328973770,,,
298.5000000000,37,8.6034393311,,,
298.7500000000,37,8.5675773621,,,
299.0000000000,37,8.5201873779,,,
299.2500000000,37,8.4779205322,,,
299.5000000000,37,8.4535865784,,,
299.7500000000,37,8.4215669632,,,
300.0000000000,37,8.3985128403,,,
300.2500000000,37,8.3767404556,,,
300.5000000000,37,8.3767404556,,,
300.7500000000,37,8.3485612869,,,
301.0000000000,37,8.3588094711,,,
301.2500000000,37,8.3536844254,,,
301.5000000000,37,8.3395957947,,,
301.7500000000,37,8.3319110870,,,
302.0000000000,37,8.3216648102,,,
302.2500000000,37,8.3050146103,,,
302.5000000000,37,8.2998914719,,,
302.7500000000,37,8.2896451950,,,
303.0000000000,37,8.2870836258,,,
303.2500000000,37,8.2832412720,,,
303.5000000000,37,8.2986106873,,,
303.7500000000,37,8.2896451950,,,
304.0000000000,38,8.2640304565,,,
304.2500000000,38,8.2576255798,,,
304.5000000000,38,8.2460994720,,,
304.7500000000,38,8.2384138107,,,
305.0000000000,38,8.2281675339,,,
305.2500000000,38,8.2307291031,,,
305.5000000000,38,8.2858028412,,,
305.7500000000,38,8.3985128403,,,
306.0000000000,38,8.4868869781,,,
306.2500000000,38,8.5393991470,,,
306.5000000000,38,8.5688581467,,,
306.7500000000,38,8.5675773621,,,
307.0000000000,38,8.5342760086,,,
307.2500000000,38,8.4868869781,,,
307.5000000000,38,8.4254093170,,,
307.7500000000,38,8.4113206863,,,
308.0000000000,38,8.4177246094,,,
308.2500000000,38,8.4190053940,,,
308.5000000000,38,8.4330940247,,,
308.7500000000,38,8.4343748093,,,
309.0000000000,38,8.4459018707,,,
309.2500000000,38,8.4254093170,,,
309.5000000000,38,8.4113206863,,,
309.7500000000,38,8.3882665634,,,
310.0000000000,38,8.3728971481,,,
310.2500000000,38,8.3485612869,,,
310.5000000000,38,8.3370342255,,,
310.7500000000,38,8.3459997177,,,
311.0000000000,38,8.3370342255,,,
311.2500000000,38,8.2947683334,,,
311.5000000000,38,8.2665910721,,,
311.7500000000,38,8.2563447952,,,
312.0000000000,39,8.2563447952,,,
312.2500000000,39,8.2601871490,,,
312.5000000000,39,8.2525024414,,,
312.7500000000,39,8.2512216568,,,
313.0000000000,39,8.2486600876,,,
313.2500000000,39,8.2550640106,,,
313.5000000000,39,8.2499408722,,,
313.7500000000,39,8.2704334259,,,
314.0000000000,39,8.2742757797,,,
314.2500000000,39,8.2845220566,,,
314.5000000000,39,8.3178224564,,,
314.7500000000,39,8.3626508713,,,
315.0000000000,39,8.4228477478,,,
315.2500000000,39,8.4548673630,,,
315.5000000000,39,8.4766407013,,,
315.7500000000,39,8.4804830551,,,
316.0000000000,39,8.4638328552,,,
316.2500000000,39,8.4471826553,,,
316.5000000000,39,8.4241285324,,,
316.7500000000,39,8.4049167633,,,
317.0000000000,39,8.3793010712,,,
317.2500000000,39,8.3639316559,,,
317.5000000000,39,8.3472814560,,,
317.7500000000,39,8.3293504715,,,
318.0000000000,39,8.3191032410,,,
318.2500000000,39,8.3024530411,,,
318.5000000000,39,8.2973299026,,,
318.7500000000,39,8.2806797028,,,
319.0000000000,39,8.2704334259,,,
319.2500000000,39,8.2832412720,,,
319.5000000000,39,8.2832412720,,,
319.7500000000,39,8.2832412720,,,
320.0000000000,40,8.2832412720,,,
320.2500000000,40,8.2576255798,,,
320.5000000000,40,8.2742757797,,,
320.7500000000,40,8.2793989182,,,
321.0000000000,40,8.3472814560,,,
321.2500000000,40,8.4574289322,,,
321.5000000000,40,8.5829467773,,,
321.7500000000,40,8.6956558228,,,
322.0000000000,40,8.7417650223,,,
322.2500000000,40,8.7801885605,,,
322.5000000000,40,8.7763462067,,,
322.7500000000,40,8.7340803146,,,
323.0000000000,40,8.6841287613,,,
323.2500000000,40,8.6149663925,,,
323.5000000000,40,8.5547704697,,,
323.7500000000,40,8.5086603165,,,
324.0000000000,40,8.5022563934,,,
324.2500000000,40,8.5534887314,,,
324.5000000000,40,8.6533899307,,,
324.7500000000,40,8.7366418839,,,
325.0000000000,40,8.7814693451,,,
325.2500000000,40,8.7904348373,,,
325.5000000000,40,8.7596960068,,,
325.7500000000,40,8.6982173920,,,
326.0000000000,40,8.6431436539,,,
326.2500000000,40,8.6085624695,,,
326.5000000000,40,8.6726016998,,,
326.7500000000,40,8.8058042526,,,
327.0000000000,40,8.8890552521,,,
327.2500000000,40,8.9415683746,,,
327.5000000000,40,8.9952650070,,,
327.7500000000,40,8.9952650070,,,
328.0000000000,41,8.9235410690,,,
328.2500000000,41,8.8377275467,,,
328.5000000000,41,8.7544765472,,,
328.7500000000,41,8.6789093018,,,
329.0000000000,41,8.6532936096,,,
329.2500000000,41,8.6084661484,,,
329.5000000000,41,8.5815696716,,,
329.7500000000,41,8.5674810410,,,
330.0000000000,41,8.5431461334,,,
330.2500000000,41,8.5303373337,,,
330.5000000000,41,8.5085639954,,,
330.7500000000,41,8.5072832108,,,
331.0000000000,41,8.4944753647,,,
331.2500000000,41,8.4867906570,,,
331.5000000000,41,8.4867906570,,,
331.7500000000,41,8.4714212418,,,
332.0000000000,41,8.4662981033,,,
332.2500000000,41,8.4522094727,,,
332.5000000000,41,8.4329977036,,,
332.7500000000,41,8.4241285324,,,
333.0000000000,41,8.5265913010,,,
333.2500000000,41,8.4471826553,,,
333.5000000000,41,8.4202861786,,,
333.7500000000,41,8.4318132401,,,
334.0000000000,41,8.5009756088,,,
334.2500000000,41,8.5791044235,,,
334.5000000000,41,8.6700401306,,,
334.7500000000,41,8.7327995300,,,
335.0000000000,41,8.7776269913,,,
335.2500000000,41,8.7814693451,,,
335.5000000000,41,8.7596960068,,,
335.7500000000,41,8.7430458069,,,
336.0000000000,42,8.7520112991,,,
336.2500000000,42,8.7840309143,,,
336.5000000000,42,8.8122081757,,,
336.7500000000,42,8.8198928833,,,
337.0000000000,42,8.8109273911,,,
337.2500000000,42,8.7827501297,,,
337.5000000000,42,8.7443265915,,,
337.7500000000,42,8.6956558228,,,
338.0000000000,42,8.6610746384,,,
338.2500000000,42,8.6393013000,,,
338.5000000000,42,8.6149663925,,,
338.7500000000,42,8.5919122696,,,
339.0000000000,42,8.5560503006,,,
339.2500000000,42,8.5342760086,,,
339.5000000000,42,8.5522079468,,,
339.7500000000,42,8.5995969772,,,
340.0000000000,42,8.6802864075,,,
340.2500000000,42,8.7379226685,,,
340.5000000000,42,8.7853116989,,,
340.7500000000,42,8.7878732681,,,
341.0000000000,42,8.7596960068,,,
341.2500000000,42,8.7238330841,,,
341.5000000000,42,8.6854095459,,,
341.7500000000,42,8.6495475769,,,
342.0000000000,42,8.6136856079,,,
342.2500000000,42,8.5842275620,,,
342.5000000000,42,8.5675773621,,,
342.7500000000,42,8.5393991470,,,
343.0000000000,42,8.5265913010,,,
343.2500000000,42,8.5125026703,,,
343.5000000000,42,8.5137834549,,,
343.7500000000,42,8.5073795319,,,
