Time:4Hz,Epoch,Channel 1,Event Id,Event Date,Event Duration
0.0000000000,0,1.6667430401,,,
0.2500000000,0,1.6616200209,,,
0.5000000000,0,1.6629010439,,,
0.7500000000,0,1.8127349615,,,
1.0000000000,0,1.6744270325,,,
1.2500000000,0,1.3901250362,,,
1.5000000000,0,1.3143680096,,,
1.7500000000,0,1.3194910288,,,
2.0000000000,0,1.3015619516,,,
2.2500000000,0,1.2772300243,,,
2.5000000000,0,1.2503370047,,,
2.7500000000,0,1.3246140480,,,
3.0000000000,0,1.4232230186,,,
3.2500000000,0,1.4219419956,,,
3.5000000000,0,1.4488350153,,,
3.7500000000,0,1.4744479656,,,
4.0000000000,0,1.4488350153,,,
4.2500000000,0,1.4693260193,,,
4.5000000000,0,1.4731669426,,,
4.7500000000,0,1.4795709848,,,
5.0000000000,0,1.4859739542,,,
5.2500000000,0,1.4859739542,,,
5.5000000000,0,1.4821319580,,,
5.7500000000,0,1.4885350466,,,
6.0000000000,0,1.4885350466,,,
6.2500000000,0,1.4898159504,,,
6.5000000000,0,1.4910960197,,,
6.7500000000,0,1.4923770428,,,
7.0000000000,0,1.4782899618,,,
7.2500000000,0,1.4770090580,,,
7.5000000000,0,1.4898159504,,,
7.7500000000,0,1.4846930504,,,
8.0000000000,1,1.4949380159,,,
8.2500000000,1,1.4949380159,,,
8.5000000000,1,1.4923770428,,,
8.7500000000,1,1.4898159504,,,
9.0000000000,1,1.5077450275,,,
9.2500000000,1,1.5077450275,,,
9.5000000000,1,1.5039030313,,,
9.7500000000,1,1.5333570242,,,
10.0000000000,1,1.5371990204,,,
10.2500000000,1,1.5410410166,,,
10.5000000000,1,1.5410410166,,,
10.7500000000,1,1.5410410166,,,
11.0000000000,1,1.5487250090,,,
11.2500000000,1,1.5935469866,,,
11.5000000000,1,1.5461640358,,,
11.7500000000,1,1.4283449650,,,
12.0000000000,1,1.3604710102,,,
12.2500000000,1,1.3361389637,,,
12.5000000000,1,1.3374199867,,,
12.7500000000,1,1.3297359943,,,
13.0000000000,1,1.3335779905,,,
13.2500000000,1,1.4078550339,,,
13.5000000000,1,1.3668750525,,,
13.7500000000,1,1.3963290453,,,
14.0000000000,1,1.4040130377,,,
14.2500000000,1,1.4424320459,,,
14.5000000000,1,1.5000610352,,,
14.7500000000,1,1.5103060007,,,
15.0000000000,1,1.5282349586,,,
15.2500000000,1,1.5051829815,,,
15.5000000000,1,1.4155390263,,,
15.7500000000,1,1.4437129498,,,
16.0000000000,2,1.5359189510,,,
16.2500000000,2,1.6089149714,,,
16.5000000000,2,1.6217210293,,,
16.7500000000,2,1.6319659948,,,
17.0000000000,2,1.6396499872,,,
17.2500000000,2,1.6588599682,,,
17.5000000000,2,1.6678240299,,,
17.7500000000,2,1.6780689955,,,
18.0000000000,2,1.6895949841,,,
18.2500000000,2,1.7011209726,,,
18.5000000000,2,1.7139270306,,,
18.7500000000,2,1.7164880037,,,
19.0000000000,2,1.7280139923,,,
19.2500000000,2,1.7459429502,,,
19.5000000000,2,1.7574690580,,,
19.7500000000,2,1.7715560198,,,
20.0000000000,2,1.7830820084,,,
20.2500000000,2,1.7843619585,,,
20.5000000000,2,1.7882039547,,,
20.7500000000,2,1.8086940050,,,
21.0000000000,2,1.8150980473,,,
21.2500000000,2,1.8189389706,,,
21.5000000000,2,1.8253430128,,,
21.7500000000,2,1.8381489515,,,
22.0000000000,2,1.8483940363,,,
22.2500000000,2,1.8483940363,,,
22.5000000000,2,1.8535170555,,,
22.7500000000,2,1.8522360325,,,
23.0000000000,2,1.8573590517,,,
23.2500000000,2,1.8535170555,,,
23.5000000000,2,1.8509550095,,,
23.7500000000,2,1.8483940363,,,
24.0000000000,3,1.8547970057,,,
24.2500000000,3,1.8547970057,,,
24.5000000000,3,1.8522360325,,,
24.7500000000,3,1.8586390018,,,
25.0000000000,3,1.8586390018,,,
25.2500000000,3,1.8637620211,,,
25.5000000000,3,1.8599200249,,,
25.7500000000,3,1.8624809980,,,
26.0000000000,3,1.8624809980,,,
26.2500000000,3,1.8637620211,,,
26.5000000000,3,1.8650419712,,,
26.7500000000,3,1.8714460135,,,
27.0000000000,3,1.8727259636,,,
27.2500000000,3,1.8740069866,,,
27.5000000000,3,1.8752870560,,,
27.7500000000,3,1.8829710484,,,
28.0000000000,3,1.8804099560,,,
28.2500000000,3,1.8804099560,,,
28.5000000000,3,1.8829710484,,,
28.7500000000,3,1.8855329752,,,
29.0000000000,3,1.8855329752,,,
29.2500000000,3,1.8855329752,,,
29.5000000000,3,1.8906550407,,,
29.7500000000,3,1.8893740177,,,
30.0000000000,3,1.8893740177,,,
30.2500000000,3,1.8868130445,,,
30.5000000000,3,1.8842519522,,,
30.7500000000,3,1.8842519522,,,
31.0000000000,3,1.8804099560,,,
31.2500000000,3,1.8842519522,,,
31.5000000000,3,1.8829710484,,,
31.7500000000,3,1.8740069866,,,
32.0000000000,4,1.5884250402,,,
32.2500000000,4,1.4424320459,,,
32.5000000000,4,1.4180999994,,,
32.7500000000,4,1.4001710415,,,
33.0000000000,4,1.4078550339,,,
33.2500000000,4,1.4603610039,,,
33.5000000000,4,1.4821319580,,,
33.7500000000,4,1.4846930504,,,
34.0000000000,4,1.5192699432,,,
34.2500000000,4,1.5000610352,,,
34.5000000000,4,1.4962190390,,,
34.7500000000,4,1.4898159504,,,
35.0000000000,4,1.4859739542,,,
35.2500000000,4,1.5141479969,,,
35.5000000000,4,1.5282349586,,,
35.7500000000,4,1.5371990204,,,
36.0000000000,4,1.5423220396,,,
36.2500000000,4,1.5461640358,,,
36.5000000000,4,1.5500060320,,,
36.7500000000,4,1.6562989950,,,
37.0000000000,4,1.5820219517,,,
37.2500000000,4,1.5512859821,,,
37.5000000000,4,1.5448830128,,,
37.7500000000,4,1.6012309790,,,
38.0000000000,4,1.4706059694,,,
38.2500000000,4,1.4040130377,,,
38.5000000000,4,1.4052939415,,,
38.7500000000,4,1.4078550339,,,
39.0000000000,4,1.3963290453,,,
39.2500000000,4,1.3937679529,,,
39.5000000000,4,1.3899259567,,,
39.7500000000,4,1.3873649836,,,
40.0000000000,5,1.3719969988,,,
40.2500000000,5,1.3553489447,,,
40.5000000000,5,1.3502260447,,,
40.7500000000,5,1.3412619829,,,
41.0000000000,5,1.3143680096,,,
41.2500000000,5,1.3271750212,,,
41.5000000000,5,1.3476649523,,,
41.7500000000,5,1.3668750525,,,
42.0000000000,5,1.3719969988,,,
42.2500000000,5,1.3591909409,,,
42.5000000000,5,1.3335779905,,,
42.7500000000,5,1.3348590136,,,
43.0000000000,5,1.3297359943,,,
43.2500000000,5,1.3476649523,,,
43.5000000000,5,1.3425420523,,,
43.7500000000,5,1.3387010098,,,
44.0000000000,5,1.3284549713,,,
44.2500000000,5,1.3348590136,,,
44.5000000000,5,1.3399809599,,,
44.7500000000,5,1.3361389637,,,
45.0000000000,5,1.3297359943,,,
45.2500000000,5,1.3207720518,,,
45.5000000000,5,1.3246140480,,,
45.7500000000,5,1.3246140480,,,
46.0000000000,5,1.3220520020,,,
46.2500000000,5,1.3143680096,,,
46.5000000000,5,1.3143680096,,,
46.7500000000,5,1.3156490326,,,
47.0000000000,5,1.3335779905,,,
47.2500000000,5,1.3617520332,,,
47.5000000000,5,1.4116970301,,,
47.7500000000,5,1.4552379847,,,
48.0000000000,6,1.4898159504,,,
48.2500000000,6,1.5026220083,,,
48.5000000000,6,1.4846930504,,,
48.7500000000,6,1.4744479656,,,
49.0000000000,6,1.4590799809,,,
49.2500000000,6,1.4424320459,,,
49.5000000000,6,1.4360289574,,,
49.7500000000,6,1.4309060574,,,
50.0000000000,6,1.4309060574,,,
50.2500000000,6,1.4206609726,,,
50.5000000000,6,1.4411510229,,,
50.7500000000,6,1.4193810225,,,
51.0000000000,6,1.4680449963,,,
51.2500000000,6,1.4014519453,,,
51.5000000000,6,1.3796809912,,,
51.7500000000,6,1.3412619829,,,
52.0000000000,6,1.3335779905,,,
52.2500000000,6,1.3258939981,,,
52.5000000000,6,1.3438229561,,,
52.7500000000,6,1.4424320459,,,
53.0000000000,6,1.5410410166,,,
53.2500000000,6,1.5448830128,,,
53.5000000000,6,1.5256739855,,,
53.7500000000,6,1.6396499872,,,
54.0000000000,6,1.6153179407,,,
54.2500000000,6,1.6063539982,,,
54.5000000000,6,1.5922670364,,,
54.7500000000,6,1.5948280096,,,
55.0000000000,6,1.6153179407,,,
55.2500000000,6,1.6230020523,,,
55.5000000000,6,1.6230020523,,,
55.7500000000,6,1.6230020523,,,
56.0000000000,7,1.6306860447,,,
56.2500000000,7,1.6101959944,,,
56.5000000000,7,1.5781799555,,,
56.7500000000,7,1.6268440485,,,
57.0000000000,7,1.6652630568,,,
57.2500000000,7,1.6614209414,,,
57.5000000000,7,1.6370890141,,,
57.7500000000,7,1.6178790331,,,
58.0000000000,7,1.6575789452,,,
58.2500000000,7,1.6460529566,,,
58.5000000000,7,1.6422120333,,,
58.7500000000,7,1.6447730064,,,
59.0000000000,7,1.6409310102,,,
59.2500000000,7,1.6447730064,,,
59.5000000000,7,1.6575789452,,,
59.7500000000,7,1.6652630568,,,
60.0000000000,7,1.6678240299,,,
60.2500000000,7,1.6780689955,,,
60.5000000000,7,1.6806310415,,,
60.7500000000,7,1.6857529879,,,
61.0000000000,7,1.6883139610,,,
61.2500000000,7,1.6844730377,,,
61.5000000000,7,1.6831920147,,,
61.7500000000,7,1.6819109917,,,
62.0000000000,7,1.6806310415,,,
62.2500000000,7,1.6793500185,,,
62.5000000000,7,1.6780689955,,,
62.7500000000,7,1.6870340109,,,
63.0000000000,7,1.6870340109,,,
63.2500000000,7,1.6959979534,,,
63.5000000000,7,1.6959979534,,,
63.7500000000,7,1.6985599995,,,
64.0000000000,8,1.7126469612,,,
64.2500000000,8,1.7485040426,,,
64.5000000000,8,1.7856429815,,,
64.7500000000,8,1.8176590204,,,
65.0000000000,8,1.8112560511,,,
65.2500000000,8,1.8061330318,,,
65.5000000000,8,1.7933269739,,,
65.7500000000,8,1.7869240046,,,
66.0000000000,8,1.7818009853,,,
66.2500000000,8,1.7830820084,,,
66.5000000000,8,1.7830820084,,,
66.7500000000,8,1.7830820084,,,
67.0000000000,8,1.7779589891,,,
67.2500000000,8,1.7753980160,,,
67.5000000000,8,1.7638720274,,,
67.7500000000,8,1.7549079657,,,
68.0000000000,8,1.7485040426,33025,68.1562500000,0.0000000000
68.2500000000,8,1.7408210039,33024,68.4062500000,0.0000000000
68.5000000000,8,1.7331370115,,,
68.7500000000,8,1.7241719961,,,
69.0000000000,8,1.7190500498,,,
69.2500000000,8,1.7011209726,,,
69.5000000000,8,1.6985599995,,,
69.7500000000,8,1.7088049650,,,
70.0000000000,8,1.7024019957,,,
70.2500000000,8,1.6947180033,,,
70.5000000000,8,1.6921559572,,,
70.7500000000,8,1.6934369802,,,
71.0000000000,8,1.6844730377,,,
71.2500000000,8,1.6806310415,,,
71.5000000000,8,1.6767890453,,,
71.7500000000,8,1.6716660261,,,
72.0000000000,9,1.6614209414,,,
72.2500000000,9,1.6562989950,,,
72.5000000000,9,1.6588599682,,,
72.7500000000,9,1.6562989950,,,
73.0000000000,9,1.6537369490,,,
73.2500000000,9,1.6486150026,,,
73.5000000000,9,1.6447730064,,,
73.7500000000,9,1.6447730064,,,
74.0000000000,9,1.6409310102,,,
74.2500000000,9,1.6358079910,,,
74.5000000000,9,1.6370890141,,,
74.7500000000,9,1.6255630255,,,
75.0000000000,9,1.6319659948,,,
75.2500000000,9,1.6306860447,,,
75.5000000000,9,1.6268440485,,,
75.7500000000,9,1.6140379906,,,
76.0000000000,9,1.6076339483,,,
76.2500000000,9,1.6076339483,,,
76.5000000000,9,1.6063539982,,,
76.7500000000,9,1.5999510288,,,
77.0000000000,9,1.5973889828,,,
77.2500000000,9,1.5897049904,,,
77.5000000000,9,1.5794600248,,,
77.7500000000,9,1.5538480282,,,
78.0000000000,9,1.5717769861,,,
78.2500000000,9,1.5935469866,,,
78.5000000000,9,1.5922670364,,,
78.7500000000,9,1.6165989637,,,
79.0000000000,9,1.6422120333,,,
79.2500000000,9,1.6537369490,,,
79.5000000000,9,1.6345280409,,,
79.7500000000,9,1.6332470179,,,
80.0000000000,10,1.6063539982,,,
80.2500000000,10,1.6050729752,,,
80.5000000000,10,1.6089149714,,,
80.7500000000,10,1.6050729752,,,
81.0000000000,10,1.6063539982,,,
81.2500000000,10,1.6012309790,,,
81.5000000000,10,1.6127569675,,,
81.7500000000,10,1.6114759445,,,
82.0000000000,10,1.6153179407,,,
82.2500000000,10,1.6178790331,,,
82.5000000000,10,1.6165989637,,,
82.7500000000,10,1.6153179407,,,
83.0000000000,10,1.6140379906,,,
83.2500000000,10,1.6140379906,,,
83.5000000000,10,1.6114759445,,,
83.7500000000,10,1.6114759445,,,
84.0000000000,10,1.6127569675,,,
84.2500000000,10,1.6101959944,,,
84.5000000000,10,1.6114759445,,,
84.7500000000,10,1.6076339483,,,
85.0000000000,10,1.6076339483,,,
85.2500000000,10,1.6089149714,,,
85.5000000000,10,1.6063539982,,,
85.7500000000,10,1.6050729752,,,
86.0000000000,10,1.6037919521,,,
86.2500000000,10,1.6050729752,,,
86.5000000000,10,1.6037919521,,,
86.7500000000,10,1.5986700058,,,
87.0000000000,10,1.6037919521,,,
87.2500000000,10,1.6012309790,,,
87.5000000000,10,1.5999510288,,,
87.7500000000,10,1.5948280096,,,
88.0000000000,11,1.5935469866,,,
88.2500000000,11,1.5909860134,,,
88.5000000000,11,1.5884250402,,,
88.7500000000,11,1.5922670364,,,
89.0000000000,11,1.5922670364,,,
89.2500000000,11,1.5935469866,,,
89.5000000000,11,1.5897049904,,,
89.7500000000,11,1.5833020210,,,
90.0000000000,11,1.5909860134,,,
90.2500000000,11,1.5833020210,,,
90.5000000000,11,1.5871440172,,,
90.7500000000,11,1.5820219517,,,
91.0000000000,11,1.5807410479,,,
91.2500000000,11,1.5871440172,,,
91.5000000000,11,1.5909860134,,,
91.7500000000,11,1.6025120020,,,
92.0000000000,11,1.6063539982,,,
92.2500000000,11,1.6089149714,,,
92.5000000000,11,1.6037919521,,,
92.7500000000,11,1.6063539982,,,
93.0000000000,11,1.6050729752,,,
93.2500000000,11,1.5999510288,,,
93.5000000000,11,1.5973889828,,,
93.7500000000,11,1.5909860134,,,
94.0000000000,11,1.5909860134,,,
94.2500000000,11,1.5871440172,,,
94.5000000000,11,1.5845830441,,,
94.7500000000,11,1.5845830441,,,
95.0000000000,11,1.5794600248,,,
95.2500000000,11,1.5781799555,,,
95.5000000000,11,1.5781799555,,,
95.7500000000,11,1.5717769861,,,
96.0000000000,12,1.5768990517,,,
96.2500000000,12,1.5692150593,,,
96.5000000000,12,1.5717769861,,,
96.7500000000,12,1.5653729439,,,
97.0000000000,12,1.5679349899,,,
97.2500000000,12,1.5666539669,,,
97.5000000000,12,1.5640929937,,,
97.7500000000,12,1.5628119707,,,
98.0000000000,12,1.5564090014,,,
98.2500000000,12,1.5551279783,,,
98.5000000000,12,1.5525670052,,,
98.7500000000,12,1.5512859821,,,
99.0000000000,12,1.5525670052,,,
99.2500000000,12,1.5487250090,,,
99.5000000000,12,1.5487250090,,,
99.7500000000,12,1.5512859821,,,
100.0000000000,12,1.5461640358,,,
100.2500000000,12,1.5436019897,,,
100.5000000000,12,1.5410410166,,,
100.7500000000,12,1.5436019897,,,
101.0000000000,12,1.5359189510,,,
101.2500000000,12,1.5371990204,,,
101.5000000000,12,1.5371990204,,,
101.7500000000,12,1.5333570242,,,
102.0000000000,12,1.5320769548,,,
102.2500000000,12,1.5307960510,,,
102.5000000000,12,1.5295159817,,,
102.7500000000,12,1.5333570242,,,
103.0000000000,12,1.5295159817,,,
103.2500000000,12,1.5282349586,,,
103.5000000000,12,1.5231120586,,,
103.7500000000,12,1.5231120586,,,
104.0000000000,13,1.5205509663,,,
104.2500000000,13,1.5218319893,,,
104.5000000000,13,1.5205509663,,,
104.7500000000,13,1.5218319893,,,
105.0000000000,13,1.5192699432,,,
105.2500000000,13,1.5154279470,,,
105.5000000000,13,1.5154279470,,,
105.7500000000,13,1.5128669739,,,
106.0000000000,13,1.5141479969,,,
106.2500000000,13,1.5115870237,,,
106.5000000000,13,1.5103060007,,,
106.7500000000,13,1.5077450275,,,
107.0000000000,13,1.5103060007,,,
107.2500000000,13,1.5039030313,,,
107.5000000000,13,1.5090249777,,,
107.7500000000,13,1.5039030313,,,
108.0000000000,13,1.5077450275,,,
108.2500000000,13,1.5064640045,,,
108.5000000000,13,1.5026220083,,,
108.7500000000,13,1.5026220083,,,
109.0000000000,13,1.4949380159,,,
109.2500000000,13,1.5051829815,,,
109.5000000000,13,1.4974999428,,,
109.7500000000,13,1.4962190390,,,
110.0000000000,13,1.5000610352,,,
110.2500000000,13,1.4962190390,,,
110.5000000000,13,1.4936579466,,,
110.7500000000,13,1.4885350466,,,
111.0000000000,13,1.4872540236,,,
111.2500000000,13,1.4885350466,,,
111.5000000000,13,1.4872540236,,,
111.7500000000,13,1.4846930504,,,
112.0000000000,14,1.4821319580,,,
112.2500000000,14,1.4808510542,,,
112.5000000000,14,1.4859739542,,,
112.7500000000,14,1.4795709848,,,
113.0000000000,14,1.4859739542,,,
113.2500000000,14,1.4808510542,,,
113.5000000000,14,1.4808510542,,,
113.7500000000,14,1.4770090580,,,
114.0000000000,14,1.4782899618,,,
114.2500000000,14,1.4795709848,,,
114.5000000000,14,1.4731669426,,,
114.7500000000,14,1.4770090580,,,
115.0000000000,14,1.4731669426,,,
115.2500000000,14,1.4782899618,,,
115.5000000000,14,1.4757289886,,,
115.7500000000,14,1.4744479656,,,
116.0000000000,14,1.4744479656,,,
116.2500000000,14,1.4718869925,,,
116.5000000000,14,1.4731669426,,,
116.7500000000,14,1.4693260193,,,
117.0000000000,14,1.4718869925,,,
117.2500000000,14,1.4680449963,,,
117.5000000000,14,1.4667639732,,,
117.7500000000,14,1.4706059694,,,
118.0000000000,14,1.4667639732,,,
118.2500000000,14,1.4706059694,,,
118.5000000000,14,1.4654840231,,,
118.7500000000,14,1.4667639732,,,
119.0000000000,14,1.4706059694,,,
119.2500000000,14,1.4667639732,,,
119.5000000000,14,1.4680449963,,,
119.7500000000,14,1.4654840231,,,
120.0000000000,15,1.4642030001,,,
120.2500000000,15,1.4642030001,,,
120.5000000000,15,1.4616420269,,,
120.7500000000,15,1.4667639732,,,
121.0000000000,15,1.4603610039,,,
121.2500000000,15,1.4616420269,,,
121.5000000000,15,1.4629219770,,,
121.7500000000,15,1.4603610039,,,
122.0000000000,15,1.4603610039,,,
122.2500000000,15,1.4603610039,,,
122.5000000000,15,1.4590799809,,,
122.7500000000,15,1.4565190077,,,
123.0000000000,15,1.4552379847,,,
123.2500000000,15,1.4616420269,,,
123.5000000000,15,1.4578000307,,,
123.7500000000,15,1.4603610039,,,
124.0000000000,15,1.4565190077,,,
124.2500000000,15,1.4539580345,,,
124.5000000000,15,1.4578000307,,,
124.7500000000,15,1.4552379847,,,
125.0000000000,15,1.4616420269,,,
125.2500000000,15,1.4565190077,,,
125.5000000000,15,1.4552379847,,,
125.7500000000,15,1.4565190077,,,
126.0000000000,15,1.4539580345,,,
126.2500000000,15,1.4578000307,,,
126.5000000000,15,1.4513969421,,,
126.7500000000,15,1.4501160383,,,
127.0000000000,15,1.4526770115,,,
127.2500000000,15,1.4501160383,,,
127.5000000000,15,1.4501160383,,,
127.7500000000,15,1.4462740421,,,
128.0000000000,16,1.4462740421,,,
128.2500000000,16,1.4449930191,,,
128.5000000000,16,1.4437129498,,,
128.7500000000,16,1.4475549459,,,
129.0000000000,16,1.4424320459,,,
129.2500000000,16,1.4437129498,,,
129.5000000000,16,1.4424320459,,,
129.7500000000,16,1.4411510229,,,
130.0000000000,16,1.4424320459,,,
130.2500000000,16,1.4385900497,,,
130.5000000000,16,1.4373099804,,,
130.7500000000,16,1.4373099804,,,
131.0000000000,16,1.4321869612,,,
131.2500000000,16,1.4347480536,,,
131.5000000000,16,1.4334679842,,,
131.7500000000,16,1.4309060574,,,
132.0000000000,16,1.4334679842,,,
132.2500000000,16,1.4283449650,,,
132.5000000000,16,1.4283449650,,,
132.7500000000,16,1.4347480536,,,
133.0000000000,16,1.4437129498,,,
133.2500000000,16,1.4552379847,,,
133.5000000000,16,1.4603610039,,,
133.7500000000,16,1.4629219770,,,
134.0000000000,16,1.4616420269,,,
134.2500000000,16,1.4590799809,,,
134.5000000000,16,1.4629219770,,,
134.7500000000,16,1.4552379847,,,
135.0000000000,16,1.4539580345,,,
135.2500000000,16,1.4513969421,,,
135.5000000000,16,1.4501160383,,,
135.7500000000,16,1.4526770115,,,
136.0000000000,17,1.4488350153,,,
136.2500000000,17,1.4539580345,,,
136.5000000000,17,1.4437129498,,,
136.7500000000,17,1.4449930191,,,
137.0000000000,17,1.4437129498,,,
137.2500000000,17,1.4424320459,,,
137.5000000000,17,1.4437129498,,,
137.7500000000,17,1.4462740421,,,
138.0000000000,17,1.4488350153,,,
138.2500000000,17,1.4578000307,,,
138.5000000000,17,1.4974999428,,,
138.7500000000,17,1.6306860447,,,
139.0000000000,17,1.8215010166,,,
139.2500000000,17,1.9969480038,,,
139.5000000000,17,2.2622389793,,,
139.7500000000,17,2.4440889359,,,
140.0000000000,17,2.5540499687,,,
140.2500000000,17,2.8012130260,,,
140.5000000000,17,3.0803918839,,,
140.7500000000,17,3.6101799011,,,
141.0000000000,17,4.0573081970,,,
141.2500000000,17,4.5125370026,,,
141.5000000000,17,4.8690118790,,,
141.7500000000,17,5.1020879745,,,
142.0000000000,17,5.6010670662,,,
142.2500000000,17,6.0996499062,,,
142.5000000000,17,6.5986809731,,,
142.7500000000,17,7.0591988564,,,
143.0000000000,17,7.5823841095,,,
143.2500000000,17,7.8469557762,,,
143.5000000000,17,8.0313673019,,,
143.7500000000,17,8.2470006943,,,
144.0000000000,18,8.4032382965,,,
144.2500000000,18,8.4519023895,,,
144.5000000000,18,8.4448852539,,,
144.7500000000,18,8.3168210983,,,
145.0000000000,18,8.0799036026,,,
145.2500000000,18,7.7879190445,,,
145.5000000000,18,7.3031711578,,,
145.7500000000,18,7.6689472198,,,
146.0000000000,18,7.8559198380,,,
146.2500000000,18,8.0953998566,,,
146.5000000000,18,8.1842489243,,,
146.7500000000,18,8.2508420944,,,
147.0000000000,18,8.4365348816,,,
147.2500000000,18,8.6126489639,,,
147.5000000000,18,8.7227830887,,,
147.7500000000,18,8.8021831512,,,
148.0000000000,18,8.8495664597,,,
148.2500000000,18,8.9853143692,,,
148.5000000000,18,9.0454072952,,,
148.7500000000,18,8.8750829697,,,
149.0000000000,18,8.8533115387,,,
149.2500000000,18,8.7828769684,,,
149.5000000000,18,8.5254688263,,,
149.7500000000,18,8.6753034592,,,
150.0000000000,18,8.2872705460,,,
150.2500000000,18,8.1593027115,,,
150.5000000000,18,8.0414848328,,,
150.7500000000,18,7.9147009850,,,
151.0000000000,18,7.8295130730,,,
151.2500000000,18,7.7270622253,,,
151.5000000000,18,7.6271719933,,,
151.7500000000,18,7.5541749001,,,
152.0000000000,19,7.4978280067,,,
152.2500000000,19,7.3889732361,,,
152.5000000000,19,7.3564720154,,,
152.7500000000,19,7.2860369682,,,
153.0000000000,19,7.1759018898,,,
153.2500000000,19,7.0926599503,,,
153.5000000000,19,6.9991741180,,,
153.7500000000,19,6.9607548714,,,
154.0000000000,19,6.9761228561,,,
154.2500000000,19,6.9607548714,,,
154.5000000000,19,6.9325809479,,,
154.7500000000,19,6.8677878380,,,
155.0000000000,19,6.8114399910,,,
155.2500000000,19,6.7858271599,,,
155.5000000000,19,6.9292588234,,,
155.7500000000,19,6.7474079132,,,
156.0000000000,19,6.7422862053,,,
156.2500000000,19,6.5911698341,,,
156.5000000000,19,6.6808152199,,,
156.7500000000,19,6.6347122192,,,
157.0000000000,19,6.6167831421,,,
157.2500000000,19,6.6667280197,,,
157.5000000000,19,6.5578742027,,,
157.7500000000,19,6.3965129852,,,
158.0000000000,19,6.6007299423,,,
158.2500000000,19,6.4329671860,,,
158.5000000000,19,6.4598598480,,,
158.7500000000,19,6.4444928169,,,
159.0000000000,19,6.4047927856,,,
159.2500000000,19,6.3791799545,,,
159.5000000000,19,6.3535680771,,,
159.7500000000,19,6.3561291695,,,
160.0000000000,20,6.4214420319,,,
160.2500000000,20,6.5213308334,,,
160.5000000000,20,6.5892047882,,,
160.7500000000,20,6.6109762192,,,
161.0000000000,20,6.6506748199,,,
161.2500000000,20,6.7031822205,,,
161.5000000000,20,6.8120360374,,,
161.7500000000,20,6.9221711159,,,
162.0000000000,20,6.9580278397,,,
162.2500000000,20,6.9689579010,,,
162.5000000000,20,6.9484682083,,,
162.7500000000,20,6.9087691307,,,
163.0000000000,20,6.8511400223,,,
163.2500000000,20,6.7960720062,,,
163.5000000000,20,6.7563719749,,,
163.7500000000,20,6.7550921440,,,
164.0000000000,20,6.7845468521,,,
164.2500000000,20,6.7960720062,,,
164.5000000000,20,6.8140010834,,,
164.7500000000,20,6.8075981140,,,
165.0000000000,20,6.7819848061,,,
165.2500000000,20,6.7256369591,,,
165.5000000000,20,6.6372728348,,,
165.7500000000,20,6.5898900032,,,
166.0000000000,20,6.5412249565,,,
166.2500000000,20,6.5693998337,,,
166.5000000000,20,6.5553131104,,,
166.7500000000,20,6.5309810638,,,
167.0000000000,20,6.5104899406,,,
167.2500000000,20,6.3773040771,,,
167.5000000000,20,6.3253941536,,,
167.7500000000,20,6.4214420319,,,
168.0000000000,21,6.3727769852,,,
168.2500000000,21,6.4047927856,,,
168.5000000000,21,6.3689351082,,,
168.7500000000,21,6.3305158615,,,
169.0000000000,21,6.3510069847,,,
169.2500000000,21,6.3113059998,,,
169.5000000000,21,6.2780098915,,,
169.7500000000,21,6.2780098915,,,
170.0000000000,21,6.2498359680,,,
170.2500000000,21,6.2370300293,,,
170.5000000000,21,6.2229428291,,,
170.7500000000,21,6.2075748444,,,
171.0000000000,21,6.1858038902,,,
171.2500000000,21,6.1691560745,,,
171.5000000000,21,6.1486659050,,,
171.7500000000,21,6.1243329048,,,
172.0000000000,21,6.1179299355,,,
172.2500000000,21,6.1076850891,,,
172.5000000000,21,6.0923180580,,,
172.7500000000,21,6.0846338272,,,
173.0000000000,21,6.0782308578,33025,173.0937500000,0.0000000000
173.2500000000,21,6.0590209961,33024,173.2500000000,0.0000000000
173.5000000000,21,6.0487761497,,,
173.7500000000,21,6.0385308266,,,
174.0000000000,21,6.0334081650,,,
174.2500000000,21,6.0103569031,,,
174.5000000000,21,5.9885859489,,,
174.7500000000,21,5.9693770409,,,
175.0000000000,21,5.9424829483,,,
175.2500000000,21,5.9481167793,,,
175.5000000000,21,5.9289078712,,,
175.7500000000,21,5.9186630249,,,
176.0000000000,22,5.9314689636,,,
176.2500000000,22,6.1261258125,,,
176.5000000000,22,6.5986809731,,,
176.7500000000,22,7.0976181030,,,
177.0000000000,22,7.5964698792,,,
177.2500000000,22,8.0953998566,,,
177.5000000000,22,8.5940532684,,,
177.7500000000,22,9.0928878784,,,
178.0000000000,22,9.5922393799,,,
178.2500000000,22,9.9955453873,,,
178.5000000000,22,10.0853204727,,,
178.7500000000,22,10.1160497665,,,
179.0000000000,22,10.1314201355,,,
179.2500000000,22,10.1941699982,,,
179.5000000000,22,10.2569198608,,,
179.7500000000,22,10.2389898300,,,
180.0000000000,22,10.1429500580,,,
180.2500000000,22,9.9956731796,,,
180.5000000000,22,9.8586435318,,,
180.7500000000,22,9.7651586533,,,
181.0000000000,22,9.7011260986,,,
181.2500000000,22,9.6345329285,,,
181.5000000000,22,9.5602560043,,,
181.7500000000,22,9.5167150497,,,
182.0000000000,22,9.5128726959,,,
182.2500000000,22,9.5461692810,,,
182.5000000000,22,9.5525722504,,,
182.7500000000,22,9.6883201599,,,
183.0000000000,22,9.9687795639,,,
183.2500000000,22,10.0776300430,,,
183.5000000000,22,10.0161600113,,,
183.7500000000,22,9.9175539017,,,
184.0000000000,23,9.8048582077,,,
184.2500000000,23,9.6960039139,,,
184.5000000000,23,9.5833082199,,,
184.7500000000,23,9.4718923569,,,
185.0000000000,23,9.3334560394,,,
185.2500000000,23,9.2130756378,,,
185.5000000000,23,9.1144666672,,,
185.7500000000,23,9.0401897430,,,
186.0000000000,23,9.0401897430,,,
186.2500000000,23,9.1477632523,,,
186.5000000000,23,9.3001594543,,,
186.7500000000,23,9.4077329636,,,
187.0000000000,23,9.4743261337,,,
187.2500000000,23,9.7509431839,,,
187.5000000000,23,10.1095199585,,,
187.7500000000,23,10.6078195572,,,
188.0000000000,23,10.9524202347,,,
188.2500000000,23,11.1240196228,,,
188.5000000000,23,11.5838499069,,,
188.7500000000,23,12.1043701172,,,
189.0000000000,23,12.6273097992,,,
189.2500000000,23,13.1288795471,,,
189.5000000000,23,13.6291999817,,,
189.7500000000,23,14.1304998398,,,
190.0000000000,23,14.4154796600,,,
190.2500000000,23,14.3847503662,,,
190.5000000000,23,14.2669296265,,,
190.7500000000,23,14.0850801468,,,
191.0000000000,23,13.9493303299,,,
191.2500000000,23,13.8148698807,,,
191.5000000000,23,13.7047300339,,,
191.7500000000,23,13.6343002319,,,
192.0000000000,24,13.5600204468,,,
192.2500000000,24,13.5318498611,,,
192.5000000000,24,13.5677003860,,,
192.7500000000,24,13.6061201096,,,
193.0000000000,24,13.5267200470,,,
193.2500000000,24,13.4127502441,,,
193.5000000000,24,13.2878398895,,,
193.7500000000,24,13.1508102417,,,
194.0000000000,24,13.0124998093,,,
194.2500000000,24,12.8805904388,,,
194.5000000000,24,12.7711801529,,,
194.7500000000,24,12.7161102295,,,
195.0000000000,24,12.9376602173,,,
195.2500000000,24,13.4844903946,,,
195.5000000000,24,13.6771497726,,,
195.7500000000,24,13.6028699875,,,
196.0000000000,24,13.6054296494,,,
196.2500000000,24,13.6489801407,,,
196.5000000000,24,13.6579399109,,,
196.7500000000,24,13.6067104340,,,
197.0000000000,24,13.5388402939,,,
197.2500000000,24,13.4402303696,,,
197.5000000000,24,13.3582696915,,,
197.7500000000,24,13.2839899063,,,
198.0000000000,24,13.2007503510,,,
198.2500000000,24,13.1392803192,,,
198.5000000000,24,13.1047000885,,,
198.7500000000,24,13.1085500717,,,
199.0000000000,24,13.0867795944,,,
199.2500000000,24,13.0624399185,,,
199.5000000000,24,13.0201797485,,,
199.7500000000,24,12.9907302856,,,
200.0000000000,25,12.9715204239,,,
200.2500000000,25,12.9171695709,,,
200.5000000000,25,12.8787498474,,,
200.7500000000,25,12.8159999847,,,
201.0000000000,25,12.7775802612,,,
201.2500000000,25,12.7775802612,,,
201.5000000000,25,12.8403301239,,,
201.7500000000,25,12.9299802780,,,
202.0000000000,25,13.0144996643,,,
202.2500000000,25,13.0631599426,,,
202.5000000000,25,13.0772495270,,,
202.7500000000,25,13.0234603882,,,
203.0000000000,25,12.9504699707,,,
203.2500000000,25,12.8659400940,,,
203.5000000000,25,12.8288097382,,,
203.7500000000,25,12.8211202621,,,
204.0000000000,25,12.8428897858,,,
204.2500000000,25,12.9338197708,,,
204.5000000000,25,13.0926198959,,,
204.7500000000,25,13.1566495895,,,
205.0000000000,25,13.1476802826,,,
205.2500000000,25,13.0759696960,,,
205.5000000000,25,13.0004100800,,,
205.7500000000,25,12.9069204330,,,
206.0000000000,25,12.8288097382,,,
206.2500000000,25,12.7506904602,,,
206.5000000000,25,12.7237901688,,,
206.7500000000,25,12.7237901688,,,
207.0000000000,25,12.7122697830,,,
207.2500000000,25,12.6956195831,,,
207.5000000000,25,12.6661701202,,,
207.7500000000,25,12.6443901062,,,
208.0000000000,26,12.6123800278,,,
208.2500000000,26,12.5739603043,,,
208.5000000000,26,12.5406599045,,,
208.7500000000,26,12.4945602417,,,
209.0000000000,26,12.4663896561,,,
209.2500000000,26,12.4667901993,,,
209.5000000000,26,12.4539899826,,,
209.7500000000,26,12.4488601685,,,
210.0000000000,26,12.4322204590,,,
210.2500000000,26,12.4232501984,,,
210.5000000000,26,12.3976402283,,,
210.7500000000,26,12.3617801666,,,
211.0000000000,26,12.3284797668,,,
211.2500000000,26,12.2964696884,,,
211.5000000000,26,12.2875003815,,,
211.7500000000,26,12.2734203339,,,
212.0000000000,26,12.2734203339,,,
212.2500000000,26,12.2708501816,,,
212.5000000000,26,12.2682895660,,,
212.7500000000,26,12.2529296875,,,
213.0000000000,26,12.2273101807,,,
213.2500000000,26,12.2209100723,,,
213.5000000000,26,12.1850500107,,,
213.7500000000,26,12.2093801498,,,
214.0000000000,26,12.3361701965,,,
214.2500000000,26,12.3733100891,,,
214.5000000000,26,12.2977504730,,,
214.7500000000,26,12.5077695847,,,
215.0000000000,26,12.8330497742,,,
215.2500000000,26,13.1288795471,,,
215.5000000000,26,13.6227998734,,,
215.7500000000,26,13.9140701294,,,
216.0000000000,27,13.9166297913,,,
216.2500000000,27,13.9960298538,,,
216.5000000000,27,13.9685401917,,,
216.7500000000,27,13.9275598526,,,
217.0000000000,27,13.9288396835,,,
217.2500000000,27,13.9967203140,,,
217.5000000000,27,13.9326801300,,,
217.7500000000,27,13.8916997910,,,
218.0000000000,27,13.8353595734,,,
218.2500000000,27,13.8020601273,,,
218.5000000000,27,13.6022796631,,,
218.7500000000,27,13.5126399994,,,
219.0000000000,27,13.4089002609,,,
219.2500000000,27,13.3569898605,,,
219.5000000000,27,13.3339395523,,,
219.7500000000,27,13.3301000595,,,
220.0000000000,27,13.3108901978,,,
220.2500000000,27,13.2839899063,,,
220.5000000000,27,13.2596597672,,,
220.7500000000,27,13.2199602127,,,
221.0000000000,27,13.1905097961,,,
221.2500000000,27,13.1418399811,,,
221.5000000000,27,13.1021404266,,,
221.7500000000,27,13.0393896103,,,
222.0000000000,27,13.0163402557,,,
222.2500000000,27,13.0124998093,,,
222.5000000000,27,13.0099401474,,,
222.7500000000,27,13.0253000259,,,
223.0000000000,27,12.9984102249,,,
223.2500000000,27,12.9945697784,,,
223.5000000000,27,12.9817600250,,,
223.7500000000,27,12.9466199875,,,
224.0000000000,28,12.8928403854,,,
224.2500000000,28,12.8646602631,,,
224.5000000000,28,12.8300895691,,,
224.7500000000,28,12.8211202621,,,
225.0000000000,28,12.8249597549,,,
225.2500000000,28,12.8121595383,,,
225.5000000000,28,12.8326501846,,,
225.7500000000,28,12.8787498474,,,
226.0000000000,28,12.9684000015,,,
226.2500000000,28,13.0670003891,,,
226.5000000000,28,13.1105499268,,,
226.7500000000,28,13.1259098053,,,
227.0000000000,28,13.0734100342,,,
227.2500000000,28,12.9991302490,,,
227.5000000000,28,12.9466199875,,,
227.7500000000,28,12.9235696793,,,
228.0000000000,28,12.8928403854,,,
228.2500000000,28,12.8749103546,,,
228.5000000000,28,12.8339300156,,,
228.7500000000,28,12.8236799240,,,
229.0000000000,28,12.7711801529,,,
229.2500000000,28,12.6879396439,,,
229.5000000000,28,12.6610403061,,,
229.7500000000,28,12.6059799194,,,
230.0000000000,28,12.5675601959,,,
230.2500000000,28,12.5278596878,,,
230.5000000000,28,12.5086498260,,,
230.7500000000,28,12.5291404724,,,
231.0000000000,28,12.5713996887,,,
231.2500000000,28,12.6008501053,,,
231.5000000000,28,12.5957298279,,,
231.7500000000,28,12.5867700577,,,
232.0000000000,29,12.5816402435,,,
232.2500000000,29,12.5765199661,,,
232.5000000000,29,12.5342597961,,,
232.7500000000,29,12.5137701035,,,
233.0000000000,29,12.4932804108,,,
233.2500000000,29,12.4638204575,,,
233.5000000000,29,12.4591102600,,,
233.7500000000,29,12.4424600601,,,
234.0000000000,29,12.4565496445,,,
234.2500000000,29,12.4527101517,,,
234.5000000000,29,12.4578304291,,,
234.7500000000,29,12.4488601685,,,
235.0000000000,29,12.4437398911,,,
235.2500000000,29,12.4270896912,,,
235.5000000000,29,12.4091596603,,,
235.7500000000,29,12.4014797211,,,
236.0000000000,29,12.3809900284,,,
236.2500000000,29,12.3758697510,,,
236.5000000000,29,12.3771495819,,,
236.7500000000,29,12.4014797211,,,
237.0000000000,29,12.3835496902,,,
237.2500000000,29,12.3822698593,,,
237.5000000000,29,12.3937997818,,,
237.7500000000,29,12.4091596603,,,
238.0000000000,29,12.4527101517,,,
238.2500000000,29,12.4296503067,,,
238.5000000000,29,12.4104404449,,,
238.7500000000,29,12.3976402283,,,
239.0000000000,29,12.3976402283,,,
239.2500000000,29,12.3771495819,,,
239.5000000000,29,12.3950796127,,,
239.7500000000,29,12.4104404449,,,
240.0000000000,30,12.4258098602,,,
240.2500000000,30,12.4270896912,,,
240.5000000000,30,12.4091596603,,,
240.7500000000,30,12.4130096436,,,
241.0000000000,30,12.3925199509,,,
241.2500000000,30,12.4001998901,,,
241.5000000000,30,12.3758697510,,,
241.7500000000,30,12.3592195511,,,
242.0000000000,30,12.3489704132,,,
242.2500000000,30,12.3476896286,,,
242.5000000000,30,12.3233604431,,,
242.7500000000,30,12.3233604431,,,
243.0000000000,30,12.3259201050,,,
243.2500000000,30,12.3220796585,,,
243.5000000000,30,12.3220796585,,,
243.7500000000,30,12.3092699051,,,
244.0000000000,30,12.3079900742,,,
244.2500000000,30,12.3143997192,,,
244.5000000000,30,12.2785396576,,,
244.7500000000,30,12.2747001648,,,
245.0000000000,30,12.2734203339,,,
245.2500000000,30,12.2580499649,,,
245.5000000000,30,12.2324399948,,,
245.7500000000,30,12.2221899033,,,
246.0000000000,30,12.2119503021,,,
246.2500000000,30,12.1901798248,,,
246.5000000000,30,12.1991395950,,,
246.7500000000,30,12.2157897949,,,
247.0000000000,30,12.2132301331,,,
247.2500000000,30,12.2170696259,,,
247.5000000000,30,12.2106599808,,,
247.7500000000,30,12.2221899033,,,
248.0000000000,31,12.2170696259,,,
248.2500000000,31,12.2081003189,,,
248.5000000000,31,12.2081003189,,,
248.7500000000,31,12.1837701797,,,
249.0000000000,31,12.1683998108,,,
249.2500000000,31,12.1287002563,,,
249.5000000000,31,12.1210203171,,,
249.7500000000,31,12.1325502396,,,
250.0000000000,31,12.1594400406,,,
250.2500000000,31,12.2170696259,,,
250.5000000000,31,12.2542104721,,,
250.7500000000,31,12.3067102432,,,
251.0000000000,31,12.3028697968,,,
251.2500000000,31,12.2823801041,,,
251.5000000000,31,12.2734203339,,,
251.7500000000,31,12.2401199341,,,
252.0000000000,31,12.2119503021,,,
252.2500000000,31,12.1812095642,,,
252.5000000000,31,12.1607198715,,,
252.7500000000,31,12.1376695633,,,
253.0000000000,31,12.1261396408,,,
253.2500000000,31,12.1261396408,,,
253.5000000000,31,12.1210203171,,,
253.7500000000,31,12.1235799789,,,
254.0000000000,31,12.1120595932,,,
254.2500000000,31,12.1043701172,,,
254.5000000000,31,12.1056499481,,,
254.7500000000,31,12.0800399780,,,
255.0000000000,31,12.0621099472,,,
255.2500000000,31,12.0377798080,,,
255.5000000000,31,12.0249700546,,,
255.7500000000,31,11.9916801453,,,
256.0000000000,32,12.0096101761,,,
256.2500000000,32,12.0070400238,,,
256.5000000000,32,12.0031995773,,,
256.7500000000,32,12.0096101761,,,
257.0000000000,32,11.9993600845,,,
257.2500000000,32,12.0057601929,,,
257.5000000000,32,11.9993600845,,,
257.7500000000,32,12.0121698380,,,
258.0000000000,32,12.0185699463,,,
258.2500000000,32,12.0108900070,,,
258.5000000000,32,11.9827098846,,,
258.7500000000,32,11.9558200836,,,
259.0000000000,32,11.9421701431,,,
259.2500000000,32,11.9383296967,,,
259.5000000000,32,11.9396095276,,,
259.7500000000,32,11.9139995575,,,
260.0000000000,32,11.9101600647,,,
260.2500000000,32,11.8909502029,,,
260.5000000000,32,11.8730201721,,,
260.7500000000,32,11.8666095734,,,
261.0000000000,32,11.8422803879,,,
261.2500000000,32,11.8269100189,,,
261.5000000000,32,11.8013000488,,,
261.7500000000,32,11.8038597107,,,
262.0000000000,32,11.8089895248,,,
262.2500000000,32,11.8051395416,,,
262.5000000000,32,11.7961797714,,,
262.7500000000,32,11.7884998322,,,
263.0000000000,32,11.7705698013,,,
263.2500000000,32,11.7680101395,,,
263.5000000000,32,11.7680101395,,,
263.7500000000,32,11.7359895706,,,
264.0000000000,33,11.7270298004,,,
264.2500000000,33,11.7052497864,,,
264.5000000000,33,11.6975698471,,,
264.7500000000,33,11.7014102936,,,
265.0000000000,33,11.6962900162,,,
265.2500000000,33,11.6975698471,,,
265.5000000000,33,11.6860399246,,,
265.7500000000,33,11.7039699554,,,
266.0000000000,33,11.7180595398,,,
266.2500000000,33,11.6988496780,,,
266.5000000000,33,11.6860399246,,,
266.7500000000,33,11.6745195389,,,
267.0000000000,33,11.6668395996,,,
267.2500000000,33,11.6463499069,,,
267.5000000000,33,11.6412200928,,,
267.7500000000,33,11.6553096771,,,
268.0000000000,33,11.6412200928,,,
268.2500000000,33,11.6412200928,,,
268.5000000000,33,11.6284198761,,,
268.7500000000,33,11.6232900620,,,
269.0000000000,33,11.6117696762,,,
269.2500000000,33,11.5951204300,,,
269.5000000000,33,11.5771903992,,,
269.7500000000,33,11.5605401993,,,
270.0000000000,33,11.5528602600,,,
270.2500000000,33,11.5336503983,,,
270.5000000000,33,11.5259704590,,,
270.7500000000,33,11.5310897827,,,
271.0000000000,33,11.5259704590,,,
271.2500000000,33,11.5170001984,,,
271.5000000000,33,11.5221204758,,,
271.7500000000,33,11.5208396912,,,
272.0000000000,34,11.5029096603,,,
272.2500000000,34,11.4965095520,,,
272.5000000000,34,11.4862699509,,,
272.7500000000,34,11.4657802582,,,
273.0000000000,34,11.4538002014,,,
273.2500000000,34,11.4909400940,,,
273.5000000000,34,11.4102602005,,,
273.7500000000,34,11.3974504471,,,
274.0000000000,34,11.3833703995,,,
274.2500000000,34,11.3820896149,,,
274.5000000000,34,11.3744001389,,,
274.7500000000,34,11.3744001389,,,
275.0000000000,34,11.3513498306,,,
275.2500000000,34,11.3359804153,,,
275.5000000000,34,11.3283004761,,,
275.7500000000,34,11.3065299988,,,
276.0000000000,34,11.2796401978,,,
276.2500000000,34,11.2668304443,,,
276.5000000000,34,11.2693901062,,,
276.7500000000,34,11.2642698288,,,
277.0000000000,34,11.2693901062,,,
277.2500000000,34,11.2540197372,,,
277.5000000000,34,11.2501802444,,,
277.7500000000,34,11.2476196289,,,
278.0000000000,34,11.2360897064,,,
278.2500000000,34,11.2271299362,,,
278.5000000000,34,11.2040796280,,,
278.7500000000,34,11.1938295364,,,
279.0000000000,34,11.1912698746,,,
279.2500000000,34,11.1720600128,,,
279.5000000000,34,11.1720600128,,,
279.7500000000,34,11.1592597961,,,
280.0000000000,35,11.1746196747,,,
280.2500000000,35,11.1669397354,,,
280.5000000000,35,11.1707801819,,,
280.7500000000,35,11.1618204117,,,
281.0000000000,35,11.1528501511,,,
281.2500000000,35,11.1554098129,,,
281.5000000000,35,11.1349201202,,,
281.7500000000,35,11.1221199036,,,
282.0000000000,35,11.1182804108,,,
282.2500000000,35,11.0837001801,,,
282.5000000000,35,11.0913801193,,,
282.7500000000,35,11.0760097504,,,
283.0000000000,35,11.0683298111,,,
283.2500000000,35,11.0708904266,,,
283.5000000000,35,11.0760097504,,,
283.7500000000,35,11.0734500885,,,
284.0000000000,35,11.0567998886,,,
284.2500000000,35,11.1233997345,,,
284.5000000000,35,11.0299100876,,,
284.7500000000,35,11.0107002258,,,
285.0000000000,35,10.9966201782,,,
285.2500000000,35,10.9902095795,,,
285.5000000000,35,11.0017404556,,,
285.7500000000,35,10.9863700867,,,
286.0000000000,35,10.9863700867,,,
286.2500000000,35,10.9786901474,,,
286.5000000000,35,10.9658803940,,,
286.7500000000,35,10.9640197754,,,
287.0000000000,35,10.9563302994,,,
287.2500000000,35,10.9473695755,,,
287.5000000000,35,10.9230403900,,,
287.7500000000,35,10.9051103592,,,
288.0000000000,36,10.9025497437,,,
288.2500000000,36,10.9076700211,,,
288.5000000000,36,10.8974199295,,,
288.7500000000,36,10.8910198212,,,
289.0000000000,36,10.9025497437,,,
289.2500000000,36,10.8871803284,,,
289.5000000000,36,10.8871803284,,,
289.7500000000,36,10.8858995438,,,
290.0000000000,36,10.8641300201,,,
290.2500000000,36,10.8449201584,,,
290.5000000000,36,10.8167400360,,,
290.7500000000,36,10.8103399277,,,
291.0000000000,36,10.8026599884,,,
291.2500000000,36,10.8026599884,,,
291.5000000000,36,10.8013801575,,,
291.7500000000,36,10.7834501266,,,
292.0000000000,36,10.7719202042,,,
292.2500000000,36,10.7642402649,,,
292.5000000000,36,10.7603998184,,,
292.7500000000,36,10.7424697876,,,
293.0000000000,36,10.7296600342,,,
293.2500000000,36,10.7142896652,,,
293.5000000000,36,10.7002096176,,,
293.7500000000,36,10.6963596344,,,
294.0000000000,36,10.6758699417,,,
294.2500000000,36,10.6669101715,,,
294.5000000000,36,10.6733102798,,,
294.7500000000,36,10.6617898941,,,
295.0000000000,36,10.6566600800,,,
295.2500000000,36,10.6425800323,,,
295.5000000000,36,10.6438598633,,,
295.7500000000,36,10.6361703873,,,
296.0000000000,37,10.6336097717,,,
296.2500000000,37,10.6387395859,,,
296.5000000000,37,10.6272096634,,,
296.7500000000,37,10.6233701706,,,
297.0000000000,37,10.6092796326,,,
297.2500000000,37,10.6054401398,,,
297.5000000000,37,10.5913496017,,,
297.7500000000,37,10.5811100006,,,
298.0000000000,37,10.5785503387,,,
298.2500000000,37,10.5644598007,,,
298.5000000000,37,10.5567798615,,,
298.7500000000,37,10.5285997391,,,
299.0000000000,37,10.5273199081,,,
299.2500000000,37,10.5209197998,,,
299.5000000000,37,10.4991502762,,,
299.7500000000,37,10.4978704453,,,
300.0000000000,37,10.4812202454,,,
300.2500000000,37,10.4799404144,,,
300.5000000000,37,10.4786596298,,,
300.7500000000,37,10.4671297073,,,
301.0000000000,37,10.4644899368,,,
301.2500000000,37,10.4465703964,,,
301.5000000000,37,10.4555301666,,,
301.7500000000,37,10.4926700592,,,
302.0000000000,37,10.5541400909,,,
302.2500000000,37,10.6066503525,,,
302.5000000000,37,10.6232900620,,,
302.7500000000,37,10.6143302917,,,
303.0000000000,37,10.6015195847,,,
303.2500000000,37,10.5912799835,,,
303.5000000000,37,10.5797500610,,,
303.7500000000,37,10.5887203217,,,
304.0000000000,38,10.5861501694,,,
304.2500000000,38,10.5887203217,,,
304.5000000000,38,10.5695104599,,,
304.7500000000,38,10.5438899994,,,
305.0000000000,38,10.5336503983,,,
305.2500000000,38,10.5195598602,,,
305.5000000000,38,10.5016298294,,,
305.7500000000,38,10.4760198593,,,
306.0000000000,38,10.4452800751,,,
306.2500000000,38,10.4312000275,,,
306.5000000000,38,10.4247999191,,,
306.7500000000,38,10.4171104431,,,
307.0000000000,38,10.3953399658,,,
307.2500000000,38,10.3889398575,,,
307.5000000000,38,10.3722896576,,,
307.7500000000,38,10.3594799042,,,
308.0000000000,38,10.3543596268,,,
308.2500000000,38,10.3377103806,,,
308.5000000000,38,10.3351497650,,,
308.7500000000,38,10.3146600723,,,
309.0000000000,38,10.2928895950,,,
309.2500000000,38,10.2839298248,,,
309.5000000000,38,10.2749595642,,,
309.7500000000,38,10.2723999023,,,
310.0000000000,38,10.2634296417,,,
310.2500000000,38,10.2647199631,,,
310.5000000000,38,10.2455101013,,,
310.7500000000,38,10.2416601181,,,
311.0000000000,38,10.2416601181,,,
311.2500000000,38,10.2211704254,,,
311.5000000000,38,10.2160501480,,,
311.7500000000,38,10.2058095932,,,
312.0000000000,39,10.1929998398,,,
312.2500000000,39,10.1750698090,,,
312.5000000000,39,10.1661100388,,,
312.7500000000,39,10.1712303162,,,
313.0000000000,39,10.1545801163,,,
313.2500000000,39,10.1558599472,,,
313.5000000000,39,10.1417703629,,,
313.7500000000,39,10.1276903152,,,
314.0000000000,39,10.1187200546,,,
314.2500000000,39,10.1084804535,,,
314.5000000000,39,10.1110401154,,,
314.7500000000,39,10.0879898071,,,
315.0000000000,39,10.0713396072,,,
315.2500000000,39,10.0559701920,,,
315.5000000000,39,10.0470104218,,,
315.7500000000,39,10.0521297455,,,
316.0000000000,39,10.0431699753,,,
316.2500000000,39,10.0354795456,,,
316.5000000000,39,10.0162696838,,,
316.7500000000,39,10.0034704208,,,
317.0000000000,39,10.0009002686,,,
317.2500000000,39,9.9880981445,,,
317.5000000000,39,9.9791336060,,,
317.7500000000,39,9.9599237442,,,
318.0000000000,39,9.9406061172,,,
318.2500000000,39,9.9239578247,,,
318.5000000000,39,9.9188346863,,,
318.7500000000,39,9.9149932861,,,
319.0000000000,39,9.8983449936,,,
319.2500000000,39,9.8957834244,,,
319.5000000000,39,9.8868188858,,,
319.7500000000,39,9.8727321625,,,
320.0000000000,40,9.8752927780,,,
320.2500000000,40,9.8535223007,,,
320.5000000000,40,9.8419961929,,,
320.7500000000,40,9.8227872849,,,
321.0000000000,40,9.8125419617,,,
321.2500000000,40,9.8074197769,,,
321.5000000000,40,9.8010158539,,,
321.7500000000,40,9.7894906998,,,
322.0000000000,40,9.7843675613,,,
322.2500000000,40,9.7754030228,,,
322.5000000000,40,9.7728424072,,,
322.7500000000,40,9.7523517609,,,
323.0000000000,40,9.7433872223,,,
323.2500000000,40,9.7292995453,,,
323.5000000000,40,9.7062492371,,,
323.7500000000,40,9.7024068832,,,
324.0000000000,40,9.6960039139,,,
324.2500000000,40,9.6908817291,,,
324.5000000000,40,9.6844778061,,,
324.7500000000,40,9.6716718674,,,
325.0000000000,40,9.6639881134,,,
325.2500000000,40,9.6524620056,,,
325.5000000000,40,9.6486206055,,,
325.7500000000,40,9.6345329285,,,
326.0000000000,40,9.6319723129,,,
326.2500000000,40,9.6153240204,,,
326.5000000000,40,9.6063585281,,,
326.7500000000,40,9.5909919739,,,
327.0000000000,40,9.5897111893,,,
327.2500000000,40,9.5871496201,,,
327.5000000000,40,9.5794658661,,,
327.7500000000,40,9.5666599274,,,
328.0000000000,41,9.5628175735,,,
328.2500000000,41,9.5474500656,,,
328.5000000000,41,9.5487308502,,,
328.7500000000,41,9.5333633423,,,
329.0000000000,41,9.5179958344,,,
329.2500000000,41,9.5115919113,,,
329.5000000000,41,9.4949436188,,,
329.7500000000,41,9.5000667572,,,
330.0000000000,41,9.4898214340,,,
330.2500000000,41,9.4859790802,,,
330.5000000000,41,9.4821376801,,,
330.7500000000,41,9.4706115723,,,
331.0000000000,41,9.5153064728,,,
331.2500000000,41,9.4538345337,,,
331.5000000000,41,9.4448709488,,,
331.7500000000,41,9.4256620407,,,
332.0000000000,41,9.4128551483,,,
332.2500000000,41,9.3987684250,,,
332.5000000000,41,9.3898038864,,,
332.7500000000,41,9.3731555939,,,
333.0000000000,41,9.3616285324,,,
333.2500000000,41,9.3565073013,,,
333.5000000000,41,9.3552274704,,,
333.7500000000,41,9.3411397934,,,
334.0000000000,41,9.3372974396,,,
334.2500000000,41,9.3283329010,,,
334.5000000000,41,9.3270530701,,,
334.7500000000,41,9.3129653931,,,
335.0000000000,41,9.3091239929,,,
335.2500000000,41,9.2950363159,,,
335.5000000000,41,9.2809495926,,,
335.7500000000,41,9.2822303772,,,
336.0000000000,42,9.2681436539,,,
336.2500000000,42,9.2719850540,,,
336.5000000000,42,9.2694225311,,,
336.7500000000,42,9.2655820847,,,
337.0000000000,42,9.2681436539,,,
337.2500000000,42,9.2668628693,,,
337.5000000000,42,9.2732658386,,,
337.7500000000,42,9.2553367615,,,
338.0000000000,42,9.2566175461,,,
338.2500000000,42,9.2361278534,,,
338.5000000000,42,9.2258825302,,,
338.7500000000,42,9.2169179916,,,
339.0000000000,42,9.2002696991,,,
339.2500000000,42,9.2630214691,,,
339.5000000000,42,9.1964273453,,,
339.7500000000,42,9.1900243759,,,
340.0000000000,42,9.1708154678,,,
340.2500000000,42,9.1669731140,,,
340.5000000000,42,9.1720952988,,,
340.7500000000,42,9.1592893600,,,
341.0000000000,42,9.1618499756,,,
341.2500000000,42,9.1336765289,,,
341.5000000000,42,9.1259927750,,,
341.7500000000,42,9.1183090210,,,
342.0000000000,42,9.1029424667,,,
342.2500000000,42,9.0939769745,,,
342.5000000000,42,9.0914154053,,,
342.7500000000,42,9.0875730515,,,
343.0000000000,42,9.0747671127,,,
343.2500000000,42,9.0645217896,,,
343.5000000000,42,9.0581188202,,,
343.7500000000,42,9.0453128815,,,
344.0000000000,43,9.0465927124,,,
344.2500000000,43,9.0261030197,,,
344.5000000000,43,9.0197000504,,,
344.7500000000,43,9.0017709732,,,
345.0000000000,43,8.9928064346,,,
345.2500000000,43,8.9889640808,,,
345.5000000000,43,8.9748773575,,,
345.7500000000,43,8.9838418961,,,
346.0000000000,43,8.9684743881,,,
346.2500000000,43,8.9735965729,,,
346.5000000000,43,8.9595098495,,,
346.7500000000,43,8.9519214630,,,
347.0000000000,43,8.9403953552,,,
347.2500000000,43,8.9250278473,,,
347.5000000000,43,8.9186248779,,,
347.7500000000,43,8.9109411240,,,
348.0000000000,43,8.8994150162,,,
348.2500000000,43,8.8917312622,,,
348.5000000000,43,8.8904495239,,,
348.7500000000,43,8.8840484619,,,
349.0000000000,43,8.8814859390,,,
349.2500000000,43,8.8712406158,,,
349.5000000000,43,8.8609962463,,,
349.7500000000,43,8.8545923233,,,
350.0000000000,43,8.8494701385,,,
350.2500000000,43,8.8302602768,,,
350.5000000000,43,8.8276996613,,,
350.7500000000,43,8.8084897995,,,
351.0000000000,43,8.8008060455,,,
351.2500000000,43,8.7944030762,,,
351.5000000000,43,8.7918424606,,,
351.7500000000,43,8.7880001068,,,
352.0000000000,44,8.7751932144,,,
352.2500000000,44,8.7636671066,,,
352.5000000000,44,8.7611055374,,,
352.7500000000,44,8.7585449219,,,
353.0000000000,44,8.7418966293,,,
353.2500000000,44,8.7316513062,,,
353.5000000000,44,8.7226867676,,,
353.7500000000,44,8.7098808289,,,
354.0000000000,44,8.7021970749,,,
354.2500000000,44,8.6932325363,,,
354.5000000000,44,8.6957941055,,,
354.7500000000,44,8.6868295670,,,
355.0000000000,44,8.6945133209,,,
355.2500000000,44,8.6842679977,,,
355.5000000000,44,8.6804265976,,,
355.7500000000,44,8.6727418900,,,
356.0000000000,44,8.6688995361,,,
356.2500000000,44,8.6548137665,,,
356.5000000000,44,8.6394453049,,,
356.7500000000,44,8.6420068741,,,
357.0000000000,44,8.6292009354,,,
357.2500000000,44,8.6279201508,,,
357.5000000000,44,8.6227979660,,,
357.7500000000,44,8.6176748276,,,
358.0000000000,44,8.6176748276,,,
358.2500000000,44,8.6125526428,,,
358.5000000000,44,8.6125526428,,,
358.7500000000,44,8.6010265350,,,
359.0000000000,44,8.5869398117,,,
359.2500000000,44,8.5702924728,,,
359.5000000000,44,8.5562047958,,,
359.7500000000,44,8.5472402573,,,
360.0000000000,45,8.5498008728,,,
360.2500000000,45,8.5459594727,,,
360.5000000000,45,8.5395574570,,,
360.7500000000,45,8.5331525803,,,
361.0000000000,45,8.5305919647,,,
361.2500000000,45,8.5126628876,,,
361.5000000000,45,8.5177850723,,,
361.7500000000,45,8.5024175644,,,
362.0000000000,45,8.4972953796,,,
362.2500000000,45,8.4844875336,,,
362.5000000000,45,8.4793663025,,,
362.7500000000,45,8.4819278717,,,
363.0000000000,45,8.4678401947,,,
363.2500000000,45,8.4627180099,,,
363.5000000000,45,8.4511919022,,,
363.7500000000,45,8.4422273636,,,
364.0000000000,45,8.4333591461,,,
364.2500000000,45,8.4295177460,,,
364.5000000000,45,8.4231147766,,,
364.7500000000,45,8.4141502380,,,
365.0000000000,45,8.4179916382,,,
365.2500000000,45,8.4115886688,,,
365.5000000000,45,8.4141502380,,,
365.7500000000,45,8.4039049149,,,
366.0000000000,45,8.3885374069,,,
366.2500000000,45,8.3898181915,,,
366.5000000000,45,8.3923788071,,,
366.7500000000,45,8.3936595917,,,
367.0000000000,45,8.3821344376,,,
367.2500000000,45,8.3962211609,,,
367.5000000000,45,8.3910980225,,,
367.7500000000,45,8.3923788071,,,
368.0000000000,46,8.4039049149,,,
368.2500000000,46,8.3782920837,,,
368.5000000000,46,8.3590822220,,,
368.7500000000,46,8.3398733139,,,
369.0000000000,46,8.3321895599,,,
369.2500000000,46,8.3296279907,,,
369.5000000000,46,8.3142595291,,,
369.7500000000,46,8.3027343750,,,
370.0000000000,46,8.3027343750,,,
370.2500000000,46,8.2937698364,,,
370.5000000000,46,8.2860860825,,,
370.7500000000,46,8.2617540359,,,
371.0000000000,46,8.2707185745,,,
371.2500000000,46,8.2694377899,,,
371.5000000000,46,8.2463865280,,,
371.7500000000,46,8.2527885437,,,
372.0000000000,46,8.2566318512,,,
372.2500000000,46,8.2412643433,,,
372.5000000000,46,8.2374219894,,,
372.7500000000,46,8.2284574509,,,
373.0000000000,46,8.2207736969,,,
373.2500000000,46,8.2092475891,,,
373.5000000000,46,8.2015638351,,,
373.7500000000,46,8.2054061890,,,
374.0000000000,46,8.1964416504,,,
374.2500000000,46,8.1887578964,,,
374.5000000000,46,8.1849155426,,,
374.7500000000,46,8.1772317886,,,
375.0000000000,46,8.1682672501,,,
375.2500000000,46,8.1593027115,,,
375.5000000000,46,8.1554613113,,,
375.7500000000,46,8.1439352036,,,
376.0000000000,47,8.1426544189,,,
376.2500000000,47,8.1311292648,,,
376.5000000000,47,8.1272869110,,,
376.7500000000,47,8.1119194031,,,
377.0000000000,47,8.1055164337,,,
377.2500000000,47,8.1016740799,,,
377.5000000000,47,8.0978326797,,,
377.7500000000,47,8.0914297104,,,
378.0000000000,47,8.0863065720,,,
378.2500000000,47,8.0773420334,,,
378.5000000000,47,8.0606937408,,,
378.7500000000,47,8.0709390640,,,
379.0000000000,47,8.0632553101,,,
379.2500000000,47,8.0542907715,,,
379.5000000000,47,8.0427656174,,,
379.7500000000,47,8.0171527863,,,
380.0000000000,47,8.0248365402,,,
380.2500000000,47,8.0158720016,,,
380.5000000000,47,8.0747814178,,,
380.7500000000,47,8.0197134018,,,
381.0000000000,47,8.0081882477,,,
381.2500000000,47,7.9992241859,,,
381.5000000000,47,7.9915390015,,,
381.7500000000,47,7.9979429245,,,
382.0000000000,47,7.9825749397,,,
382.2500000000,47,7.9774532318,,,
382.5000000000,47,7.9736108780,,,
382.7500000000,47,7.9582428932,,,
383.0000000000,47,7.9492788315,,,
383.2500000000,47,7.9428749084,,,
383.5000000000,47,7.9537339211,,,
383.7500000000,47,7.9460511208,,,
384.0000000000,48,7.9524540901,,,
384.2500000000,48,7.9460511208,,,
384.5000000000,48,7.9345250130,,,
384.7500000000,48,7.9358048439,,,
385.0000000000,48,7.9217190742,,,
385.2500000000,48,7.9037899971,,,
385.5000000000,48,7.8999481201,,,
385.7500000000,48,7.9140348434,,,
386.0000000000,48,7.9767861366,,,
386.2500000000,48,7.9255599976,,,
386.5000000000,48,7.9319629669,,,
386.7500000000,48,7.9396471977,,,
387.0000000000,48,7.9434890747,,,
387.2500000000,48,7.9498929977,,,
387.5000000000,48,7.9370861053,,,
387.7500000000,48,7.9114727974,,,
388.0000000000,48,7.8243899345,,,
388.2500000000,48,8.0152053833,,,
388.5000000000,48,8.0856399536,,,
388.7500000000,48,8.2534036636,,,
389.0000000000,48,8.5940532684,,,
389.2500000000,48,9.0826425552,,,
389.5000000000,48,9.0543718338,33025:33024,389.5312500000:389.6875000000,0.0000000000:0.0000000000
389.7500000000,48,9.0146722794,,,
390.0000000000,48,9.3169031143,,,
390.2500000000,48,9.3963022232,,,
390.5000000000,48,9.3412351608,,,
390.7500000000,48,9.3450765610,,,
391.0000000000,48,9.2362222672,,,
391.2500000000,48,8.2885513306,,,
391.5000000000,48,8.4909877777,,,
391.7500000000,48,8.7330284119,,,
392.0000000000,49,8.7804117203,,,
392.2500000000,49,8.7765703201,,,
392.5000000000,49,8.7330284119,,,
392.7500000000,49,8.8393211365,,,
393.0000000000,49,8.8418827057,,,
393.2500000000,49,8.8239536285,,,
393.5000000000,49,8.7368707657,,,
393.7500000000,49,8.5166006088,,,
394.0000000000,49,8.6113681793,,,
394.2500000000,49,8.7983407974,,,
394.5000000000,49,8.3693275452,,,
394.7500000000,49,8.2387027740,,,
395.0000000000,49,8.1708288193,,,
395.2500000000,49,8.1324100494,,,
395.5000000000,49,8.0927095413,,,
395.7500000000,49,8.0568523407,,,
396.0000000000,49,8.0414848328,,,
396.2500000000,49,8.0466070175,,,
396.5000000000,49,8.0504493713,,,
396.7500000000,49,8.0402040482,,,
397.0000000000,49,8.0312404633,,,
397.2500000000,49,8.0248365402,,,
397.5000000000,49,8.0414848328,,,
397.7500000000,49,8.0530099869,,,
398.0000000000,49,8.0478878021,,,
398.2500000000,49,8.1362514496,,,
398.5000000000,49,8.1900386810,,,
398.7500000000,49,8.2028446198,,,
399.0000000000,49,8.1682672501,,,
399.2500000000,49,8.1196031570,,,
399.5000000000,49,7.9697690010,,,
399.7500000000,49,8.1541805267,,,
400.0000000000,50,8.1285676956,,,
400.2500000000,50,8.0991134644,,,
400.5000000000,50,8.0402040482,,,
400.7500000000,50,8.0402040482,,,
401.0000000000,50,8.0478878021,,,
401.2500000000,50,8.0542907715,,,
401.5000000000,50,8.0504493713,,,
401.7500000000,50,8.0248365402,,,
402.0000000000,50,7.7879190445,,,
402.2500000000,50,7.5913138390,,,
402.5000000000,50,7.6463809013,,,
402.7500000000,50,7.6604690552,,,
403.0000000000,50,7.6591877937,,,
403.2500000000,50,7.6271719933,,,
403.5000000000,50,7.6386981010,,,
403.7500000000,50,7.6297330856,,,
404.0000000000,50,7.6361370087,,,
404.2500000000,50,7.6463809013,,,
404.5000000000,50,7.6566271782,,,
404.7500000000,50,7.6643099785,,,
405.0000000000,50,7.6515040398,,,
405.2500000000,50,7.6310138702,,,
405.5000000000,50,7.6105241776,,,
405.7500000000,50,7.5887532234,,,
406.0000000000,50,7.5746660233,,,
406.2500000000,50,7.5964369774,,,
406.5000000000,50,7.3992190361,,,
406.7500000000,50,7.3295779228,,,
407.0000000000,50,7.2232861519,,,
407.2500000000,50,7.1592540741,,,
407.5000000000,50,7.0913801193,,,
407.7500000000,50,7.1502900124,,,
408.0000000000,51,7.1823048592,,,
408.2500000000,51,7.1835861206,,,
408.5000000000,51,7.1759018898,,,
408.7500000000,51,7.1912698746,,,
409.0000000000,51,7.1976728439,,,
409.2500000000,51,7.1771831512,,,
409.5000000000,51,7.1528511047,,,
409.7500000000,51,7.2821950912,,,
410.0000000000,51,7.2898788452,,,
410.2500000000,51,7.3065271378,,,
410.5000000000,51,7.3231749535,,,
410.7500000000,51,7.3193340302,,,
411.0000000000,51,7.3206138611,,,
411.2500000000,51,7.3257369995,,,
411.5000000000,51,7.3257369995,,,
411.7500000000,51,7.3398241997,,,
412.0000000000,51,7.3487877846,,,
412.2500000000,51,7.3564720154,,,
412.5000000000,51,7.3513488770,,,
412.7500000000,51,7.3526301384,,,
413.0000000000,51,7.3423848152,,,
413.2500000000,51,7.3308591843,,,
413.5000000000,51,7.3282980919,,,
413.7500000000,51,7.3193340302,,,
414.0000000000,51,7.3244562149,,,
414.2500000000,51,7.3218951225,,,
414.5000000000,51,7.3244562149,,,
414.7500000000,51,7.3270168304,,,
415.0000000000,51,7.3308591843,,,
415.2500000000,51,7.3206138611,,,
415.5000000000,51,7.3065271378,,,
415.7500000000,51,7.3026847839,,,
416.0000000000,52,7.2834749222,,,
416.2500000000,52,7.2706689835,,,
416.5000000000,52,7.2668271065,,,
416.7500000000,52,7.2476181984,,,
417.0000000000,52,7.2399339676,,,
417.2500000000,52,7.2232861519,,,
417.5000000000,52,7.2220048904,,,
417.7500000000,52,7.2027959824,,,
418.0000000000,52,7.2002339363,,,
418.2500000000,52,7.1874279976,,,
418.5000000000,52,7.1746220589,,,
418.7500000000,52,7.1707801819,,,
419.0000000000,52,7.1643757820,,,
419.2500000000,52,7.1682181358,,,
419.5000000000,52,7.1579728127,,,
419.7500000000,52,7.1554121971,,,
420.0000000000,52,7.1554121971,,,
420.2500000000,52,7.1426048279,,,
420.5000000000,52,7.1387629509,,,
420.7500000000,52,7.1208348274,,,
421.0000000000,52,7.1169929504,,,
421.2500000000,52,7.1054668427,,,
421.5000000000,52,7.1041870117,,,
421.7500000000,52,7.0977830887,,,
422.0000000000,52,7.1067481041,,,
422.2500000000,52,7.1016249657,,,
422.5000000000,52,7.0862569809,,,
422.7500000000,52,7.0849771500,,,
423.0000000000,52,7.0696091652,,,
423.2500000000,52,7.0760121346,,,
423.5000000000,52,7.0644869804,,,
423.7500000000,52,7.0465579033,,,
424.0000000000,53,7.0388741493,,,
424.2500000000,53,7.0337510109,,,
424.5000000000,53,7.0260682106,,,
424.7500000000,53,7.0145421028,,,
425.0000000000,53,7.0119810104,,,
425.2500000000,53,6.9953317642,,,
425.5000000000,53,6.9927711487,,,
425.7500000000,53,6.9876480103,,,
426.0000000000,53,6.9761228561,,,
426.2500000000,53,6.9697189331,,,
426.5000000000,53,6.9658780098,,,
426.7500000000,53,6.9607548714,,,
427.0000000000,53,6.9517908096,,,
427.2500000000,53,6.9453868866,,,
427.5000000000,53,6.9433460236,,,
427.7500000000,53,6.9343810081,,,
428.0000000000,53,6.9228549004,,,
428.2500000000,53,6.9177331924,,,
428.5000000000,53,6.9126110077,,,
428.7500000000,53,6.9074878693,,,
429.0000000000,53,6.9010839462,,,
429.2500000000,53,6.8934011459,,,
429.5000000000,53,6.8844361305,,,
429.7500000000,53,6.8805937767,,,
430.0000000000,53,6.8665080070,,,
430.2500000000,53,6.8626661301,,,
430.5000000000,53,6.8537011147,,,
430.7500000000,53,6.8447370529,,,
431.0000000000,53,6.8383340836,,,
431.2500000000,53,6.8255271912,,,
431.5000000000,53,6.8280878067,,,
431.7500000000,53,6.8191242218,,,
432.0000000000,54,6.8178429604,,,
432.2500000000,54,6.7999138832,,,
432.5000000000,54,6.7935109138,,,
432.7500000000,54,6.7896690369,,,
433.0000000000,54,6.7845468521,,,
433.2500000000,54,6.7794241905,,,
433.5000000000,54,6.7691788673,,,
433.7500000000,54,6.7666177750,,,
434.0000000000,54,6.7755818367,,,
434.2500000000,54,6.7768630981,,,
434.5000000000,54,6.7768630981,,,
434.7500000000,54,6.7730212212,,,
435.0000000000,54,6.7717399597,,,
435.2500000000,54,6.7602138519,,,
435.5000000000,54,6.7627758980,,,
435.7500000000,54,6.7563719749,,,
436.0000000000,54,6.7576532364,,,
436.2500000000,54,6.7563719749,,,
436.5000000000,54,6.7653369904,,,
436.7500000000,54,6.7794241905,,,
437.0000000000,54,6.7768630981,,,
437.2500000000,54,6.7768630981,,,
437.5000000000,54,6.7743020058,,,
437.7500000000,54,6.7871079445,,,
438.0000000000,54,6.5296998024,,,
438.2500000000,54,6.2915019989,,,
438.5000000000,54,6.3714971542,,,
438.7500000000,54,6.6160979271,,,
439.0000000000,54,6.6276240349,,,
439.2500000000,54,6.6353077888,,,
439.5000000000,54,6.6135368347,,,
439.7500000000,54,6.4380898476,,,
440.0000000000,55,6.3561291695,,,
440.2500000000,55,6.5712761879,,,
440.5000000000,55,6.6980590820,,,
440.7500000000,55,6.7915449142,,,
441.0000000000,55,6.8414897919,,,
441.2500000000,55,6.8799099922,,,
441.5000000000,55,6.9298539162,,,
441.7500000000,55,6.9721159935,,,
442.0000000000,55,6.8946809769,,,
442.2500000000,55,6.7102699280,,,
442.5000000000,55,6.6423959732,,,
442.7500000000,55,6.6065378189,,,
443.0000000000,55,6.5898900032,,,
443.2500000000,55,6.5719609261,,,
443.5000000000,55,6.5629959106,,,
443.7500000000,55,6.5578742027,,,
444.0000000000,55,6.5399451256,,,
444.2500000000,55,6.5258579254,,,
444.5000000000,55,6.5028071404,,,
444.7500000000,55,6.5002450943,,,
445.0000000000,55,6.5002450943,,,
445.2500000000,55,6.4899997711,,,
445.5000000000,55,6.4733519554,,,
445.7500000000,55,6.4656682014,,,
446.0000000000,55,6.4618258476,,,
446.2500000000,55,6.4413361549,,,
446.5000000000,55,6.4457740784,,,
446.7500000000,55,6.4355278015,,,
447.0000000000,55,6.4316859245,,,
447.2500000000,55,6.4188799858,,,
447.5000000000,55,6.4227218628,,,
447.7500000000,55,6.4111962318,,,
448.0000000000,56,6.4022321701,,,
448.2500000000,56,6.3971099854,,,
448.5000000000,56,6.3907060623,,,
448.7500000000,56,6.3830218315,,,
449.0000000000,56,6.3766188622,,,
449.2500000000,56,6.4137568474,,,
449.5000000000,56,6.3612508774,,,
449.7500000000,56,6.3484449387,,,
450.0000000000,56,6.3471651077,,,
450.2500000000,56,6.3292360306,,,
450.5000000000,56,6.3343582153,,,
450.7500000000,56,6.3394799232,,,
451.0000000000,56,6.3253941536,,,
451.2500000000,56,6.3202710152,,,
451.5000000000,56,6.3125867844,,,
451.7500000000,56,6.3049039841,,,
452.0000000000,56,6.2985000610,,,
452.2500000000,56,6.2869739532,,,
452.5000000000,56,6.2856941223,,,
452.7500000000,56,6.2677650452,,,
453.0000000000,56,6.2652029991,,,
453.2500000000,56,6.2549591064,,,
453.5000000000,56,6.2588009834,,,
453.7500000000,56,6.2485551834,,,
454.0000000000,56,6.2434329987,,,
454.2500000000,56,6.2408709526,,,
454.5000000000,56,6.2331881523,,,
454.7500000000,56,6.2293457985,,,
455.0000000000,56,6.2229428291,,,
455.2500000000,56,6.2191009521,,,
455.5000000000,56,6.2062950134,,,
455.7500000000,56,6.2037329674,,,
456.0000000000,57,6.2050142288,,,
456.2500000000,57,6.1947679520,,,
456.5000000000,57,6.1883649826,,,
456.7500000000,57,6.1794009209,,,
457.0000000000,57,6.1858038902,,,
457.2500000000,57,6.1794009209,,,
457.5000000000,57,6.1717171669,,,
457.7500000000,57,6.1704359055,,,
458.0000000000,57,6.1627531052,,,
458.2500000000,57,6.1435427666,,,
458.5000000000,57,6.1397008896,,,
458.7500000000,57,6.1397008896,,,
459.0000000000,57,6.1307368279,,,
459.2500000000,57,6.1230530739,,,
459.5000000000,57,6.1281747818,,,
459.7500000000,57,6.1192111969,,,
460.0000000000,57,6.1128082275,,,
460.2500000000,57,6.1000008583,,,
460.5000000000,57,6.1000008583,,,
460.7500000000,57,6.0910367966,,,
461.0000000000,57,6.0820732117,,,
461.2500000000,57,6.0846338272,,,
461.5000000000,57,6.0679860115,,,
461.7500000000,57,6.0679860115,,,
462.0000000000,57,6.0603017807,,,
462.2500000000,57,6.0590209961,,,
462.5000000000,57,6.0487761497,,,
462.7500000000,57,6.0423731804,,,
463.0000000000,57,6.0449337959,,,
463.2500000000,57,6.0462150574,,,
463.5000000000,57,6.0436530113,,,
463.7500000000,57,6.0308470726,,,
464.0000000000,58,6.0282859802,,,
464.2500000000,58,6.0282859802,,,
464.5000000000,58,6.0193209648,,,
464.7500000000,58,6.0167598724,,,
465.0000000000,58,6.0129179955,,,
465.2500000000,58,6.0129179955,,,
465.5000000000,58,6.0001120567,,,
465.7500000000,58,5.9962701797,,,
466.0000000000,58,5.9962701797,,,
466.2500000000,58,5.9783411026,,,
466.5000000000,58,5.9744992256,,,
466.7500000000,58,5.9732179642,,,
467.0000000000,58,5.9770598412,,,
467.2500000000,58,5.9680957794,,,
467.5000000000,58,5.9655351639,,,
467.7500000000,58,5.9616928101,,,
468.0000000000,58,5.9527277946,,,
468.2500000000,58,5.9552888870,,,
468.5000000000,58,5.9450449944,,,
468.7500000000,58,5.9506778717,,,
469.0000000000,58,5.9493980408,,,
469.2500000000,58,5.9455561638,,,
469.5000000000,58,5.9417138100,,,
469.7500000000,58,5.9340300560,,,
470.0000000000,58,5.9353108406,,,
470.2500000000,58,5.9237852097,,,
470.5000000000,58,5.9276270866,,,
470.7500000000,58,5.9186630249,,,
471.0000000000,58,5.9173817635,,,
471.2500000000,58,5.9109787941,,,
471.5000000000,58,5.9084172249,,,
471.7500000000,58,5.8994531631,,,
