Time:4Hz,Epoch,Channel 1,Event Id,Event Date,Event Duration
0.0000000000,0,95.1436004639,,,
0.2500000000,0,95.1692123413,,,
0.5000000000,0,95.1896972656,,,
0.7500000000,0,95.1538391113,,,
1.0000000000,0,95.2101898193,,,
1.2500000000,0,95.2934265137,,,
1.5000000000,0,95.3139190674,,,
1.7500000000,0,95.3741073608,,,
2.0000000000,0,95.3881988525,,,
2.2500000000,0,95.7843170166,,,
2.5000000000,0,95.7459030151,,,
2.7500000000,0,95.7407836914,,,
3.0000000000,0,95.7087631226,,,
3.2500000000,0,95.6997985840,,,
3.5000000000,0,95.7356491089,,,
3.7500000000,0,95.7049179077,,,
4.0000000000,0,95.7471771240,,,
4.2500000000,0,95.7394866943,,,
4.5000000000,0,95.6985168457,,,
4.7500000000,0,95.7164535522,,,
5.0000000000,0,95.6754608154,,,
5.2500000000,0,95.6997985840,,,
5.5000000000,0,95.6677780151,,,
5.7500000000,0,95.6549835205,,,
6.0000000000,0,95.5845413208,,,
6.2500000000,0,95.5614929199,,,
6.5000000000,0,95.6319198608,,,
6.7500000000,0,95.6165466309,,,
7.0000000000,0,95.6370468140,,,
7.2500000000,0,95.6511306763,,,
7.5000000000,0,95.7343826294,,,
7.7500000000,0,95.8368225098,,,
8.0000000000,1,95.8790817261,,,
8.2500000000,1,95.9187927246,,,
8.5000000000,1,96.2556076050,,,
8.7500000000,1,96.2978668213,,,
9.0000000000,1,96.2709808350,,,
9.2500000000,1,96.2466430664,,,
9.5000000000,1,96.2325592041,,,
9.7500000000,1,96.2543334961,,,
10.0000000000,1,96.3017120361,,,
10.2500000000,1,96.2927474976,,,
10.5000000000,1,96.3183593750,,,
10.7500000000,1,96.3093872070,,,
11.0000000000,1,96.2914733887,,,
11.2500000000,1,96.2581710815,,,
11.5000000000,1,96.2658462524,,,
11.7500000000,1,96.3196411133,,,
12.0000000000,1,96.3298873901,,,
12.2500000000,1,96.3670272827,,,
12.5000000000,1,96.3567810059,,,
12.7500000000,1,96.3734283447,,,
13.0000000000,1,96.3695831299,,,
13.2500000000,1,96.3785476685,,,
13.5000000000,1,96.3913574219,,,
13.7500000000,1,96.3593368530,,,
14.0000000000,1,96.3836669922,,,
14.2500000000,1,96.4131317139,,,
14.5000000000,1,96.7501983643,,,
14.7500000000,1,96.7335510254,,,
15.0000000000,1,96.7604370117,,,
15.2500000000,1,96.8065490723,,,
15.5000000000,1,96.8078308105,,,
15.7500000000,1,96.8078308105,,,
16.0000000000,2,96.8129501343,,,
16.2500000000,2,96.8577728271,,,
16.5000000000,2,96.9192428589,,,
16.7500000000,2,97.2959671021,,,
17.0000000000,2,97.3484802246,,,
17.2500000000,2,97.3446426392,,,
17.5000000000,2,97.3804931641,,,
17.7500000000,2,97.3843383789,,,
18.0000000000,2,97.3471984863,,,
18.2500000000,2,97.3612823486,,,
18.5000000000,2,97.3459167480,,,
18.7500000000,2,97.3484802246,,,
19.0000000000,2,97.3331069946,,,
19.2500000000,2,97.3459167480,,,
19.5000000000,2,97.4022674561,,,
19.7500000000,2,97.3958587646,,,
20.0000000000,2,97.4406814575,,,
20.2500000000,2,97.7461166382,,,
20.5000000000,2,97.7205123901,,,
20.7500000000,2,97.7128295898,,,
21.0000000000,2,97.7371597290,,,
21.2500000000,2,97.7883834839,,,
21.5000000000,2,97.8357696533,,,
21.7500000000,2,97.8178405762,,,
22.0000000000,2,97.7755813599,,,
22.2500000000,2,97.7691802979,,,
22.5000000000,2,97.8127212524,,,
22.7500000000,2,97.7845535278,,,
23.0000000000,2,97.8050384521,,,
23.2500000000,2,97.8037567139,,,
23.5000000000,2,97.8191223145,,,
23.7500000000,2,97.8703536987,,,
24.0000000000,3,97.8549804688,,,
24.2500000000,3,97.8549804688,,,
24.5000000000,3,97.8869934082,,,
24.7500000000,3,97.8716278076,,,
25.0000000000,3,97.9010772705,,,
25.2500000000,3,97.8934020996,,,
25.5000000000,3,97.8921203613,,,
25.7500000000,3,97.8703536987,,,
26.0000000000,3,97.8716278076,,,
26.2500000000,3,97.9203033447,,,
26.5000000000,3,98.3076400757,,,
26.7500000000,3,98.2961196899,,,
27.0000000000,3,98.2512969971,,,
27.2500000000,3,98.2897109985,,,
27.5000000000,3,98.2909927368,,,
27.7500000000,3,98.2666625977,,,
28.0000000000,3,98.2833099365,,,
28.2500000000,3,98.2717819214,,,
28.5000000000,3,98.2948379517,,,
28.7500000000,3,98.2858734131,,,
29.0000000000,3,98.2218399048,,,
29.2500000000,3,98.2167205811,,,
29.5000000000,3,98.3255691528,,,
29.7500000000,3,98.3345336914,,,
30.0000000000,3,98.3447799683,,,
30.2500000000,3,98.2692337036,,,
30.5000000000,3,98.2756271362,,,
30.7500000000,3,98.3076400757,,,
31.0000000000,3,98.2986831665,,,
31.2500000000,3,98.3063583374,,,
31.5000000000,3,98.2961196899,,,
31.7500000000,3,98.3038024902,,,
32.0000000000,4,98.3230133057,,,
32.2500000000,4,98.2948379517,,,
32.5000000000,4,98.3025207520,,,
32.7500000000,4,98.2833099365,,,
33.0000000000,4,98.2897109985,,,
33.2500000000,4,98.3294067383,,,
33.5000000000,4,98.3140487671,,,
33.7500000000,4,98.3242874146,,,
34.0000000000,4,98.2845916748,,,
34.2500000000,4,98.3294067383,,,
34.5000000000,4,98.3639907837,,,
34.7500000000,4,98.3857727051,,,
35.0000000000,4,98.3550262451,,,
35.2500000000,4,98.3460617065,,,
35.5000000000,4,98.3601531982,,,
35.7500000000,4,98.3652725220,,,
36.0000000000,4,98.3537368774,,,
36.2500000000,4,98.3601531982,,,
36.5000000000,4,98.3998489380,,,
36.7500000000,4,98.3819198608,,,
37.0000000000,4,98.3883209229,,,
37.2500000000,4,98.3806381226,,,
37.5000000000,4,98.3832015991,,,
37.7500000000,4,98.4088134766,,,
38.0000000000,4,98.3998489380,,,
38.2500000000,4,98.4036865234,,,
38.5000000000,4,98.3857727051,,,
38.7500000000,4,98.3985671997,,,
39.0000000000,4,98.4293136597,,,
39.2500000000,4,98.7741928101,,,
39.5000000000,4,98.7985229492,,,
39.7500000000,4,98.8343811035,,,
40.0000000000,5,98.8164520264,,,
40.2500000000,5,98.8126068115,,,
40.5000000000,5,98.8356628418,,,
40.7500000000,5,98.8395080566,,,
41.0000000000,5,98.8382263184,,,
41.2500000000,5,98.8407897949,,,
41.5000000000,5,98.8689727783,,,
41.7500000000,5,98.8459091187,,,
42.0000000000,5,98.8548736572,,,
42.2500000000,5,98.8779296875,,,
42.5000000000,5,98.8625564575,,,
42.7500000000,5,98.8830490112,,,
43.0000000000,5,98.8139038086,,,
43.2500000000,5,98.8664016724,,,
43.5000000000,5,98.8535919189,,,
43.7500000000,5,98.8689727783,,,
44.0000000000,5,98.8971328735,,,
44.2500000000,5,98.8894500732,,,
44.5000000000,5,98.8920135498,,,
44.7500000000,5,98.9176330566,,,
45.0000000000,5,99.2545928955,,,
45.2500000000,5,99.2930068970,,,
45.5000000000,5,99.2840499878,,,
45.7500000000,5,99.2814865112,,,
46.0000000000,5,99.2609863281,,,
46.2500000000,5,99.2750930786,,,
46.5000000000,5,99.3122329712,,,
46.7500000000,5,99.2955780029,,,
47.0000000000,5,99.2878875732,,,
47.2500000000,5,99.3096618652,,,
47.5000000000,5,99.2789230347,,,
47.7500000000,5,99.2981262207,,,
48.0000000000,6,99.2750930786,,,
48.2500000000,6,99.2878875732,,,
48.5000000000,6,99.2699584961,,,
48.7500000000,6,99.2674026489,,,
49.0000000000,6,99.3288726807,,,
49.2500000000,6,99.3224563599,,,
49.5000000000,6,99.3327102661,,,
49.7500000000,6,99.3672866821,,,
50.0000000000,6,99.3532028198,,,
50.2500000000,6,99.3852233887,,,
50.5000000000,6,99.4146728516,,,
50.7500000000,6,99.3916168213,,,
51.0000000000,6,99.3480834961,,,
51.2500000000,6,99.3429565430,,,
51.5000000000,6,99.3800964355,,,
51.7500000000,6,99.3800964355,,,
52.0000000000,6,99.3813781738,,,
52.2500000000,6,99.3672866821,,,
52.5000000000,6,99.3775329590,,,
52.7500000000,6,99.3916168213,,,
53.0000000000,6,99.3660125732,,,
53.2500000000,6,99.3813781738,,,
53.5000000000,6,99.4185180664,,,
53.7500000000,6,99.7431030273,,,
54.0000000000,6,99.7789535522,,,
54.2500000000,6,99.7571868896,,,
54.5000000000,6,99.7507781982,,,
54.7500000000,6,99.7290115356,,,
55.0000000000,6,99.7431030273,,,
55.2500000000,6,99.7866363525,,,
55.5000000000,6,99.7725524902,,,
55.7500000000,6,99.7687072754,,,
56.0000000000,7,99.7443771362,,,
56.2500000000,7,99.7610168457,,,
56.5000000000,7,99.8058471680,,,
56.7500000000,7,99.7917633057,,,
57.0000000000,7,99.7994537354,,,
57.2500000000,7,99.8340225220,,,
57.5000000000,7,99.8186569214,,,
57.7500000000,7,99.8557968140,,,
58.0000000000,7,99.8391494751,,,
58.2500000000,7,99.8673171997,,,
58.5000000000,7,99.9006195068,,,
58.7500000000,7,99.8788528442,,,
59.0000000000,7,99.8378677368,,,
59.2500000000,7,99.8314590454,,,
59.5000000000,7,99.8506698608,,,
59.7500000000,7,99.8327407837,,,
60.0000000000,7,99.8442687988,,,
60.2500000000,7,99.8801269531,,,
60.5000000000,7,99.8647613525,,,
60.7500000000,7,99.8903732300,,,
61.0000000000,7,99.8788528442,,,
61.2500000000,7,99.8737335205,,,
61.5000000000,7,99.8980636597,,,
61.7500000000,7,99.8865280151,,,
62.0000000000,7,99.8852462769,,,
62.2500000000,7,99.9159927368,,,
62.5000000000,7,99.9313507080,,,
62.7500000000,7,100.2432022095,,,
63.0000000000,7,100.2086029053,,,
63.2500000000,7,100.1753005981,,,
63.5000000000,7,100.2406005859,,,
63.7500000000,7,100.2789993286,,,
64.0000000000,8,100.2611007690,,,
64.2500000000,8,100.2714004517,,,
64.5000000000,8,100.2509002686,,,
64.7500000000,8,100.3199996948,,,
65.0000000000,8,100.3135986328,,,
65.2500000000,8,100.2739028931,,,
65.5000000000,8,100.2802963257,,,
65.7500000000,8,100.2994995117,,,
66.0000000000,8,100.2649993896,,,
66.2500000000,8,100.3123016357,,,
66.5000000000,8,100.2969970703,,,
66.7500000000,8,100.2919006348,,,
67.0000000000,8,100.2764968872,,,
67.2500000000,8,100.2828979492,,,
67.5000000000,8,100.3085021973,,,
67.7500000000,8,100.2751998901,,,
68.0000000000,8,100.2919006348,,,
68.2500000000,8,100.2828979492,,,
68.5000000000,8,100.2919006348,,,
68.7500000000,8,100.3392028809,,,
69.0000000000,8,100.3315963745,,,
69.2500000000,8,100.3328018188,,,
69.5000000000,8,100.3212966919,,,
69.7500000000,8,100.3238983154,,,
70.0000000000,8,100.3622970581,,,
70.2500000000,8,100.3495025635,,,
70.5000000000,8,100.4186019897,,,
70.7500000000,8,100.3865966797,,,
71.0000000000,8,100.3750991821,,,
71.2500000000,8,100.3404998779,,,
71.5000000000,8,100.3264007568,,,
71.7500000000,8,100.3712997437,,,
72.0000000000,9,100.3597030640,,,
72.2500000000,9,100.3597030640,,,
72.5000000000,9,100.3879013062,,,
72.7500000000,9,100.3674011230,,,
73.0000000000,9,100.3993988037,,,
73.2500000000,9,100.3852996826,,,
73.5000000000,9,100.3879013062,,,
73.7500000000,9,100.3610000610,,,
74.0000000000,9,100.3674011230,,,
74.2500000000,9,100.3993988037,,,
74.5000000000,9,100.3827972412,,,
74.7500000000,9,100.3852996826,,,
75.0000000000,9,100.3495025635,,,
75.2500000000,9,100.3584976196,,,
75.5000000000,9,100.3993988037,,,
75.7500000000,9,100.3968963623,,,
76.0000000000,9,100.4084014893,,,
76.2500000000,9,100.4301986694,,,
76.5000000000,9,100.7687988281,,,
76.7500000000,9,100.8455963135,,,
77.0000000000,9,100.7842025757,,,
77.2500000000,9,100.8302993774,,,
77.5000000000,9,100.8648986816,,,
77.7500000000,9,100.8379974365,,,
78.0000000000,9,100.8085021973,,,
78.2500000000,9,100.8085021973,,,
78.5000000000,9,100.8455963135,,,
78.7500000000,9,100.8290023804,,,
79.0000000000,9,100.8290023804,,,
79.2500000000,9,100.8162002563,,,
79.5000000000,9,100.8264007568,,,
79.7500000000,9,100.8431015015,,,
80.0000000000,10,100.8021011353,,,
80.2500000000,10,100.8455963135,,,
80.5000000000,10,100.8827972412,,,
80.7500000000,10,100.8636016846,,,
81.0000000000,10,100.8495025635,,,
81.2500000000,10,100.8545989990,,,
81.5000000000,10,100.8802032471,,,
81.7500000000,10,100.8507995605,,,
82.0000000000,10,100.8674011230,,,
82.2500000000,10,100.8545989990,,,
82.5000000000,10,100.8724975586,,,
82.7500000000,10,100.9032974243,,,
83.0000000000,10,100.8981018066,,,
83.2500000000,10,100.9237976074,,,
83.5000000000,10,101.2626037598,,,
83.7500000000,10,101.2664031982,,,
84.0000000000,10,101.2343978882,,,
84.2500000000,10,101.2612991333,,,
84.5000000000,10,101.3049011230,,,
84.7500000000,10,101.3432998657,,,
85.0000000000,10,101.3151016235,,,
85.2500000000,10,101.2985000610,,,
85.5000000000,10,101.3113021851,,,
85.7500000000,10,101.3356018066,,,
86.0000000000,10,101.3125000000,,,
86.2500000000,10,101.3240966797,,,
86.5000000000,10,101.3190002441,,,
86.7500000000,10,101.3240966797,,,
87.0000000000,10,101.3151016235,,,
87.2500000000,10,101.3304977417,,,
87.5000000000,10,101.3663024902,,,
87.7500000000,10,101.3868026733,,,
88.0000000000,11,101.3497009277,,,
88.2500000000,11,101.3945007324,,,
88.5000000000,11,101.3830032349,,,
88.7500000000,11,101.4048004150,,,
89.0000000000,11,101.3907012939,,,
89.2500000000,11,101.3918991089,,,
89.5000000000,11,101.3714981079,,,
89.7500000000,11,101.3854980469,,,
90.0000000000,11,101.4009017944,,,
90.2500000000,11,101.3854980469,,,
90.5000000000,11,101.4021987915,,,
90.7500000000,11,101.4303970337,,,
91.0000000000,11,101.7716979980,,,
91.2500000000,11,101.8100967407,,,
91.5000000000,11,101.7857971191,,,
91.7500000000,11,101.8242034912,,,
92.0000000000,11,101.8075027466,,,
92.2500000000,11,101.8037033081,,,
92.5000000000,11,101.7870025635,,,
92.7500000000,11,101.7947006226,,,
93.0000000000,11,101.8357009888,,,
93.2500000000,11,101.8164978027,,,
93.5000000000,11,101.8164978027,,,
93.7500000000,11,101.8447036743,,,
94.0000000000,11,101.8255004883,,,
94.2500000000,11,101.8574981689,,,
94.5000000000,11,101.8869018555,,,
94.7500000000,11,101.8767013550,,,
95.0000000000,11,101.8485031128,,,
95.2500000000,11,101.8600006104,,,
95.5000000000,11,101.8485031128,,,
95.7500000000,11,101.8612976074,,,
96.0000000000,12,101.9022979736,,,
96.2500000000,12,101.8831024170,,,
96.5000000000,12,101.8908004761,,,
96.7500000000,12,101.9151000977,,,
97.0000000000,12,101.9074020386,,,
97.2500000000,12,101.9329986572,,,
97.5000000000,12,102.2606964111,,,
97.7500000000,12,102.3323974609,,,
98.0000000000,12,102.2837982178,,,
98.2500000000,12,102.2889022827,,,
98.5000000000,12,102.3273010254,,,
98.7500000000,12,102.3016967773,,,
99.0000000000,12,102.3323974609,,,
99.2500000000,12,102.3182983398,,,
99.5000000000,12,102.3068008423,,,
99.7500000000,12,102.2927017212,,,
100.0000000000,12,102.3042984009,,,
100.2500000000,12,102.3208999634,,,
100.5000000000,12,102.3504028320,,,
100.7500000000,12,102.3528976440,,,
101.0000000000,12,102.3196029663,,,
101.2500000000,12,102.3208999634,,,
101.5000000000,12,102.3106994629,,,
101.7500000000,12,102.3733978271,,,
102.0000000000,12,102.3849029541,,,
102.2500000000,12,102.4157028198,,,
102.5000000000,12,102.3964996338,,,
102.7500000000,12,102.4079971313,,,
103.0000000000,12,102.3926010132,,,
103.2500000000,12,102.4093017578,,,
103.5000000000,12,102.3976974487,,,
103.7500000000,12,102.4143981934,,,
104.0000000000,13,102.3849029541,,,
104.2500000000,13,102.3900985718,,,
104.5000000000,13,102.3311996460,,,
104.7500000000,13,102.3235015869,,,
105.0000000000,13,102.3656997681,,,
105.2500000000,13,102.3542022705,,,
105.5000000000,13,102.3619003296,,,
105.7500000000,13,102.3440017700,,,
106.0000000000,13,102.3528976440,,,
106.2500000000,13,102.3861999512,,,
106.5000000000,13,102.3785018921,,,
106.7500000000,13,102.3888015747,,,
107.0000000000,13,102.3938980103,,,
107.2500000000,13,102.4438018799,,,
107.5000000000,13,102.7183990479,,,
107.7500000000,13,102.7746963501,,,
108.0000000000,13,102.8348999023,,,
108.2500000000,13,102.8413009644,,,
108.5000000000,13,102.9321975708,,,
108.7500000000,13,102.8668975830,,,
109.0000000000,13,102.8515014648,,,
109.2500000000,13,102.8656005859,,,
109.5000000000,13,102.8618011475,,,
109.7500000000,13,102.8823013306,,,
110.0000000000,13,102.8630981445,,,
110.2500000000,13,102.8643035889,,,
110.5000000000,13,102.8964004517,,,
110.7500000000,13,102.8809967041,,,
111.0000000000,13,102.8630981445,,,
111.2500000000,13,102.8707962036,,,
111.5000000000,13,102.9066009521,,,
111.7500000000,13,102.8911972046,,,
112.0000000000,14,102.8835983276,,,
112.2500000000,14,102.9066009521,,,
112.5000000000,14,102.8887023926,,,
112.7500000000,14,102.8989028931,,,
113.0000000000,14,102.8541030884,,,
113.2500000000,14,102.8579025269,,,
113.5000000000,14,102.8515014648,,,
113.7500000000,14,102.8554000854,,,
114.0000000000,14,102.8439025879,,,
114.2500000000,14,102.8527984619,,,
114.5000000000,14,102.8720016479,,,
114.7500000000,14,102.8861007690,,,
115.0000000000,14,102.8630981445,,,
115.2500000000,14,102.8451004028,,,
115.5000000000,14,102.8656005859,,,
115.7500000000,14,102.9014968872,,,
116.0000000000,14,102.8771972656,,,
116.2500000000,14,102.8848037720,,,
116.5000000000,14,102.9066009521,33025:33024,116.5000000000:116.6250000000,0.0000000000:0.0000000000
116.7500000000,14,102.8975982666,,,
117.0000000000,14,102.9207000732,,,
117.2500000000,14,102.9066009521,,,
117.5000000000,14,102.8951034546,,,
117.7500000000,14,102.8809967041,,,
118.0000000000,14,102.8964004517,,,
118.2500000000,14,102.9142990112,,,
118.5000000000,14,102.9424972534,,,
118.7500000000,14,103.2863006592,,,
119.0000000000,14,103.2593994141,,,
119.2500000000,14,103.2773971558,,,
119.5000000000,14,103.3273010254,,,
119.7500000000,14,103.3580017090,,,
120.0000000000,15,103.3426971436,,,
120.2500000000,15,103.3144989014,,,
120.5000000000,15,103.3208999634,,,
120.7500000000,15,103.3349990845,,,
121.0000000000,15,103.3094024658,,,
121.2500000000,15,103.3311996460,,,
121.5000000000,15,103.3158035278,,,
121.7500000000,15,103.3171005249,,,
122.0000000000,15,103.3542022705,,,
122.2500000000,15,103.3387985229,,,
122.5000000000,15,103.3387985229,,,
122.7500000000,15,103.3132019043,,,
123.0000000000,15,103.3285980225,,,
123.2500000000,15,103.3683013916,,,
123.5000000000,15,103.3451995850,,,
123.7500000000,15,103.3464965820,,,
124.0000000000,15,103.3208999634,,,
124.2500000000,15,103.3337020874,,,
124.5000000000,15,103.3644027710,,,
124.7500000000,15,103.3542022705,,,
125.0000000000,15,103.3490982056,,,
125.2500000000,15,103.3299026489,,,
125.5000000000,15,103.3387985229,,,
125.7500000000,15,103.3656997681,,,
126.0000000000,15,103.3528976440,,,
126.2500000000,15,103.3824005127,,,
126.5000000000,15,103.4245986938,,,
126.7500000000,15,103.3952026367,,,
127.0000000000,15,103.3990020752,,,
127.2500000000,15,103.4336013794,,,
127.5000000000,15,103.4259033203,,,
127.7500000000,15,103.4105987549,,,
128.0000000000,16,103.3964996338,,,
128.2500000000,16,103.4245986938,,,
128.5000000000,16,103.4079971313,,,
128.7500000000,16,103.4336013794,,,
129.0000000000,16,103.4157028198,,,
129.2500000000,16,103.4093017578,,,
129.5000000000,16,103.3900985718,,,
129.7500000000,16,103.3861999512,,,
130.0000000000,16,103.4029006958,,,
130.2500000000,16,103.4143981934,,,
130.5000000000,16,103.4079971313,,,
130.7500000000,16,103.3759994507,,,
131.0000000000,16,103.3644027710,,,
131.2500000000,16,103.3861999512,,,
131.5000000000,16,103.3747024536,,,
131.7500000000,16,103.3976974487,,,
132.0000000000,16,103.3631973267,,,
132.2500000000,16,103.3721008301,,,
132.5000000000,16,103.4067001343,,,
132.7500000000,16,103.4029006958,,,
133.0000000000,16,103.4374008179,,,
133.2500000000,16,103.4234008789,,,
133.5000000000,16,103.4181976318,,,
133.7500000000,16,103.3964996338,,,
134.0000000000,16,103.3952026367,,,
134.2500000000,16,103.4220962524,,,
134.5000000000,16,103.4054031372,,,
134.7500000000,16,103.4040985107,,,
135.0000000000,16,103.3861999512,,,
135.2500000000,16,103.3592987061,,,
135.5000000000,16,103.3387985229,,,
135.7500000000,16,103.3976974487,,,
136.0000000000,17,103.4143981934,,,
136.2500000000,17,103.4054031372,,,
136.5000000000,17,103.4040985107,,,
136.7500000000,17,103.4362030029,,,
137.0000000000,17,103.4117965698,,,
137.2500000000,17,103.4362030029,,,
137.5000000000,17,103.4169998169,,,
137.7500000000,17,103.4207992554,,,
138.0000000000,17,103.3861999512,,,
138.2500000000,17,103.3836975098,,,
138.5000000000,17,103.4157028198,,,
138.7500000000,17,103.3990020752,,,
139.0000000000,17,103.4143981934,,,
139.2500000000,17,103.3874969482,,,
139.5000000000,17,103.4029006958,,,
139.7500000000,17,103.4322967529,,,
140.0000000000,17,103.3912963867,,,
140.2500000000,17,103.4169998169,,,
140.5000000000,17,103.4489974976,,,
140.7500000000,17,103.8448028564,,,
141.0000000000,17,103.7757034302,,,
141.2500000000,17,103.8050994873,,,
141.5000000000,17,103.8255996704,,,
141.7500000000,17,103.7974014282,,,
142.0000000000,17,103.8102035522,,,
142.2500000000,17,103.7717971802,,,
142.5000000000,17,103.7820968628,,,
142.7500000000,17,103.7538986206,,,
143.0000000000,17,103.7667007446,,,
143.2500000000,17,103.8115005493,,,
143.5000000000,17,103.7858963013,,,
143.7500000000,17,103.7845993042,,,
144.0000000000,18,103.7590026855,,,
144.2500000000,18,103.7679977417,,,
144.5000000000,18,103.8191986084,,,
144.7500000000,18,103.7898025513,,,
145.0000000000,18,103.8141021729,,,
145.2500000000,18,103.7898025513,,,
145.5000000000,18,103.7757034302,,,
145.7500000000,18,103.7347030640,,,
146.0000000000,18,103.7436981201,,,
146.2500000000,18,103.7922973633,,,
146.5000000000,18,103.8346023560,,,
146.7500000000,18,103.7858963013,,,
147.0000000000,18,103.7462005615,,,
147.2500000000,18,103.7615966797,,,
147.5000000000,18,103.8000030518,,,
147.7500000000,18,103.7757034302,,,
148.0000000000,18,103.7488021851,,,
148.2500000000,18,103.7872009277,,,
148.5000000000,18,103.7462005615,,,
148.7500000000,18,103.7474975586,,,
149.0000000000,18,103.6707000732,,,
149.2500000000,18,103.6782989502,,,
149.5000000000,18,103.6334991455,,,
149.7500000000,18,103.6489028931,,,
150.0000000000,18,103.6873016357,,,
150.2500000000,18,103.6616973877,,,
150.5000000000,18,103.6437988281,,,
150.7500000000,18,103.6732025146,,,
151.0000000000,18,103.6386032104,,,
151.2500000000,18,103.6668014526,,,
151.5000000000,18,103.6194000244,,,
151.7500000000,18,103.6091995239,,,
152.0000000000,19,103.5963973999,,,
152.2500000000,19,103.6053009033,,,
152.5000000000,19,103.6348037720,,,
152.7500000000,19,103.5720977783,,,
153.0000000000,19,103.5874023438,,,
153.2500000000,19,103.5553970337,,,
153.5000000000,19,103.5720977783,,,
153.7500000000,19,103.6284027100,,,
154.0000000000,19,103.5951004028,,,
154.2500000000,19,103.5822982788,,,
154.5000000000,19,103.6079025269,,,
154.7500000000,19,103.5438995361,,,
155.0000000000,19,103.6079025269,,,
155.2500000000,19,103.5836029053,,,
155.5000000000,19,103.5758972168,,,
155.7500000000,19,103.5362014771,,,
156.0000000000,19,103.5451965332,,,
156.2500000000,19,103.5924987793,,,
156.5000000000,19,103.5656967163,,,
156.7500000000,19,103.5656967163,,,
157.0000000000,19,103.5285034180,,,
157.2500000000,19,103.5298004150,,,
157.5000000000,19,103.4938964844,,,
157.7500000000,19,103.5119018555,,,
158.0000000000,19,103.5591964722,,,
158.2500000000,19,103.5055007935,,,
158.5000000000,19,103.4721984863,,,
158.7500000000,19,103.5271987915,,,
159.0000000000,19,103.5183029175,,,
159.2500000000,19,103.5143966675,,,
159.5000000000,19,103.5528030396,,,
159.7500000000,19,103.5016021729,,,
160.0000000000,20,103.5758972168,,,
160.2500000000,20,103.5541000366,,,
160.5000000000,20,103.5451965332,,,
160.7500000000,20,103.5913009644,,,
161.0000000000,20,103.5476989746,,,
161.2500000000,20,103.5695037842,,,
161.5000000000,20,103.5066986084,,,
161.7500000000,20,103.5183029175,,,
162.0000000000,20,103.4938964844,,,
162.2500000000,20,103.4978027344,,,
162.5000000000,20,103.5695037842,,,
162.7500000000,20,103.5567016602,,,
163.0000000000,20,103.5796966553,,,
163.2500000000,20,103.6475982666,,,
163.5000000000,20,103.6246032715,,,
163.7500000000,20,103.6757965088,,,
164.0000000000,20,103.6373977661,,,
164.2500000000,20,103.6015014648,,,
164.5000000000,20,103.5924987793,,,
164.7500000000,20,103.6821975708,,,
165.0000000000,20,103.7640991211,,,
165.2500000000,20,103.7590026855,,,
165.5000000000,20,103.6694030762,,,
165.7500000000,20,103.7142028809,,,
166.0000000000,20,103.6694030762,,,
166.2500000000,20,103.6539993286,,,
166.5000000000,20,103.6937026978,,,
166.7500000000,20,103.6552963257,,,
167.0000000000,20,103.6220016479,,,
167.2500000000,20,103.6425018311,,,
167.5000000000,20,103.6616973877,,,
167.7500000000,20,103.5836029053,,,
168.0000000000,21,103.5579986572,,,
168.2500000000,21,103.5464019775,,,
168.5000000000,21,103.5708007813,,,
168.7500000000,21,103.6361007690,,,
169.0000000000,21,103.6027984619,,,
169.2500000000,21,103.6041030884,,,
169.5000000000,21,103.6451034546,,,
169.7500000000,21,103.6220016479,,,
170.0000000000,21,103.6284027100,,,
170.2500000000,21,103.5733032227,,,
170.5000000000,21,103.5720977783,,,
170.7500000000,21,103.5400009155,,,
171.0000000000,21,103.5617980957,,,
171.2500000000,21,103.6143035889,,,
171.5000000000,21,103.6732025146,,,
171.7500000000,21,103.6182022095,,,
172.0000000000,21,103.5746002197,,,
172.2500000000,21,103.5643997192,,,
172.5000000000,21,103.6220016479,,,
172.7500000000,21,103.5886993408,,,
173.0000000000,21,103.5681991577,,,
173.2500000000,21,103.5271987915,,,
173.5000000000,21,103.4875030518,,,
173.7500000000,21,103.5746002197,,,
174.0000000000,21,103.5324020386,,,
174.2500000000,21,103.5362014771,,,
174.5000000000,21,103.5105972290,,,
174.7500000000,21,103.5093002319,,,
175.0000000000,21,103.5758972168,,,
175.2500000000,21,103.5388031006,,,
175.5000000000,21,103.5490036011,,,
175.7500000000,21,103.5143966675,,,
176.0000000000,22,103.5362014771,,,
176.2500000000,22,103.5221023560,,,
176.5000000000,22,103.5784988403,,,
176.7500000000,22,103.5528030396,,,
177.0000000000,22,103.6041030884,,,
177.2500000000,22,103.5656967163,,,
177.5000000000,22,103.5541000366,,,
177.7500000000,22,103.5924987793,,,
178.0000000000,22,103.5183029175,,,
178.2500000000,22,103.6296997070,,,
178.5000000000,22,103.6156005859,,,
178.7500000000,22,103.5886993408,,,
179.0000000000,22,103.6027984619,,,
179.2500000000,22,103.5310974121,,,
179.5000000000,22,103.5553970337,,,
179.7500000000,22,103.4990997314,,,
180.0000000000,22,103.4721984863,,,
180.2500000000,22,103.5579986572,,,
180.5000000000,22,103.5298004150,,,
180.7500000000,22,103.5246963501,,,
181.0000000000,22,103.5656967163,,,
181.2500000000,22,103.5374984741,,,
181.5000000000,22,103.5400009155,,,
181.7500000000,22,103.5016021729,,,
182.0000000000,22,103.5066986084,,,
182.2500000000,22,103.5503005981,,,
182.5000000000,22,103.5207977295,,,
182.7500000000,22,103.5042037964,,,
183.0000000000,22,103.4606018066,,,
183.2500000000,22,103.4657974243,,,
183.5000000000,22,103.5335998535,,,
183.7500000000,22,103.4926986694,,,
184.0000000000,23,103.4900970459,,,
184.2500000000,23,103.4632034302,,,
184.5000000000,23,103.4695968628,,,
184.7500000000,23,103.5207977295,,,
185.0000000000,23,103.4542007446,,,
185.2500000000,23,103.4542007446,,,
185.5000000000,23,103.4222030640,,,
185.7500000000,23,103.4299011230,,,
186.0000000000,23,103.4695968628,,,
186.2500000000,23,103.4938964844,,,
186.5000000000,23,103.4593963623,,,
186.7500000000,23,103.4197006226,,,
187.0000000000,23,103.4349975586,,,
187.2500000000,23,103.4797973633,,,
187.5000000000,23,103.4504013062,,,
187.7500000000,23,103.4427032471,,,
188.0000000000,23,103.4158020020,,,
188.2500000000,23,103.4197006226,,,
188.5000000000,23,103.4797973633,,,
188.7500000000,23,103.4618988037,,,
189.0000000000,23,103.4580993652,,,
189.2500000000,23,103.4337005615,,,
189.5000000000,23,103.4938964844,,,
189.7500000000,23,103.4670028687,,,
190.0000000000,23,103.4029998779,,,
190.2500000000,23,103.4132995605,,,
190.5000000000,23,103.3851013184,,,
190.7500000000,23,103.3979034424,,,
191.0000000000,23,103.4721984863,,,
191.2500000000,23,103.5335998535,,,
191.5000000000,23,103.4862976074,,,
191.7500000000,23,103.5246963501,,,
192.0000000000,24,103.4773025513,,,
192.2500000000,24,103.5335998535,,,
192.5000000000,24,103.5016021729,,,
192.7500000000,24,103.4862976074,,,
193.0000000000,24,103.4235000610,,,
193.2500000000,24,103.4837036133,,,
193.5000000000,24,103.5183029175,,,
193.7500000000,24,103.5490036011,,,
194.0000000000,24,103.4645004272,,,
194.2500000000,24,103.4120025635,,,
194.5000000000,24,103.4682998657,,,
194.7500000000,24,103.5899963379,,,
195.0000000000,24,103.5157012939,,,
195.2500000000,24,103.4938964844,,,
195.5000000000,24,103.4529037476,,,
195.7500000000,24,103.4477996826,,,
196.0000000000,24,103.4952011108,,,
196.2500000000,24,103.4618988037,,,
196.5000000000,24,103.4542007446,,,
196.7500000000,24,103.3979034424,,,
197.0000000000,24,103.3607025146,,,
197.2500000000,24,103.4247970581,,,
197.5000000000,24,103.3696975708,,,
197.7500000000,24,103.3710021973,,,
198.0000000000,24,103.3671035767,,,
198.2500000000,24,103.3760986328,,,
198.5000000000,24,103.4184036255,,,
198.7500000000,24,103.3646011353,,,
199.0000000000,24,103.3632965088,,,
199.2500000000,24,103.3326034546,,,
199.5000000000,24,103.3619995117,,,
199.7500000000,24,103.3953018188,,,
200.0000000000,25,103.3209991455,,,
200.2500000000,25,103.3350982666,,,
200.5000000000,25,103.3787002563,,,
200.7500000000,25,103.3531036377,,,
201.0000000000,25,103.3479003906,,,
201.2500000000,25,103.3198013306,,,
201.5000000000,25,103.3364028931,,,
201.7500000000,25,103.3710021973,,,
202.0000000000,25,103.3209991455,,,
202.2500000000,25,103.3312988281,,,
202.5000000000,25,103.3145980835,,,
202.7500000000,25,103.2813034058,,,
203.0000000000,25,103.2673034668,,,
203.2500000000,25,103.2442016602,,,
203.5000000000,25,103.3262023926,,,
203.7500000000,25,103.3953018188,,,
204.0000000000,25,103.3531036377,,,
204.2500000000,25,103.3209991455,,,
204.5000000000,25,103.3145980835,,,
204.7500000000,25,103.3774032593,,,
205.0000000000,25,103.3441009521,,,
205.2500000000,25,103.3300018311,,,
205.5000000000,25,103.3774032593,,,
205.7500000000,25,103.3491973877,,,
206.0000000000,25,103.3915023804,,,
206.2500000000,25,103.3619995117,,,
206.5000000000,25,103.3607025146,,,
206.7500000000,25,103.3350982666,,,
207.0000000000,25,103.3389968872,,,
207.2500000000,25,103.3824996948,,,
207.5000000000,25,103.3555984497,,,
207.7500000000,25,103.3441009521,,,
208.0000000000,26,103.3121032715,,,
208.2500000000,26,103.3223037720,,,
208.5000000000,26,103.3491973877,,,
208.7500000000,26,103.2800979614,,,
209.0000000000,26,103.2929000854,,,
209.2500000000,26,103.2545013428,,,
209.5000000000,26,103.2160034180,,,
209.7500000000,26,103.2044982910,,,
210.0000000000,26,103.1865997314,,,
210.2500000000,26,103.2365036011,,,
210.5000000000,26,103.2659988403,,,
210.7500000000,26,103.2531967163,,,
211.0000000000,26,103.2185974121,,,
211.2500000000,26,103.2237014771,,,
211.5000000000,26,103.2788009644,,,
211.7500000000,26,103.2595977783,,,
212.0000000000,26,103.2595977783,,,
212.2500000000,26,103.2390975952,,,
212.5000000000,26,103.2365036011,,,
212.7500000000,26,103.2954025269,,,
213.0000000000,26,103.2647018433,,,
213.2500000000,26,103.3057022095,,,
213.5000000000,26,103.2761993408,,,
213.7500000000,26,103.2545013428,,,
214.0000000000,26,103.2185974121,,,
214.2500000000,26,103.2838973999,,,
214.5000000000,26,103.2929000854,,,
214.7500000000,26,103.2070999146,,,
215.0000000000,26,103.2121963501,,,
215.2500000000,26,103.2761993408,,,
215.5000000000,26,103.2313995361,,,
215.7500000000,26,103.2774963379,,,
216.0000000000,27,103.2404022217,,,
216.2500000000,27,103.2351989746,,,
216.5000000000,27,103.2020034790,,,
216.7500000000,27,103.1712036133,,,
217.0000000000,27,103.2199020386,,,
217.2500000000,27,103.2160034180,,,
217.5000000000,27,103.2185974121,,,
217.7500000000,27,103.1942977905,,,
218.0000000000,27,103.1865997314,,,
218.2500000000,27,103.2276000977,,,
218.5000000000,27,103.2020034790,,,
218.7500000000,27,103.2058029175,,,
219.0000000000,27,103.1878967285,,,
219.2500000000,27,103.1455993652,,,
219.5000000000,27,103.1353988647,,,
219.7500000000,27,103.1417999268,,,
220.0000000000,27,103.1865997314,,,
220.2500000000,27,103.1341018677,,,
220.5000000000,27,103.1174011230,,,
220.7500000000,27,103.0957031250,,,
221.0000000000,27,103.0840988159,,,
221.2500000000,27,103.1584014893,,,
221.5000000000,27,103.1482009888,,,
221.7500000000,27,103.1250991821,,,
222.0000000000,27,103.0931015015,,,
222.2500000000,27,103.1122970581,,,
222.5000000000,27,103.1507034302,,,
222.7500000000,27,103.1891021729,,,
223.0000000000,27,103.1200027466,,,
223.2500000000,27,103.1072006226,,,
223.5000000000,27,103.1789016724,,,
223.7500000000,27,103.1891021729,,,
224.0000000000,28,103.1341018677,,,
224.2500000000,28,103.1379013062,,,
224.5000000000,28,103.1084976196,,,
224.7500000000,28,103.1136016846,,,
225.0000000000,28,103.1532974243,,,
225.2500000000,28,103.1341018677,,,
225.5000000000,28,103.1353988647,,,
225.7500000000,28,103.1763000488,,,
226.0000000000,28,103.1455993652,,,
226.2500000000,28,103.1673965454,,,
226.5000000000,28,103.1493988037,,,
226.7500000000,28,103.1468963623,,,
227.0000000000,28,103.1212997437,,,
227.2500000000,28,103.1212997437,,,
227.5000000000,28,103.1532974243,,,
227.7500000000,28,103.1160964966,,,
228.0000000000,28,103.0957031250,,,
228.2500000000,28,103.0712966919,,,
228.5000000000,28,103.0354995728,,,
228.7500000000,28,103.0904998779,,,
229.0000000000,28,103.0752029419,,,
229.2500000000,28,103.1033020020,,,
229.5000000000,28,103.0469970703,,,
229.7500000000,28,103.0111007690,,,
230.0000000000,28,103.0098037720,,,
230.2500000000,28,103.0995025635,,,
230.5000000000,28,103.1097030640,,,
230.7500000000,28,103.0366973877,,,
231.0000000000,28,103.0431976318,,,
231.2500000000,28,103.0867004395,,,
231.5000000000,28,103.0610961914,,,
231.7500000000,28,103.0957031250,,,
232.0000000000,29,103.0712966919,,,
232.2500000000,29,103.0712966919,,,
232.5000000000,29,103.0559997559,,,
232.7500000000,29,103.0904998779,,,
233.0000000000,29,103.1122970581,,,
233.2500000000,29,103.0904998779,,,
233.5000000000,29,103.0790023804,,,
233.7500000000,29,103.0495986938,,,
234.0000000000,29,103.0547027588,,,
234.2500000000,29,103.0892028809,,,
234.5000000000,29,103.0239028931,,,
234.7500000000,29,103.0328979492,,,
235.0000000000,29,103.0059967041,,,
235.2500000000,29,102.9841995239,,,
235.5000000000,29,102.9816970825,,,
235.7500000000,29,102.9713973999,,,
236.0000000000,29,103.0123977661,,,
236.2500000000,29,102.9753036499,,,
236.5000000000,29,102.9918975830,,,
236.7500000000,29,102.9830017090,,,
237.0000000000,29,102.9970016479,,,
237.2500000000,29,103.0931015015,,,
237.5000000000,29,103.1122970581,,,
237.7500000000,29,103.0662002563,,,
238.0000000000,29,103.0328979492,,,
238.2500000000,29,103.0892028809,,,
238.5000000000,29,103.0943984985,,,
238.7500000000,29,103.0521011353,,,
239.0000000000,29,103.0278015137,,,
239.2500000000,29,103.0624008179,,,
239.5000000000,29,103.0354995728,,,
239.7500000000,29,103.0662002563,,,
240.0000000000,30,103.0316009521,,,
240.2500000000,30,103.0239028931,,,
240.5000000000,30,102.9996032715,,,
240.7500000000,30,103.0137023926,,,
241.0000000000,30,103.0624008179,,,
241.2500000000,30,103.0507965088,,,
241.5000000000,30,103.0406036377,,,
241.7500000000,30,103.0137023926,,,
242.0000000000,30,103.0328979492,,,
242.2500000000,30,103.0879974365,,,
242.5000000000,30,103.0726013184,,,
242.7500000000,30,103.1570968628,,,
243.0000000000,30,103.0764007568,,,
243.2500000000,30,103.0662002563,,,
243.5000000000,30,103.0316009521,,,
243.7500000000,30,103.0046997070,,,
244.0000000000,30,103.0457000732,,,
244.2500000000,30,103.0931015015,,,
244.5000000000,30,103.0521011353,,,
244.7500000000,30,103.0316009521,,,
245.0000000000,30,103.0354995728,,,
245.2500000000,30,103.0879974365,,,
245.5000000000,30,103.0175018311,,,
245.7500000000,30,103.0239028931,,,
246.0000000000,30,103.0059967041,,,
246.2500000000,30,103.0111007690,,,
246.5000000000,30,103.0585021973,,,
246.7500000000,30,103.0366973877,,,
247.0000000000,30,103.0316009521,,,
247.2500000000,30,103.0597991943,,,
247.5000000000,30,103.0392990112,,,
247.7500000000,30,103.0674972534,,,
248.0000000000,31,103.0380020142,,,
248.2500000000,31,103.0302963257,,,
248.5000000000,31,103.0111007690,,,
248.7500000000,31,103.0316009521,,,
249.0000000000,31,103.0034027100,,,
249.2500000000,31,103.0021972656,,,
249.5000000000,31,103.0342025757,,,
249.7500000000,31,103.0828018188,,,
250.0000000000,31,103.0328979492,,,
250.2500000000,31,102.9996032715,,,
250.5000000000,31,103.0123977661,,,
250.7500000000,31,103.0495986938,,,
251.0000000000,31,102.9854965210,,,
251.2500000000,31,102.9548034668,,,
251.5000000000,31,102.6537017822,,,
251.7500000000,31,102.6358032227,,,
252.0000000000,31,102.6690979004,,,
252.2500000000,31,102.7074966431,,,
252.5000000000,31,102.6754989624,,,
252.7500000000,31,102.6959991455,,,
253.0000000000,31,102.6563034058,,,
253.2500000000,31,102.7049026489,,,
253.5000000000,31,102.7612991333,,,
253.7500000000,31,102.7164001465,,,
254.0000000000,31,102.6806030273,,,
254.2500000000,31,102.6549987793,,,
254.5000000000,31,102.7240982056,,,
254.7500000000,31,102.7791976929,,,
255.0000000000,31,102.7317962646,,,
255.2500000000,31,102.6844024658,,,
255.5000000000,31,102.6766967773,,,
255.7500000000,31,102.7292022705,,,
256.0000000000,32,102.7126007080,,,
256.2500000000,32,102.8227005005,,,
256.5000000000,32,102.8175964355,,,
256.7500000000,32,102.7626037598,,,
257.0000000000,32,102.7099990845,,,
257.2500000000,32,102.7164001465,,,
257.5000000000,32,102.7574005127,,,
257.7500000000,32,102.7138977051,,,
258.0000000000,32,102.7138977051,,,
258.2500000000,32,102.7586975098,,,
258.5000000000,32,102.7266998291,,,
258.7500000000,32,102.7497024536,,,
259.0000000000,32,102.6921005249,,,
259.2500000000,32,102.6856994629,,,
259.5000000000,32,102.6370010376,,,
259.7500000000,32,102.6153030396,,,
260.0000000000,32,102.6050033569,,,
260.2500000000,32,102.5768966675,,,
260.5000000000,32,102.5972976685,,,
260.7500000000,32,102.5884017944,,,
261.0000000000,32,102.5793991089,,,
261.2500000000,32,102.5627975464,,,
261.5000000000,32,102.5652999878,,,
261.7500000000,32,102.6127014160,,,
262.0000000000,32,102.6241989136,,,
262.2500000000,32,102.6690979004,,,
262.5000000000,32,102.6549987793,,,
262.7500000000,32,102.6241989136,,,
263.0000000000,32,102.6063003540,,,
263.2500000000,32,102.6613998413,,,
263.5000000000,32,102.6792984009,,,
263.7500000000,32,102.7152023315,,,
264.0000000000,33,102.6421966553,,,
264.2500000000,33,102.6089019775,,,
264.5000000000,33,102.5832977295,,,
264.7500000000,33,102.6318969727,,,
265.0000000000,33,102.5679016113,,,
265.2500000000,33,102.5755996704,,,
265.5000000000,33,102.5538024902,,,
265.7500000000,33,102.5231018066,,,
266.0000000000,33,102.5781021118,,,
266.2500000000,33,102.5255966187,,,
266.5000000000,33,102.5269012451,,,
266.7500000000,33,102.5205001831,,,
267.0000000000,33,102.5167007446,,,
267.2500000000,33,102.5447998047,,,
267.5000000000,33,102.5114974976,,,
267.7500000000,33,102.4949035645,,,
268.0000000000,33,102.4730987549,,,
268.2500000000,33,102.4680023193,,,
268.5000000000,33,102.4935989380,,,
268.7500000000,33,102.4475021362,,,
269.0000000000,33,102.1024017334,,,
269.2500000000,33,102.0742034912,,,
269.5000000000,33,102.0780029297,,,
269.7500000000,33,102.1203002930,,,
270.0000000000,33,102.0933990479,,,
270.2500000000,33,102.0947036743,,,
270.5000000000,33,102.1433029175,,,
270.7500000000,33,102.1279983521,,,
271.0000000000,33,102.1701965332,,,
271.2500000000,33,102.1100997925,,,
271.5000000000,33,102.1267013550,,,
271.7500000000,33,102.1100997925,,,
272.0000000000,34,102.1267013550,,,
272.2500000000,34,102.1843032837,,,
272.5000000000,34,102.1561965942,,,
272.7500000000,34,102.1625976563,,,
273.0000000000,34,102.1433029175,,,
273.2500000000,34,102.1369018555,,,
273.5000000000,34,102.1753997803,,,
273.7500000000,34,102.1151962280,,,
274.0000000000,34,102.1203002930,,,
274.2500000000,34,102.1062011719,,,
274.5000000000,34,102.1088027954,,,
274.7500000000,34,102.1381988525,,,
275.0000000000,34,102.1203002930,,,
275.2500000000,34,102.1062011719,,,
275.5000000000,34,102.0805969238,,,
275.7500000000,34,102.0792999268,,,
276.0000000000,34,102.1229019165,,,
276.2500000000,34,102.1062011719,,,
276.5000000000,34,102.0998001099,,,
276.7500000000,34,102.1138992310,,,
277.0000000000,34,102.1036987305,,,
277.2500000000,34,102.1356964111,,,
277.5000000000,34,102.1036987305,,,
277.7500000000,34,102.0895996094,,,
278.0000000000,34,102.0703964233,,,
278.2500000000,34,102.0614013672,,,
278.5000000000,34,102.0947036743,,,
278.7500000000,34,102.0883026123,,,
279.0000000000,34,102.0575027466,,,
279.2500000000,34,102.0767974854,,,
279.5000000000,34,102.0459976196,,,
279.7500000000,34,102.0755004883,,,
280.0000000000,35,102.0473022461,,,
280.2500000000,35,102.0294036865,,,
280.5000000000,35,102.0690994263,,,
280.7500000000,35,102.0345001221,,,
281.0000000000,35,102.0254974365,,,
281.2500000000,35,101.9973983765,,,
281.5000000000,35,102.0011978149,,,
281.7500000000,35,102.0357971191,,,
282.0000000000,35,102.0025024414,,,
282.2500000000,35,101.9973983765,,,
282.5000000000,35,102.0268020630,,,
282.7500000000,35,101.9999008179,,,
283.0000000000,35,102.0242996216,,,
283.2500000000,35,101.9985961914,,,
283.5000000000,35,101.9961013794,,,
283.7500000000,35,102.0294036865,,,
284.0000000000,35,101.9973983765,,,
284.2500000000,35,102.0318984985,,,
284.5000000000,35,101.9781036377,,,
284.7500000000,35,101.9806976318,,,
285.0000000000,35,101.9692001343,,,
285.2500000000,35,101.9679031372,,,
285.5000000000,35,101.9884033203,,,
285.7500000000,35,101.9627990723,,,
286.0000000000,35,101.9601974487,,,
286.2500000000,35,101.9410018921,,,
286.5000000000,35,101.5908966064,,,
286.7500000000,35,101.6344985962,,,
287.0000000000,35,101.6230010986,,,
287.2500000000,35,101.6166000366,,,
287.5000000000,35,101.6166000366,,,
287.7500000000,35,101.6396026611,,,
288.0000000000,36,101.6921005249,,,
288.2500000000,36,101.6742019653,,,
288.5000000000,36,101.6678009033,,,
288.7500000000,36,101.6473007202,,,
289.0000000000,36,101.6549987793,,,
289.2500000000,36,101.6959991455,,,
289.5000000000,36,101.6434020996,,,
289.7500000000,36,101.6575012207,,,
290.0000000000,36,101.6294021606,,,
290.2500000000,36,101.6434020996,,,
290.5000000000,36,101.6933975220,,,
290.7500000000,36,101.6626968384,,,
291.0000000000,36,101.6575012207,,,
291.2500000000,36,101.6294021606,,,
291.5000000000,36,101.6408996582,,,
291.7500000000,36,101.6895980835,,,
292.0000000000,36,101.6754989624,,,
292.2500000000,36,101.7164001465,,,
292.5000000000,36,101.7612991333,,,
292.7500000000,36,101.7113037109,,,
293.0000000000,36,101.7279968262,,,
293.2500000000,36,101.6575012207,,,
293.5000000000,36,101.7612991333,,,
293.7500000000,36,101.6626968384,,,
294.0000000000,36,101.6216964722,,,
294.2500000000,36,101.6664962769,,,
294.5000000000,36,101.6460037231,,,
294.7500000000,36,101.6792984009,,,
295.0000000000,36,101.6473007202,,,
295.2500000000,36,101.6011962891,,,
295.5000000000,36,101.5870971680,,,
295.7500000000,36,101.5960998535,,,
296.0000000000,37,101.6318969727,,,
296.2500000000,37,101.5717010498,,,
296.5000000000,37,101.5845031738,,,
296.7500000000,37,101.5602035522,,,
297.0000000000,37,101.5307998657,,,
297.2500000000,37,101.5845031738,,,
297.5000000000,37,101.5307998657,,,
297.7500000000,37,101.5410003662,,,
298.0000000000,37,101.5243988037,,,
298.2500000000,37,101.5255966187,,,
298.5000000000,37,101.5781021118,,,
298.7500000000,37,101.5563964844,,,
299.0000000000,37,101.5397033691,,,
299.2500000000,37,101.4987030029,,,
299.5000000000,37,101.4910964966,,,
299.7500000000,37,101.5372009277,,,
300.0000000000,37,101.5064010620,,,
300.2500000000,37,101.5050964355,,,
300.5000000000,37,101.4654006958,,,
300.7500000000,37,101.4373016357,,,
301.0000000000,37,101.4296035767,,,
301.2500000000,37,101.1109008789,,,
301.5000000000,37,101.1518020630,,,
301.7500000000,37,101.1979980469,,,
302.0000000000,37,101.1352005005,,,
302.2500000000,37,101.1197967529,,,
302.5000000000,37,101.1530990601,,,
302.7500000000,37,101.1800003052,,,
303.0000000000,37,101.1352005005,,,
303.2500000000,37,101.1378021240,,,
303.5000000000,37,101.1890029907,,,
303.7500000000,37,101.1621017456,,,
304.0000000000,38,101.1569976807,,,
304.2500000000,38,101.2017974854,,,
304.5000000000,38,101.1723022461,,,
304.7500000000,38,101.2222976685,,,
305.0000000000,38,101.1735992432,,,
305.2500000000,38,101.1748962402,,,
305.5000000000,38,101.1480026245,,,
305.7500000000,38,101.1530990601,,,
306.0000000000,38,101.1914978027,,,
306.2500000000,38,101.1659011841,,,
306.5000000000,38,101.1569976807,,,
306.7500000000,38,101.1928024292,,,
307.0000000000,38,101.1300964355,,,
307.2500000000,38,101.1671981812,,,
307.5000000000,38,101.1095962524,,,
307.7500000000,38,101.1134033203,,,
308.0000000000,38,101.1032028198,,,
308.2500000000,38,101.1109008789,,,
308.5000000000,38,101.1492996216,,,
308.7500000000,38,101.1275024414,,,
309.0000000000,38,101.0891036987,,,
309.2500000000,38,101.1197967529,,,
309.5000000000,38,101.1685028076,,,
309.7500000000,38,101.1389999390,,,
310.0000000000,38,101.1095962524,,,
310.2500000000,38,101.1109008789,,,
310.5000000000,38,101.1428985596,,,
310.7500000000,38,101.1261978149,,,
311.0000000000,38,101.1134033203,,,
311.2500000000,38,101.0877990723,,,
311.5000000000,38,101.0954971313,,,
311.7500000000,38,101.1261978149,,,
312.0000000000,39,101.0686035156,,,
312.2500000000,39,101.0749969482,,,
312.5000000000,39,101.1095962524,,,
312.7500000000,39,101.0891036987,,,
313.0000000000,39,101.1185989380,,,
313.2500000000,39,101.0481033325,,,
313.5000000000,39,101.0608978271,,,
313.7500000000,39,101.0429992676,,,
314.0000000000,39,101.0494003296,,,
314.2500000000,39,101.0839996338,,,
314.5000000000,39,101.0622024536,,,
314.7500000000,39,101.0134963989,,,
315.0000000000,39,100.9764022827,,,
315.2500000000,39,101.0033035278,,,
315.5000000000,39,101.0134963989,,,
315.7500000000,39,100.9969024658,,,
316.0000000000,39,101.0019989014,,,
316.2500000000,39,101.0531997681,,,
316.5000000000,39,101.0326995850,,,
316.7500000000,39,101.0289001465,,,
317.0000000000,39,101.0071029663,,,
317.2500000000,39,101.0122985840,,,
317.5000000000,39,101.0596008301,,,
317.7500000000,39,101.0403976440,,,
318.0000000000,39,101.0301971436,,,
318.2500000000,39,101.0787963867,,,
318.5000000000,39,101.0558013916,,,
318.7500000000,39,101.0877990723,,,
319.0000000000,39,101.0647964478,,,
319.2500000000,39,101.0186996460,,,
319.5000000000,39,100.9994964600,,,
319.7500000000,39,101.0071029663,,,
320.0000000000,40,101.0506973267,,,
320.2500000000,40,100.9866027832,,,
320.5000000000,40,101.0007019043,,,
320.7500000000,40,100.9750976563,,,
321.0000000000,40,100.9585037231,,,
321.2500000000,40,101.0007019043,,,
321.5000000000,40,100.9789962769,,,
321.7500000000,40,100.9929962158,,,
322.0000000000,40,100.9738006592,,,
322.2500000000,40,100.9789962769,,,
322.5000000000,40,101.0584030151,,,
322.7500000000,40,100.9828033447,,,
323.0000000000,40,101.0186996460,,,
323.2500000000,40,100.9878997803,,,
323.5000000000,40,101.0212020874,,,
323.7500000000,40,100.9841003418,,,
324.0000000000,40,100.9750976563,,,
324.2500000000,40,101.0160980225,,,
324.5000000000,40,100.9814987183,,,
324.7500000000,40,101.0224990845,,,
325.0000000000,40,100.9943008423,,,
325.2500000000,40,100.9866027832,,,
325.5000000000,40,100.9623031616,,,
325.7500000000,40,100.9559020996,,,
326.0000000000,40,100.9866027832,,,
326.2500000000,40,100.9726028442,,,
326.5000000000,40,100.9662017822,,,
326.7500000000,40,100.9380035400,,,
327.0000000000,40,100.9443969727,,,
327.2500000000,40,100.9673995972,,,
327.5000000000,40,100.9495010376,,,
327.7500000000,40,100.9571990967,,,
328.0000000000,41,101.0391006470,,,
328.2500000000,41,100.9764022827,,,
328.5000000000,41,100.9609985352,,,
328.7500000000,41,100.9789962769,,,
329.0000000000,41,100.9609985352,,,
329.2500000000,41,101.0110015869,,,
329.5000000000,41,100.9981994629,,,
329.7500000000,41,101.0827026367,,,
330.0000000000,41,100.9648971558,,,
330.2500000000,41,100.9571990967,,,
330.5000000000,41,100.9380035400,,,
330.7500000000,41,100.9136962891,,,
331.0000000000,41,100.6055984497,,,
331.2500000000,41,100.5671997070,,,
331.5000000000,41,100.6248016357,,,
331.7500000000,41,100.5736007690,,,
332.0000000000,41,100.5979995728,,,
332.2500000000,41,100.7195968628,33025:33024:33025,332.2812500000:332.3437500000:332.4687500000,0.0000000000:0.0000000000:0.0000000000
332.5000000000,41,100.6542968750,33024:33025,332.5625000000:332.6562500000,0.0000000000:0.0000000000
332.7500000000,41,100.6825027466,33024:33025:33024,332.7500000000:332.8437500000:332.9687500000,0.0000000000:0.0000000000:0.0000000000
333.0000000000,41,100.6453018188,,,
333.2500000000,41,100.6146011353,,,
333.5000000000,41,100.5518035889,,,
333.7500000000,41,100.5147018433,,,
334.0000000000,41,100.5300979614,,,
334.2500000000,41,100.4813995361,,,
334.5000000000,41,100.4699020386,,,
334.7500000000,41,100.4456024170,,,
335.0000000000,41,100.4301986694,,,
335.2500000000,41,100.1309967041,,,
335.5000000000,41,100.0901031494,,,
335.7500000000,41,100.0951995850,,,
336.0000000000,42,100.0861968994,,,
336.2500000000,42,100.1387023926,,,
336.5000000000,42,100.1707000732,,,
336.7500000000,42,100.1514968872,,,
337.0000000000,42,100.1783981323,,,
337.2500000000,42,100.1221008301,,,
337.5000000000,42,100.0875015259,,,
337.7500000000,42,100.0759963989,,,
338.0000000000,42,100.1514968872,,,
338.2500000000,42,100.1707000732,,,
338.5000000000,42,99.7827072144,,,
338.7500000000,42,99.2801513672,,,
339.0000000000,42,98.7787780762,,,
339.2500000000,42,98.2761764526,,,
339.5000000000,42,97.7752990723,,,
339.7500000000,42,97.2741699219,,,
340.0000000000,42,96.7741165161,,,
340.2500000000,42,96.2727432251,,,
340.5000000000,42,95.7692337036,,,
340.7500000000,42,95.2695236206,,,
341.0000000000,42,94.7662124634,,,
341.2500000000,42,94.2420272827,,,
341.5000000000,42,93.7428436279,,,
341.7500000000,42,93.2409286499,,,
342.0000000000,42,92.7414932251,,,
342.2500000000,42,92.2425003052,,,
342.5000000000,42,91.7397994995,,,
342.7500000000,42,91.2371673584,,,
343.0000000000,42,91.2317810059,,,
343.2500000000,42,91.4930267334,,,
343.5000000000,42,91.4789428711,,,
343.7500000000,42,91.4482116699,,,
344.0000000000,43,91.3034973145,,,
344.2500000000,43,91.3111801147,,,
344.5000000000,43,91.3918609619,,,
344.7500000000,43,91.0307235718,,,
345.0000000000,43,91.1664733887,,,
345.2500000000,43,91.3201370239,,,
345.5000000000,43,91.3380737305,,,
345.7500000000,43,91.5071182251,,,
346.0000000000,43,91.5557937622,,,
346.2500000000,43,90.7374572754,,,
346.5000000000,43,90.2368927002,,,
346.7500000000,43,89.7344207764,,,
347.0000000000,43,89.2333602905,,,
347.2500000000,43,90.0371704102,,,
347.5000000000,43,90.5383300781,,,
347.7500000000,43,91.0393905640,,,
348.0000000000,43,91.5405731201,,,
348.2500000000,43,92.0411529541,,,
348.5000000000,43,92.5139694214,,,
348.7500000000,43,92.9679336548,,,
349.0000000000,43,93.3233566284,,,
349.2500000000,43,93.3937911987,,,
349.5000000000,43,93.6661071777,,,
349.7500000000,43,93.6968383789,,,
350.0000000000,43,93.7211837769,,,
350.2500000000,43,93.7493362427,,,
350.5000000000,43,93.7813568115,,,
350.7500000000,43,93.8018493652,,,
351.0000000000,43,93.8005828857,,,
351.2500000000,43,93.6443328857,,,
351.5000000000,43,93.7992935181,,,
351.7500000000,43,92.7414932251,,,
352.0000000000,44,92.2399368286,,,
352.2500000000,44,91.7385177612,,,
352.5000000000,44,91.2384567261,,,
352.7500000000,44,90.7374572754,,,
353.0000000000,44,90.2356109619,,,
353.2500000000,44,89.7344207764,,,
353.5000000000,44,89.2333602905,,,
353.7500000000,44,88.8308105469,,,
354.0000000000,44,88.5675888062,,,
354.2500000000,44,88.6700363159,,,
354.5000000000,44,89.0196533203,,,
354.7500000000,44,88.9159164429,,,
355.0000000000,44,88.8941497803,,,
355.2500000000,44,89.3590164185,,,
355.5000000000,44,89.3846435547,,,
355.7500000000,44,89.8514785767,,,
356.0000000000,44,90.0000305176,,,
356.2500000000,44,90.2168884277,,,
356.5000000000,44,90.2335433960,,,
356.7500000000,44,89.6342010498,,,
357.0000000000,44,89.4241790771,,,
357.2500000000,44,89.2961120605,,,
357.5000000000,44,89.5569305420,,,
357.7500000000,44,89.6926803589,,,
358.0000000000,44,89.1701736450,,,
358.2500000000,44,88.7334823608,,,
358.5000000000,44,88.2320632935,,,
358.7500000000,44,87.7305603027,,,
359.0000000000,44,87.2036209106,,,
359.2500000000,44,86.7030792236,,,
359.5000000000,44,86.2034530640,,,
359.7500000000,44,85.7028198242,,,
360.0000000000,45,85.2014236450,,,
360.2500000000,45,84.6999588013,,,
360.5000000000,45,84.1986007690,,,
360.7500000000,45,83.6973266602,,,
361.0000000000,45,83.1984786987,,,
361.2500000000,45,82.6961593628,,,
361.5000000000,45,82.1950073242,,,
361.7500000000,45,81.6937484741,,,
362.0000000000,45,81.1942672729,,,
362.2500000000,45,80.6932296753,,,
362.5000000000,45,80.2042770386,,,
362.7500000000,45,79.6668319702,,,
363.0000000000,45,79.1664733887,,,
363.2500000000,45,78.6644515991,,,
363.5000000000,45,78.1645126343,,,
363.7500000000,45,77.6644363403,,,
364.0000000000,45,77.1617431641,,,
364.2500000000,45,76.6604537964,,,
364.5000000000,45,76.1601333618,,,
364.7500000000,45,75.6585464478,,,
365.0000000000,45,75.1573791504,,,
365.2500000000,45,74.6560668945,,,
365.5000000000,45,74.1552734375,,,
365.7500000000,45,73.6536102295,,,
366.0000000000,45,73.1435165405,,,
366.2500000000,45,72.6288909912,,,
366.5000000000,45,72.1304702759,,,
366.7500000000,45,71.6297836304,,,
367.0000000000,45,71.6589736938,,,
367.2500000000,45,71.4348602295,,,
367.5000000000,45,71.4758377075,,,
367.7500000000,45,71.3631362915,,,
368.0000000000,46,71.3067932129,,,
368.2500000000,46,71.2863006592,,,
368.5000000000,46,71.5168228149,,,
368.7500000000,46,71.7281188965,,,
369.0000000000,46,71.7729415894,,,
369.2500000000,46,71.8600311279,,,
369.5000000000,46,71.9548034668,,,
369.7500000000,46,71.4156494141,,,
370.0000000000,46,71.1287765503,,,
370.2500000000,46,70.8502502441,,,
370.5000000000,46,70.8156661987,,,
370.7500000000,46,71.9323883057,,,
371.0000000000,46,72.4337463379,,,
371.2500000000,46,72.9296188354,,,
371.5000000000,46,72.9462432861,,,
371.7500000000,46,73.0077133179,,,
372.0000000000,46,72.1688919067,,,
372.2500000000,46,71.9550628662,,,
372.5000000000,46,71.6310501099,,,
372.7500000000,46,71.1287765503,,,
373.0000000000,46,70.9526977539,,,
373.2500000000,46,71.1883392334,,,
373.5000000000,46,71.4649505615,,,
373.7500000000,46,71.6007003784,,,
374.0000000000,46,71.5251464844,,,
374.2500000000,46,71.3945236206,,,
374.5000000000,46,71.4457473755,,,
374.7500000000,46,71.4021987915,,,
375.0000000000,46,71.8555526733,,,
375.2500000000,46,72.3876495361,,,
375.5000000000,46,72.6094589233,,,
375.7500000000,46,72.4698715210,,,
376.0000000000,47,72.7503280640,,,
376.2500000000,47,72.8425369263,,,
376.5000000000,47,73.0781402588,,,
376.7500000000,47,73.0230712891,,,
377.0000000000,47,72.2380371094,,,
377.2500000000,47,71.6310501099,,,
377.5000000000,47,72.1161575317,,,
377.7500000000,47,72.4337463379,,,
378.0000000000,47,72.9206466675,,,
378.2500000000,47,73.3419570923,,,
378.5000000000,47,73.6751708984,,,
378.7500000000,47,73.6802978516,,,
379.0000000000,47,73.6751708984,,,
379.2500000000,47,73.6546936035,,,
379.5000000000,47,73.8058013916,,,
379.7500000000,47,74.0694198608,,,
380.0000000000,47,74.0092315674,,,
380.2500000000,47,73.9938583374,,,
380.5000000000,47,73.9336700439,,,
380.7500000000,47,73.7876815796,,,
381.0000000000,47,73.7428588867,,,
381.2500000000,47,73.6852264404,,,
381.5000000000,47,73.4303817749,,,
381.7500000000,47,73.3304901123,,,
382.0000000000,47,73.2241973877,,,
382.2500000000,47,72.6634826660,,,
382.5000000000,47,72.7695083618,,,
382.7500000000,47,73.3995819092,,,
383.0000000000,47,73.9005737305,,,
383.2500000000,47,73.2395629883,,,
383.5000000000,47,72.6288909912,,,
383.7500000000,47,72.1304702759,,,
