Time:4Hz,Epoch,Channel 1,Event Id,Event Date,Event Duration
0.0000000000,0,0.4443809986,,,
0.2500000000,0,0.4456616938,,,
0.5000000000,0,0.4418197870,,,
0.7500000000,0,0.4443809986,,,
1.0000000000,0,0.4418197870,,,
1.2500000000,0,0.4456616938,,,
1.5000000000,0,0.4431003928,,,
1.7500000000,0,0.4456616938,,,
2.0000000000,0,0.4431003928,,,
2.2500000000,0,0.4418197870,,,
2.5000000000,0,0.4431003928,,,
2.7500000000,0,0.4431003928,,,
3.0000000000,0,0.4431003928,,,
3.2500000000,0,0.4418197870,,,
3.5000000000,0,0.4443809986,,,
3.7500000000,0,0.4418197870,,,
4.0000000000,0,0.4443809986,,,
4.2500000000,0,0.4443809986,,,
4.5000000000,0,0.4418197870,,,
4.7500000000,0,0.4431003928,,,
5.0000000000,0,0.4418197870,,,
5.2500000000,0,0.4443809986,,,
5.5000000000,0,0.4418197870,,,
5.7500000000,0,0.4443809986,,,
6.0000000000,0,0.4392584860,,,
6.2500000000,0,0.4443809986,,,
6.5000000000,0,0.4405390918,,,
6.7500000000,0,0.4418197870,,,
7.0000000000,0,0.4443809986,,,
7.2500000000,0,0.4418197870,,,
7.5000000000,0,0.4431003928,,,
7.7500000000,0,0.4405390918,,,
8.0000000000,1,0.4431003928,,,
8.2500000000,1,0.4418197870,,,
8.5000000000,1,0.4443809986,,,
8.7500000000,1,0.4405390918,,,
9.0000000000,1,0.4443809986,,,
9.2500000000,1,0.4405390918,,,
9.5000000000,1,0.4405390918,,,
9.7500000000,1,0.4418197870,,,
10.0000000000,1,0.4405390918,,,
10.2500000000,1,0.4443809986,,,
10.5000000000,1,0.4405390918,,,
10.7500000000,1,0.4431003928,,,
11.0000000000,1,0.4418197870,,,
11.2500000000,1,0.4418197870,,,
11.5000000000,1,0.4392584860,,,
11.7500000000,1,0.4418197870,,,
12.0000000000,1,0.4392584860,,,
12.2500000000,1,0.4392584860,,,
12.5000000000,1,0.4418197870,,,
12.7500000000,1,0.4392584860,,,
13.0000000000,1,0.4405390918,,,
13.2500000000,1,0.4405390918,,,
13.5000000000,1,0.4405390918,,,
13.7500000000,1,0.4392584860,,,
14.0000000000,1,0.4418197870,,,
14.2500000000,1,0.4379779100,,,
14.5000000000,1,0.4418197870,,,
14.7500000000,1,0.4392584860,,,
15.0000000000,1,0.4392584860,,,
15.2500000000,1,0.4392584860,,,
15.5000000000,1,0.4392584860,,,
15.7500000000,1,0.4392584860,,,
16.0000000000,2,0.4392584860,,,
16.2500000000,2,0.4405390918,,,
16.5000000000,2,0.4379779100,,,
16.7500000000,2,0.4392584860,,,
17.0000000000,2,0.4354166090,,,
17.2500000000,2,0.4405390918,,,
17.5000000000,2,0.4379779100,,,
17.7500000000,2,0.4379779100,,,
18.0000000000,2,0.4392584860,,,
18.2500000000,2,0.4379779100,,,
18.5000000000,2,0.4392584860,,,
18.7500000000,2,0.4379779100,,,
19.0000000000,2,0.4405390918,,,
19.2500000000,2,0.4392584860,,,
19.5000000000,2,0.4405390918,,,
19.7500000000,2,0.4354166090,,,
20.0000000000,2,0.4405390918,,,
20.2500000000,2,0.4379779100,,,
20.5000000000,2,0.4392584860,,,
20.7500000000,2,0.4392584860,,,
21.0000000000,2,0.4379779100,,,
21.2500000000,2,0.4405390918,,,
21.5000000000,2,0.4379779100,,,
21.7500000000,2,0.4379779100,,,
22.0000000000,2,0.4366972148,,,
22.2500000000,2,0.4392584860,,,
22.5000000000,2,0.4354166090,,,
22.7500000000,2,0.4392584860,,,
23.0000000000,2,0.4366972148,,,
23.2500000000,2,0.4366972148,,,
23.5000000000,2,0.4379779100,,,
23.7500000000,2,0.4366972148,,,
24.0000000000,3,0.4366972148,,,
24.2500000000,3,0.4366972148,,,
24.5000000000,3,0.4392584860,,,
24.7500000000,3,0.4366972148,,,
25.0000000000,3,0.4379779100,,,
25.2500000000,3,0.4354166090,,,
25.5000000000,3,0.4392584860,,,
25.7500000000,3,0.4366972148,,,
26.0000000000,3,0.4366972148,,,
26.2500000000,3,0.4392584860,,,
26.5000000000,3,0.4366972148,,,
26.7500000000,3,0.4366972148,,,
27.0000000000,3,0.4354166090,,,
27.2500000000,3,0.4379779100,,,
27.5000000000,3,0.4354166090,,,
27.7500000000,3,0.4379779100,,,
28.0000000000,3,0.4341359138,,,
28.2500000000,3,0.4366972148,,,
28.5000000000,3,0.4341359138,,,
28.7500000000,3,0.4341359138,,,
29.0000000000,3,0.4366972148,,,
29.2500000000,3,0.4341359138,,,
29.5000000000,3,0.4354166090,,,
29.7500000000,3,0.4354166090,,,
30.0000000000,3,0.4354166090,,,
30.2500000000,3,0.4341359138,,,
30.5000000000,3,0.4379779100,,,
30.7500000000,3,0.4341359138,,,
31.0000000000,3,0.4366972148,,,
31.2500000000,3,0.4341359138,,,
31.5000000000,3,0.4379779100,,,
31.7500000000,3,0.4366972148,,,
32.0000000000,4,0.4354166090,,,
32.2500000000,4,0.4366972148,,,
32.5000000000,4,0.4341359138,,,
32.7500000000,4,0.4379779100,,,
33.0000000000,4,0.4354166090,,,
33.2500000000,4,0.4379779100,,,
33.5000000000,4,0.4341359138,,,
33.7500000000,4,0.4366972148,,,
34.0000000000,4,0.4341359138,,,
34.2500000000,4,0.4354166090,,,
34.5000000000,4,0.4341359138,,,
34.7500000000,4,0.4354166090,,,
35.0000000000,4,0.4354166090,,,
35.2500000000,4,0.4341359138,,,
35.5000000000,4,0.4341359138,,,
35.7500000000,4,0.4328553081,,,
36.0000000000,4,0.4379779100,,,
36.2500000000,4,0.4328553081,,,
36.5000000000,4,0.4354166090,,,
36.7500000000,4,0.4354166090,,,
37.0000000000,4,0.4379779100,,,
37.2500000000,4,0.4392584860,,,
37.5000000000,4,0.4405390918,,,
37.7500000000,4,0.4392584860,,,
38.0000000000,4,0.4418197870,,,
38.2500000000,4,0.4392584860,,,
38.5000000000,4,0.4379779100,,,
38.7500000000,4,0.4392584860,,,
39.0000000000,4,0.4354166090,,,
39.2500000000,4,0.4379779100,,,
39.5000000000,4,0.4354166090,,,
39.7500000000,4,0.4354166090,,,
40.0000000000,5,0.4354166090,,,
40.2500000000,5,0.4366972148,,,
40.5000000000,5,0.4341359138,,,
40.7500000000,5,0.4366972148,,,
41.0000000000,5,0.4341359138,,,
41.2500000000,5,0.4354166090,,,
41.5000000000,5,0.4341359138,,,
41.7500000000,5,0.4354166090,,,
42.0000000000,5,0.4341359138,,,
42.2500000000,5,0.4328553081,,,
42.5000000000,5,0.4366972148,,,
42.7500000000,5,0.4341359138,,,
43.0000000000,5,0.4354166090,,,
43.2500000000,5,0.4341359138,,,
43.5000000000,5,0.4354166090,,,
43.7500000000,5,0.4341359138,,,
44.0000000000,5,0.4354166090,,,
44.2500000000,5,0.4341359138,,,
44.5000000000,5,0.4328553081,,,
44.7500000000,5,0.4341359138,,,
45.0000000000,5,0.4366972148,,,
45.2500000000,5,0.4341359138,,,
45.5000000000,5,0.4354166090,,,
45.7500000000,5,0.4328553081,,,
46.0000000000,5,0.4354166090,,,
46.2500000000,5,0.4341359138,,,
46.5000000000,5,0.4354166090,,,
46.7500000000,5,0.4328553081,,,
47.0000000000,5,0.4328553081,,,
47.2500000000,5,0.4341359138,,,
47.5000000000,5,0.4328553081,,,
47.7500000000,5,0.4354166090,,,
48.0000000000,6,0.4328553081,,,
48.2500000000,6,0.4328553081,,,
48.5000000000,6,0.4328553081,,,
48.7500000000,6,0.4354166090,,,
49.0000000000,6,0.4341359138,,,
49.2500000000,6,0.4354166090,,,
49.5000000000,6,0.4328553081,,,
49.7500000000,6,0.4354166090,,,
50.0000000000,6,0.4315747023,,,
50.2500000000,6,0.4354166090,,,
50.5000000000,6,0.4302940071,,,
50.7500000000,6,0.4315747023,,,
51.0000000000,6,0.4341359138,,,
51.2500000000,6,0.4315747023,,,
51.5000000000,6,0.4315747023,,,
51.7500000000,6,0.4302940071,,,
52.0000000000,6,0.4328553081,,,
52.2500000000,6,0.4315747023,,,
52.5000000000,6,0.4328553081,,,
52.7500000000,6,0.4302940071,,,
53.0000000000,6,0.4341359138,,,
53.2500000000,6,0.4328553081,,,
53.5000000000,6,0.4341359138,,,
53.7500000000,6,0.4315747023,,,
54.0000000000,6,0.4341359138,,,
54.2500000000,6,0.4328553081,,,
54.5000000000,6,0.4328553081,,,
54.7500000000,6,0.4302940071,,,
55.0000000000,6,0.4302940071,,,
55.2500000000,6,0.4315747023,,,
55.5000000000,6,0.4290134013,,,
55.7500000000,6,0.4341359138,,,
56.0000000000,7,0.4302940071,,,
56.2500000000,7,0.4341359138,,,
56.5000000000,7,0.4315747023,,,
56.7500000000,7,0.4328553081,,,
57.0000000000,7,0.4315747023,,,
57.2500000000,7,0.4315747023,,,
57.5000000000,7,0.4315747023,,,
57.7500000000,7,0.4315747023,,,
58.0000000000,7,0.4328553081,,,
58.2500000000,7,0.4290134013,,,
58.5000000000,7,0.4315747023,,,
58.7500000000,7,0.4290134013,,,
59.0000000000,7,0.4328553081,,,
59.2500000000,7,0.4302940071,,,
59.5000000000,7,0.4328553081,,,
59.7500000000,7,0.4315747023,,,
60.0000000000,7,0.4341359138,,,
60.2500000000,7,0.4341359138,,,
60.5000000000,7,0.4315747023,,,
60.7500000000,7,0.4328553081,,,
61.0000000000,7,0.4290134013,,,
61.2500000000,7,0.4315747023,,,
61.5000000000,7,0.4302940071,,,
61.7500000000,7,0.4328553081,,,
62.0000000000,7,0.4302940071,,,
62.2500000000,7,0.4315747023,,,
62.5000000000,7,0.4302940071,,,
62.7500000000,7,0.4302940071,,,
63.0000000000,7,0.4328553081,,,
63.2500000000,7,0.4302940071,,,
63.5000000000,7,0.4315747023,,,
63.7500000000,7,0.4277327955,,,
64.0000000000,8,0.4315747023,,,
64.2500000000,8,0.4302940071,,,
64.5000000000,8,0.4328553081,,,
64.7500000000,8,0.4302940071,,,
65.0000000000,8,0.4315747023,,,
65.2500000000,8,0.4302940071,,,
65.5000000000,8,0.4302940071,,,
65.7500000000,8,0.4302940071,,,
66.0000000000,8,0.4302940071,,,
66.2500000000,8,0.4315747023,,,
66.5000000000,8,0.4277327955,,,
66.7500000000,8,0.4315747023,,,
67.0000000000,8,0.4302940071,,,
67.2500000000,8,0.4315747023,,,
67.5000000000,8,0.4290134013,,,
67.7500000000,8,0.4315747023,,,
68.0000000000,8,0.4302940071,,,
68.2500000000,8,0.4290134013,,,
68.5000000000,8,0.4302940071,,,
68.7500000000,8,0.4290134013,,,
69.0000000000,8,0.4315747023,,,
69.2500000000,8,0.4277327955,,,
69.5000000000,8,0.4315747023,,,
69.7500000000,8,0.4290134013,,,
70.0000000000,8,0.4315747023,,,
70.2500000000,8,0.4315747023,,,
70.5000000000,8,0.4290134013,,,
70.7500000000,8,0.4290134013,,,
71.0000000000,8,0.4290134013,,,
71.2500000000,8,0.4277327955,,,
71.5000000000,8,0.4290134013,,,
71.7500000000,8,0.4315747023,,,
72.0000000000,9,0.4277327955,,,
72.2500000000,9,0.4315747023,,,
72.5000000000,9,0.4277327955,,,
72.7500000000,9,0.4302940071,,,
73.0000000000,9,0.4290134013,,,
73.2500000000,9,0.4302940071,,,
73.5000000000,9,0.4302940071,,,
73.7500000000,9,0.4290134013,,,
74.0000000000,9,0.4302940071,,,
74.2500000000,9,0.4277327955,,,
74.5000000000,9,0.4302940071,,,
74.7500000000,9,0.4277327955,,,
75.0000000000,9,0.4302940071,,,
75.2500000000,9,0.4277327955,,,
75.5000000000,9,0.4302940071,,,
75.7500000000,9,0.4277327955,,,
76.0000000000,9,0.4302940071,,,
76.2500000000,9,0.4264521003,,,
76.5000000000,9,0.4277327955,,,
76.7500000000,9,0.4290134013,,,
77.0000000000,9,0.4264521003,,,
77.2500000000,9,0.4277327955,,,
77.5000000000,9,0.4238908887,,,
77.7500000000,9,0.4277327955,,,
78.0000000000,9,0.4264521003,,,
78.2500000000,9,0.4277327955,,,
78.5000000000,9,0.4264521003,,,
78.7500000000,9,0.4290134013,,,
79.0000000000,9,0.4264521003,,,
79.2500000000,9,0.4264521003,,,
79.5000000000,9,0.4277327955,,,
79.7500000000,9,0.4264521003,,,
80.0000000000,10,0.4277327955,,,
80.2500000000,10,0.4251714945,,,
80.5000000000,10,0.4251714945,,,
80.7500000000,10,0.4251714945,,,
81.0000000000,10,0.4277327955,,,
81.2500000000,10,0.4251714945,,,
81.5000000000,10,0.4264521003,,,
81.7500000000,10,0.4238908887,,,
82.0000000000,10,0.4251714945,,,
82.2500000000,10,0.4264521003,,,
82.5000000000,10,0.4251714945,,,
82.7500000000,10,0.4264521003,,,
83.0000000000,10,0.4238908887,,,
83.2500000000,10,0.4277327955,,,
83.5000000000,10,0.4226101935,,,
83.7500000000,10,0.4264521003,,,
84.0000000000,10,0.4264521003,,,
84.2500000000,10,0.4251714945,,,
84.5000000000,10,0.4264521003,,,
84.7500000000,10,0.4251714945,,,
85.0000000000,10,0.4251714945,,,
85.2500000000,10,0.4238908887,,,
85.5000000000,10,0.4264521003,,,
85.7500000000,10,0.4238908887,,,
86.0000000000,10,0.4277327955,,,
86.2500000000,10,0.4264521003,,,
86.5000000000,10,0.4251714945,,,
86.7500000000,10,0.4264521003,,,
87.0000000000,10,0.4251714945,,,
87.2500000000,10,0.4264521003,,,
87.5000000000,10,0.4251714945,,,
87.7500000000,10,0.4264521003,,,
88.0000000000,11,0.4251714945,,,
88.2500000000,11,0.4277327955,,,
88.5000000000,11,0.4238908887,,,
88.7500000000,11,0.4238908887,,,
89.0000000000,11,0.4264521003,,,
89.2500000000,11,0.4251714945,,,
89.5000000000,11,0.4277327955,,,
89.7500000000,11,0.4264521003,,,
90.0000000000,11,0.4290134013,,,
90.2500000000,11,0.4264521003,,,
90.5000000000,11,0.4264521003,,,
90.7500000000,11,0.4277327955,,,
91.0000000000,11,0.4264521003,,,
91.2500000000,11,0.4264521003,,,
91.5000000000,11,0.4264521003,,,
91.7500000000,11,0.4290134013,,,
92.0000000000,11,0.4264521003,,,
92.2500000000,11,0.4277327955,,,
92.5000000000,11,0.4251714945,,,
92.7500000000,11,0.4290134013,,,
93.0000000000,11,0.4277327955,,,
93.2500000000,11,0.4264521003,,,
93.5000000000,11,0.4277327955,,,
93.7500000000,11,0.4264521003,,,
94.0000000000,11,0.4277327955,,,
94.2500000000,11,0.4264521003,,,
94.5000000000,11,0.4264521003,,,
94.7500000000,11,0.4251714945,,,
95.0000000000,11,0.4251714945,,,
95.2500000000,11,0.4264521003,,,
95.5000000000,11,0.4251714945,,,
95.7500000000,11,0.4277327955,,,
96.0000000000,12,0.4264521003,,,
96.2500000000,12,0.4290134013,,,
96.5000000000,12,0.4251714945,,,
96.7500000000,12,0.4251714945,,,
97.0000000000,12,0.4290134013,,,
97.2500000000,12,0.4251714945,,,
97.5000000000,12,0.4264521003,,,
97.7500000000,12,0.4251714945,,,
98.0000000000,12,0.4277327955,,,
98.2500000000,12,0.4251714945,,,
98.5000000000,12,0.4251714945,,,
98.7500000000,12,0.4264521003,,,
99.0000000000,12,0.4251714945,,,
99.2500000000,12,0.4264521003,,,
99.5000000000,12,0.4251714945,,,
99.7500000000,12,0.4264521003,,,
100.0000000000,12,0.4238908887,,,
100.2500000000,12,0.4251714945,,,
100.5000000000,12,0.4264521003,,,
100.7500000000,12,0.4251714945,,,
101.0000000000,12,0.4251714945,,,
101.2500000000,12,0.4238908887,,,
101.5000000000,12,0.4264521003,,,
101.7500000000,12,0.4251714945,,,
102.0000000000,12,0.4251714945,,,
102.2500000000,12,0.4251714945,,,
102.5000000000,12,0.4238908887,,,
102.7500000000,12,0.4264521003,,,
103.0000000000,12,0.4238908887,,,
103.2500000000,12,0.4264521003,,,
103.5000000000,12,0.4251714945,,,
103.7500000000,12,0.4238908887,,,
104.0000000000,13,0.4251714945,,,
104.2500000000,13,0.4238908887,,,
104.5000000000,13,0.4264521003,,,
104.7500000000,13,0.4238908887,,,
105.0000000000,13,0.4238908887,,,
105.2500000000,13,0.4251714945,,,
105.5000000000,13,0.4226101935,,,
105.7500000000,13,0.4264521003,,,
106.0000000000,13,0.4238908887,,,
106.2500000000,13,0.4264521003,,,
106.5000000000,13,0.4251714945,,,
106.7500000000,13,0.4264521003,,,
107.0000000000,13,0.4238908887,,,
107.2500000000,13,0.4251714945,,,
107.5000000000,13,0.4251714945,,,
107.7500000000,13,0.4226101935,,,
108.0000000000,13,0.4251714945,,,
108.2500000000,13,0.4226101935,,,
108.5000000000,13,0.4251714945,,,
108.7500000000,13,0.4238908887,,,
109.0000000000,13,0.4264521003,,,
109.2500000000,13,0.4238908887,,,
109.5000000000,13,0.4264521003,,,
109.7500000000,13,0.4238908887,,,
110.0000000000,13,0.4264521003,,,
110.2500000000,13,0.4238908887,,,
110.5000000000,13,0.4238908887,,,
110.7500000000,13,0.4251714945,,,
111.0000000000,13,0.4238908887,,,
111.2500000000,13,0.4251714945,,,
111.5000000000,13,0.4238908887,,,
111.7500000000,13,0.4251714945,,,
112.0000000000,14,0.4238908887,,,
112.2500000000,14,0.4251714945,,,
112.5000000000,14,0.4238908887,,,
112.7500000000,14,0.4264521003,,,
113.0000000000,14,0.4251714945,,,
113.2500000000,14,0.4238908887,,,
113.5000000000,14,0.4264521003,,,
113.7500000000,14,0.4238908887,,,
114.0000000000,14,0.4264521003,,,
114.2500000000,14,0.4251714945,,,
114.5000000000,14,0.4264521003,,,
114.7500000000,14,0.4238908887,,,
115.0000000000,14,0.4277327955,,,
115.2500000000,14,0.4238908887,,,
115.5000000000,14,0.4251714945,,,
115.7500000000,14,0.4264521003,,,
116.0000000000,14,0.4226101935,,,
116.2500000000,14,0.4264521003,,,
116.5000000000,14,0.4251714945,,,
116.7500000000,14,0.4277327955,,,
117.0000000000,14,0.4238908887,,,
117.2500000000,14,0.4264521003,,,
117.5000000000,14,0.4238908887,,,
117.7500000000,14,0.4238908887,,,
118.0000000000,14,0.4264521003,,,
118.2500000000,14,0.4238908887,,,
118.5000000000,14,0.4251714945,,,
118.7500000000,14,0.4226101935,,,
119.0000000000,14,0.4264521003,,,
119.2500000000,14,0.4238908887,,,
119.5000000000,14,0.4251714945,,,
119.7500000000,14,0.4251714945,,,
120.0000000000,15,0.4238908887,,,
120.2500000000,15,0.4251714945,,,
120.5000000000,15,0.4226101935,,,
120.7500000000,15,0.4264521003,,,
121.0000000000,15,0.4226101935,,,
121.2500000000,15,0.4251714945,,,
121.5000000000,15,0.4213295877,,,
121.7500000000,15,0.4251714945,,,
122.0000000000,15,0.4251714945,,,
122.2500000000,15,0.4238908887,,,
122.5000000000,15,0.4238908887,,,
122.7500000000,15,0.4226101935,,,
123.0000000000,15,0.4251714945,,,
123.2500000000,15,0.4226101935,,,
123.5000000000,15,0.4264521003,,,
123.7500000000,15,0.4238908887,,,
124.0000000000,15,0.4251714945,,,
124.2500000000,15,0.4238908887,,,
124.5000000000,15,0.4238908887,,,
124.7500000000,15,0.4264521003,,,
125.0000000000,15,0.4238908887,,,
125.2500000000,15,0.4238908887,,,
125.5000000000,15,0.4226101935,,,
125.7500000000,15,0.4264521003,,,
126.0000000000,15,0.4226101935,,,
126.2500000000,15,0.4251714945,,,
126.5000000000,15,0.4226101935,,,
126.7500000000,15,0.4238908887,,,
127.0000000000,15,0.4213295877,,,
127.2500000000,15,0.4238908887,,,
127.5000000000,15,0.4251714945,,,
127.7500000000,15,0.4238908887,,,
128.0000000000,16,0.4264521003,,,
128.2500000000,16,0.4238908887,,,
128.5000000000,16,0.4264521003,,,
128.7500000000,16,0.4238908887,,,
129.0000000000,16,0.4238908887,,,
129.2500000000,16,0.4264521003,,,
129.5000000000,16,0.4238908887,,,
129.7500000000,16,0.4238908887,,,
130.0000000000,16,0.4238908887,,,
130.2500000000,16,0.4277327955,,,
130.5000000000,16,0.4238908887,,,
130.7500000000,16,0.4264521003,,,
131.0000000000,16,0.4238908887,,,
131.2500000000,16,0.4251714945,,,
131.5000000000,16,0.4264521003,,,
131.7500000000,16,0.4251714945,,,
132.0000000000,16,0.4277327955,,,
132.2500000000,16,0.4251714945,,,
132.5000000000,16,0.4251714945,,,
132.7500000000,16,0.4251714945,,,
133.0000000000,16,0.4277327955,,,
133.2500000000,16,0.4251714945,,,
133.5000000000,16,0.4277327955,,,
133.7500000000,16,0.4251714945,,,
134.0000000000,16,0.4251714945,,,
134.2500000000,16,0.4264521003,,,
134.5000000000,16,0.4251714945,,,
134.7500000000,16,0.4290134013,,,
135.0000000000,16,0.4251714945,,,
135.2500000000,16,0.4264521003,,,
135.5000000000,16,0.4264521003,,,
135.7500000000,16,0.4277327955,,,
136.0000000000,17,0.4251714945,,,
136.2500000000,17,0.4251714945,,,
136.5000000000,17,0.4264521003,,,
136.7500000000,17,0.4264521003,,,
137.0000000000,17,0.4290134013,,,
137.2500000000,17,0.4264521003,,,
137.5000000000,17,0.4277327955,,,
137.7500000000,17,0.4264521003,,,
138.0000000000,17,0.4264521003,,,
138.2500000000,17,0.4264521003,,,
138.5000000000,17,0.4251714945,,,
138.7500000000,17,0.4277327955,,,
139.0000000000,17,0.4264521003,,,
139.2500000000,17,0.4277327955,,,
139.5000000000,17,0.4264521003,,,
139.7500000000,17,0.4290134013,,,
140.0000000000,17,0.4277327955,,,
140.2500000000,17,0.4290134013,,,
140.5000000000,17,0.4264521003,,,
140.7500000000,17,0.4264521003,,,
141.0000000000,17,0.4264521003,,,
141.2500000000,17,0.4264521003,,,
141.5000000000,17,0.4277327955,,,
141.7500000000,17,0.4264521003,,,
142.0000000000,17,0.4277327955,,,
142.2500000000,17,0.4264521003,,,
142.5000000000,17,0.4290134013,,,
142.7500000000,17,0.4264521003,,,
143.0000000000,17,0.4290134013,,,
143.2500000000,17,0.4264521003,,,
143.5000000000,17,0.4251714945,,,
143.7500000000,17,0.4264521003,,,
144.0000000000,18,0.4264521003,,,
144.2500000000,18,0.4264521003,,,
144.5000000000,18,0.4264521003,,,
144.7500000000,18,0.4277327955,,,
145.0000000000,18,0.4277327955,,,
145.2500000000,18,0.4290134013,,,
145.5000000000,18,0.4264521003,,,
145.7500000000,18,0.4264521003,,,
146.0000000000,18,0.4277327955,,,
146.2500000000,18,0.4238908887,,,
146.5000000000,18,0.4277327955,,,
146.7500000000,18,0.4264521003,,,
147.0000000000,18,0.4264521003,,,
147.2500000000,18,0.4264521003,,,
147.5000000000,18,0.4290134013,,,
147.7500000000,18,0.4264521003,,,
148.0000000000,18,0.4277327955,,,
148.2500000000,18,0.4264521003,,,
148.5000000000,18,0.4277327955,,,
148.7500000000,18,0.4277327955,,,
149.0000000000,18,0.4238908887,,,
149.2500000000,18,0.4290134013,,,
149.5000000000,18,0.4264521003,,,
149.7500000000,18,0.4290134013,,,
150.0000000000,18,0.4277327955,,,
150.2500000000,18,0.4290134013,,,
150.5000000000,18,0.4264521003,,,
150.7500000000,18,0.4264521003,,,
151.0000000000,18,0.4277327955,,,
151.2500000000,18,0.4264521003,,,
151.5000000000,18,0.4277327955,,,
151.7500000000,18,0.4238908887,,,
152.0000000000,19,0.4302940071,,,
152.2500000000,19,0.4264521003,,,
152.5000000000,19,0.4290134013,,,
152.7500000000,19,0.4264521003,,,
153.0000000000,19,0.4290134013,,,
153.2500000000,19,0.4264521003,,,
153.5000000000,19,0.4277327955,,,
153.7500000000,19,0.4277327955,,,
154.0000000000,19,0.4264521003,,,
154.2500000000,19,0.4290134013,,,
154.5000000000,19,0.4264521003,,,
154.7500000000,19,0.4302940071,,,
155.0000000000,19,0.4264521003,,,
155.2500000000,19,0.4302940071,,,
155.5000000000,19,0.4277327955,,,
155.7500000000,19,0.4277327955,,,
156.0000000000,19,0.4290134013,,,
156.2500000000,19,0.4277327955,,,
156.5000000000,19,0.4290134013,,,
156.7500000000,19,0.4277327955,,,
157.0000000000,19,0.4302940071,,,
157.2500000000,19,0.4277327955,,,
157.5000000000,19,0.4302940071,,,
157.7500000000,19,0.4277327955,,,
158.0000000000,19,0.4277327955,,,
158.2500000000,19,0.4290134013,,,
158.5000000000,19,0.4277327955,,,
158.7500000000,19,0.4290134013,,,
159.0000000000,19,0.4277327955,,,
159.2500000000,19,0.4302940071,,,
159.5000000000,19,0.4277327955,,,
159.7500000000,19,0.4302940071,,,
160.0000000000,20,0.4264521003,,,
160.2500000000,20,0.4302940071,,,
160.5000000000,20,0.4290134013,,,
160.7500000000,20,0.4290134013,,,
161.0000000000,20,0.4290134013,,,
161.2500000000,20,0.4290134013,,,
161.5000000000,20,0.4290134013,,,
161.7500000000,20,0.4277327955,,,
162.0000000000,20,0.4302940071,,,
162.2500000000,20,0.4277327955,,,
162.5000000000,20,0.4302940071,,,
162.7500000000,20,0.4264521003,,,
163.0000000000,20,0.4277327955,,,
163.2500000000,20,0.4290134013,,,
163.5000000000,20,0.4277327955,,,
163.7500000000,20,0.4290134013,,,
164.0000000000,20,0.4277327955,,,
164.2500000000,20,0.4315747023,,,
164.5000000000,20,0.4277327955,,,
164.7500000000,20,0.4302940071,,,
165.0000000000,20,0.4277327955,,,
165.2500000000,20,0.4290134013,,,
165.5000000000,20,0.4277327955,,,
165.7500000000,20,0.4277327955,,,
166.0000000000,20,0.4302940071,,,
166.2500000000,20,0.4290134013,,,
166.5000000000,20,0.4290134013,,,
166.7500000000,20,0.4277327955,,,
167.0000000000,20,0.4315747023,,,
167.2500000000,20,0.4290134013,,,
167.5000000000,20,0.4302940071,,,
167.7500000000,20,0.4277327955,,,
168.0000000000,21,0.4302940071,,,
168.2500000000,21,0.4290134013,,,
168.5000000000,21,0.4290134013,,,
168.7500000000,21,0.4290134013,,,
169.0000000000,21,0.4290134013,,,
169.2500000000,21,0.4290134013,,,
169.5000000000,21,0.4277327955,,,
169.7500000000,21,0.4302940071,,,
170.0000000000,21,0.4277327955,,,
170.2500000000,21,0.4315747023,,,
170.5000000000,21,0.4277327955,,,
170.7500000000,21,0.4315747023,,,
171.0000000000,21,0.4264521003,,,
171.2500000000,21,0.4290134013,,,
171.5000000000,21,0.4302940071,,,
171.7500000000,21,0.4290134013,,,
172.0000000000,21,0.4315747023,,,
172.2500000000,21,0.4290134013,,,
172.5000000000,21,0.4315747023,,,
172.7500000000,21,0.4290134013,,,
173.0000000000,21,0.4328553081,,,
173.2500000000,21,0.4315747023,,,
173.5000000000,21,0.4315747023,,,
173.7500000000,21,0.4277327955,,,
174.0000000000,21,0.4302940071,,,
174.2500000000,21,0.4290134013,,,
174.5000000000,21,0.4290134013,,,
174.7500000000,21,0.4302940071,,,
175.0000000000,21,0.4290134013,,,
175.2500000000,21,0.4315747023,,,
175.5000000000,21,0.4290134013,,,
175.7500000000,21,0.4328553081,,,
176.0000000000,22,0.4290134013,,,
176.2500000000,22,0.4315747023,,,
176.5000000000,22,0.4290134013,,,
176.7500000000,22,0.4328553081,,,
177.0000000000,22,0.4328553081,,,
177.2500000000,22,0.4302940071,,,
177.5000000000,22,0.4315747023,,,
177.7500000000,22,0.4315747023,,,
178.0000000000,22,0.4341359138,,,
178.2500000000,22,0.4315747023,,,
178.5000000000,22,0.4328553081,,,
178.7500000000,22,0.4302940071,,,
179.0000000000,22,0.4328553081,,,
179.2500000000,22,0.4277327955,,,
179.5000000000,22,0.4302940071,,,
179.7500000000,22,0.4302940071,,,
180.0000000000,22,0.4302940071,,,
180.2500000000,22,0.4315747023,,,
180.5000000000,22,0.4302940071,,,
180.7500000000,22,0.4315747023,,,
181.0000000000,22,0.4302940071,,,
181.2500000000,22,0.4328553081,,,
181.5000000000,22,0.4302940071,,,
181.7500000000,22,0.4328553081,,,
182.0000000000,22,0.4302940071,,,
182.2500000000,22,0.4328553081,,,
182.5000000000,22,0.4315747023,,,
182.7500000000,22,0.4315747023,,,
183.0000000000,22,0.4315747023,,,
183.2500000000,22,0.4302940071,,,
183.5000000000,22,0.4315747023,,,
183.7500000000,22,0.4302940071,,,
184.0000000000,23,0.4302940071,,,
184.2500000000,23,0.4302940071,,,
184.5000000000,23,0.4315747023,,,
184.7500000000,23,0.4290134013,,,
185.0000000000,23,0.4341359138,,,
185.2500000000,23,0.4315747023,,,
185.5000000000,23,0.4328553081,,,
185.7500000000,23,0.4302940071,,,
186.0000000000,23,0.4341359138,,,
186.2500000000,23,0.4302940071,,,
186.5000000000,23,0.4315747023,,,
186.7500000000,23,0.4328553081,,,
187.0000000000,23,0.4315747023,,,
187.2500000000,23,0.4328553081,,,
187.5000000000,23,0.4290134013,,,
187.7500000000,23,0.4328553081,,,
188.0000000000,23,0.4315747023,,,
188.2500000000,23,0.4341359138,,,
188.5000000000,23,0.4315747023,,,
188.7500000000,23,0.4328553081,,,
189.0000000000,23,0.4315747023,,,
189.2500000000,23,0.4341359138,,,
189.5000000000,23,0.4315747023,,,
189.7500000000,23,0.4315747023,,,
190.0000000000,23,0.4341359138,,,
190.2500000000,23,0.4302940071,,,
190.5000000000,23,0.4328553081,,,
190.7500000000,23,0.4315747023,,,
191.0000000000,23,0.4341359138,,,
191.2500000000,23,0.4315747023,,,
191.5000000000,23,0.4341359138,,,
191.7500000000,23,0.4315747023,,,
192.0000000000,24,0.4341359138,,,
192.2500000000,24,0.4328553081,,,
192.5000000000,24,0.4328553081,,,
192.7500000000,24,0.4354166090,,,
193.0000000000,24,0.4302940071,,,
193.2500000000,24,0.4341359138,,,
193.5000000000,24,0.4328553081,,,
193.7500000000,24,0.4341359138,,,
194.0000000000,24,0.4315747023,,,
194.2500000000,24,0.4366972148,,,
194.5000000000,24,0.4341359138,,,
194.7500000000,24,0.4328553081,,,
195.0000000000,24,0.4354166090,,,
195.2500000000,24,0.4328553081,,,
195.5000000000,24,0.4341359138,,,
195.7500000000,24,0.4302940071,,,
196.0000000000,24,0.4354166090,,,
196.2500000000,24,0.4341359138,,,
196.5000000000,24,0.4354166090,,,
196.7500000000,24,0.4328553081,,,
197.0000000000,24,0.4354166090,,,
197.2500000000,24,0.4354166090,,,
197.5000000000,24,0.4328553081,,,
197.7500000000,24,0.4366972148,,,
198.0000000000,24,0.4328553081,,,
198.2500000000,24,0.4354166090,,,
198.5000000000,24,0.4328553081,,,
198.7500000000,24,0.4366972148,,,
199.0000000000,24,0.4328553081,,,
199.2500000000,24,0.4366972148,,,
199.5000000000,24,0.4341359138,,,
199.7500000000,24,0.4366972148,,,
200.0000000000,25,0.4341359138,,,
200.2500000000,25,0.4341359138,,,
200.5000000000,25,0.4405390918,,,
200.7500000000,25,0.4341359138,,,
201.0000000000,25,0.4354166090,,,
201.2500000000,25,0.4328553081,,,
201.5000000000,25,0.4354166090,,,
201.7500000000,25,0.4341359138,,,
202.0000000000,25,0.4366972148,,,
202.2500000000,25,0.4341359138,,,
202.5000000000,25,0.4366972148,,,
202.7500000000,25,0.4341359138,,,
203.0000000000,25,0.4354166090,,,
203.2500000000,25,0.4366972148,,,
203.5000000000,25,0.4354166090,,,
203.7500000000,25,0.4366972148,,,
204.0000000000,25,0.4328553081,,,
204.2500000000,25,0.4379779100,,,
204.5000000000,25,0.4354166090,,,
204.7500000000,25,0.4379779100,,,
205.0000000000,25,0.4354166090,,,
205.2500000000,25,0.4379779100,,,
205.5000000000,25,0.4354166090,,,
205.7500000000,25,0.4379779100,,,
206.0000000000,25,0.4354166090,,,
206.2500000000,25,0.4354166090,,,
206.5000000000,25,0.4366972148,,,
206.7500000000,25,0.4341359138,,,
207.0000000000,25,0.4366972148,,,
207.2500000000,25,0.4354166090,,,
207.5000000000,25,0.4366972148,,,
207.7500000000,25,0.4354166090,,,
208.0000000000,26,0.4379779100,,,
208.2500000000,26,0.4366972148,,,
208.5000000000,26,0.4379779100,,,
208.7500000000,26,0.4366972148,,,
209.0000000000,26,0.4379779100,,,
209.2500000000,26,0.4366972148,,,
209.5000000000,26,0.4341359138,,,
209.7500000000,26,0.4366972148,,,
210.0000000000,26,0.4366972148,,,
210.2500000000,26,0.4392584860,,,
210.5000000000,26,0.4366972148,,,
210.7500000000,26,0.4392584860,,,
211.0000000000,26,0.4379779100,,,
211.2500000000,26,0.4392584860,,,
211.5000000000,26,0.4366972148,,,
211.7500000000,26,0.4392584860,,,
212.0000000000,26,0.4366972148,,,
212.2500000000,26,0.4366972148,,,
212.5000000000,26,0.4366972148,,,
212.7500000000,26,0.4366972148,,,
213.0000000000,26,0.4379779100,,,
213.2500000000,26,0.4366972148,,,
213.5000000000,26,0.4379779100,,,
213.7500000000,26,0.4366972148,,,
214.0000000000,26,0.4405390918,,,
214.2500000000,26,0.4366972148,,,
214.5000000000,26,0.4379779100,,,
214.7500000000,26,0.4366972148,,,
215.0000000000,26,0.4379779100,,,
215.2500000000,26,0.4366972148,,,
215.5000000000,26,0.4379779100,,,
215.7500000000,26,0.4366972148,,,
216.0000000000,27,0.4379779100,,,
216.2500000000,27,0.4366972148,,,
216.5000000000,27,0.4392584860,,,
216.7500000000,27,0.4379779100,,,
217.0000000000,27,0.4379779100,,,
217.2500000000,27,0.4379779100,,,
217.5000000000,27,0.4379779100,,,
217.7500000000,27,0.4418197870,,,
218.0000000000,27,0.4379779100,,,
218.2500000000,27,0.4392584860,,,
218.5000000000,27,0.4379779100,,,
218.7500000000,27,0.4392584860,,,
219.0000000000,27,0.4366972148,,,
219.2500000000,27,0.4405390918,,,
219.5000000000,27,0.4379779100,,,
219.7500000000,27,0.4392584860,,,
220.0000000000,27,0.4379779100,,,
220.2500000000,27,0.4379779100,,,
220.5000000000,27,0.4379779100,,,
220.7500000000,27,0.4392584860,,,
221.0000000000,27,0.4405390918,,,
221.2500000000,27,0.4392584860,,,
221.5000000000,27,0.4405390918,,,
221.7500000000,27,0.4405390918,,,
222.0000000000,27,0.4418197870,,,
222.2500000000,27,0.4379779100,,,
222.5000000000,27,0.4418197870,,,
222.7500000000,27,0.4392584860,,,
223.0000000000,27,0.4392584860,,,
223.2500000000,27,0.4405390918,,,
223.5000000000,27,0.4392584860,,,
223.7500000000,27,0.4418197870,,,
224.0000000000,28,0.4392584860,,,
224.2500000000,28,0.4418197870,,,
224.5000000000,28,0.4379779100,,,
224.7500000000,28,0.4418197870,,,
225.0000000000,28,0.4392584860,,,
225.2500000000,28,0.4431003928,,,
225.5000000000,28,0.4405390918,,,
225.7500000000,28,0.4418197870,,,
226.0000000000,28,0.4392584860,,,
226.2500000000,28,0.4418197870,,,
226.5000000000,28,0.4379779100,,,
226.7500000000,28,0.4405390918,,,
227.0000000000,28,0.4418197870,33025,227.1562500000,0.0000000000
227.2500000000,28,0.4405390918,33024,227.2812500000,0.0000000000
227.5000000000,28,0.4418197870,,,
227.7500000000,28,0.4405390918,,,
228.0000000000,28,0.4405390918,,,
228.2500000000,28,0.4392584860,33025,228.3750000000,0.0000000000
228.5000000000,28,0.4418197870,33024,228.5000000000,0.0000000000
228.7500000000,28,0.4392584860,,,
229.0000000000,28,0.4431003928,,,
229.2500000000,28,0.4405390918,,,
229.5000000000,28,0.4431003928,,,
229.7500000000,28,0.4405390918,,,
230.0000000000,28,0.4418197870,,,
230.2500000000,28,0.4392584860,,,
230.5000000000,28,0.4405390918,,,
230.7500000000,28,0.4431003928,,,
231.0000000000,28,0.4405390918,,,
231.2500000000,28,0.4431003928,,,
231.5000000000,28,0.4392584860,,,
231.7500000000,28,0.4431003928,,,
232.0000000000,29,0.4392584860,,,
232.2500000000,29,0.4431003928,,,
232.5000000000,29,0.4405390918,,,
232.7500000000,29,0.4418197870,,,
233.0000000000,29,0.4392584860,,,
233.2500000000,29,0.4405390918,,,
233.5000000000,29,0.4405390918,,,
233.7500000000,29,0.4405390918,,,
234.0000000000,29,0.4418197870,,,
234.2500000000,29,0.4392584860,,,
234.5000000000,29,0.4405390918,,,
234.7500000000,29,0.4405390918,,,
235.0000000000,29,0.4431003928,,,
235.2500000000,29,0.4405390918,,,
235.5000000000,29,0.4431003928,,,
235.7500000000,29,0.4405390918,,,
236.0000000000,29,0.4405390918,,,
236.2500000000,29,0.4443809986,,,
236.5000000000,29,0.4418197870,,,
236.7500000000,29,0.4431003928,,,
237.0000000000,29,0.4392584860,,,
237.2500000000,29,0.4418197870,,,
237.5000000000,29,0.4418197870,,,
237.7500000000,29,0.4431003928,,,
238.0000000000,29,0.4418197870,,,
238.2500000000,29,0.4443809986,,,
238.5000000000,29,0.4418197870,,,
238.7500000000,29,0.4443809986,,,
239.0000000000,29,0.4418197870,,,
239.2500000000,29,0.4418197870,,,
239.5000000000,29,0.4443809986,,,
239.7500000000,29,0.4405390918,,,
240.0000000000,30,0.4431003928,,,
240.2500000000,30,0.4418197870,,,
240.5000000000,30,0.4418197870,,,
240.7500000000,30,0.4418197870,,,
241.0000000000,30,0.4443809986,,,
241.2500000000,30,0.4418197870,,,
241.5000000000,30,0.4443809986,,,
241.7500000000,30,0.4418197870,,,
242.0000000000,30,0.4456616938,,,
242.2500000000,30,0.4431003928,,,
242.5000000000,30,0.4405390918,,,
242.7500000000,30,0.4418197870,,,
243.0000000000,30,0.4431003928,,,
243.2500000000,30,0.4443809986,,,
243.5000000000,30,0.4431003928,,,
243.7500000000,30,0.4443809986,,,
244.0000000000,30,0.4418197870,,,
244.2500000000,30,0.4431003928,,,
244.5000000000,30,0.4418197870,,,
244.7500000000,30,0.4443809986,,,
245.0000000000,30,0.4418197870,,,
245.2500000000,30,0.4431003928,,,
245.5000000000,30,0.4418197870,,,
245.7500000000,30,0.4431003928,,,
246.0000000000,30,0.4418197870,,,
246.2500000000,30,0.4469422996,,,
246.5000000000,30,0.4431003928,,,
246.7500000000,30,0.4431003928,,,
247.0000000000,30,0.4469422996,,,
247.2500000000,30,0.4443809986,,,
247.5000000000,30,0.4456616938,,,
247.7500000000,30,0.4443809986,,,
248.0000000000,31,0.4431003928,,,
248.2500000000,31,0.4431003928,,,
248.5000000000,31,0.4456616938,,,
248.7500000000,31,0.4443809986,,,
249.0000000000,31,0.4469422996,,,
249.2500000000,31,0.4456616938,,,
249.5000000000,31,0.4469422996,,,
249.7500000000,31,0.4443809986,,,
250.0000000000,31,0.4469422996,,,
250.2500000000,31,0.4443809986,,,
250.5000000000,31,0.4482229948,,,
250.7500000000,31,0.4443809986,,,
251.0000000000,31,0.4469422996,,,
251.2500000000,31,0.4456616938,,,
251.5000000000,31,0.4443809986,,,
251.7500000000,31,0.4456616938,,,
252.0000000000,31,0.4443809986,,,
252.2500000000,31,0.4469422996,,,
252.5000000000,31,0.4456616938,,,
252.7500000000,31,0.4469422996,,,
253.0000000000,31,0.4443809986,,,
253.2500000000,31,0.4443809986,,,
253.5000000000,31,0.4418197870,,,
253.7500000000,31,0.4469422996,,,
254.0000000000,31,0.4443809986,,,
254.2500000000,31,0.4469422996,,,
254.5000000000,31,0.4443809986,,,
254.7500000000,31,0.4469422996,,,
255.0000000000,31,0.4443809986,,,
255.2500000000,31,0.4443809986,,,
255.5000000000,31,0.4456616938,,,
255.7500000000,31,0.4443809986,,,
256.0000000000,32,0.4456616938,,,
256.2500000000,32,0.4431003928,,,
256.5000000000,32,0.4469422996,,,
256.7500000000,32,0.4443809986,,,
257.0000000000,32,0.4469422996,,,
257.2500000000,32,0.4443809986,,,
257.5000000000,32,0.4482229948,,,
257.7500000000,32,0.4456616938,,,
258.0000000000,32,0.4482229948,,,
258.2500000000,32,0.4456616938,,,
258.5000000000,32,0.4456616938,,,
258.7500000000,32,0.4456616938,,,
259.0000000000,32,0.4443809986,,,
259.2500000000,32,0.4482229948,,,
259.5000000000,32,0.4456616938,,,
259.7500000000,32,0.4456616938,,,
260.0000000000,32,0.4456616938,,,
260.2500000000,32,0.4482229948,,,
260.5000000000,32,0.4456616938,,,
260.7500000000,32,0.4495036006,,,
261.0000000000,32,0.4469422996,,,
261.2500000000,32,0.4507842064,,,
261.5000000000,32,0.4469422996,,,
261.7500000000,32,0.4456616938,,,
262.0000000000,32,0.4482229948,,,
262.2500000000,32,0.4469422996,,,
262.5000000000,32,0.4482229948,,,
262.7500000000,32,0.4469422996,,,
263.0000000000,32,0.4482229948,,,
263.2500000000,32,0.4469422996,,,
263.5000000000,32,0.4495036006,,,
263.7500000000,32,0.4482229948,,,
264.0000000000,33,0.4495036006,,,
264.2500000000,33,0.4469422996,,,
264.5000000000,33,0.4495036006,,,
264.7500000000,33,0.4482229948,,,
265.0000000000,33,0.4482229948,,,
265.2500000000,33,0.4482229948,,,
265.5000000000,33,0.4482229948,,,
265.7500000000,33,0.4507842064,,,
266.0000000000,33,0.4482229948,,,
266.2500000000,33,0.4507842064,,,
266.5000000000,33,0.4482229948,,,
266.7500000000,33,0.4507842064,,,
267.0000000000,33,0.4482229948,,,
267.2500000000,33,0.4482229948,,,
267.5000000000,33,0.4495036006,,,
267.7500000000,33,0.4495036006,,,
268.0000000000,33,0.4520649016,,,
268.2500000000,33,0.4495036006,,,
268.5000000000,33,0.4495036006,,,
268.7500000000,33,0.4495036006,,,
269.0000000000,33,0.4520649016,,,
269.2500000000,33,0.4495036006,,,
269.5000000000,33,0.4507842064,,,
269.7500000000,33,0.4482229948,,,
270.0000000000,33,0.4520649016,,,
270.2500000000,33,0.4482229948,,,
270.5000000000,33,0.4495036006,,,
270.7500000000,33,0.4507842064,,,
271.0000000000,33,0.4482229948,,,
271.2500000000,33,0.4507842064,,,
271.5000000000,33,0.4482229948,,,
271.7500000000,33,0.4520649016,,,
272.0000000000,34,0.4507842064,,,
272.2500000000,34,0.4520649016,,,
272.5000000000,34,0.4495036006,,,
272.7500000000,34,0.4495036006,,,
273.0000000000,34,0.4520649016,,,
273.2500000000,34,0.4507842064,,,
273.5000000000,34,0.4520649016,,,
273.7500000000,34,0.4507842064,,,
274.0000000000,34,0.4507842064,,,
274.2500000000,34,0.4507842064,,,
274.5000000000,34,0.4533455074,,,
274.7500000000,34,0.4507842064,,,
275.0000000000,34,0.4533455074,,,
275.2500000000,34,0.4507842064,,,
275.5000000000,34,0.4482229948,,,
275.7500000000,34,0.4507842064,,,
276.0000000000,34,0.4507842064,,,
276.2500000000,34,0.4520649016,,,
276.5000000000,34,0.4507842064,,,
276.7500000000,34,0.4520649016,,,
277.0000000000,34,0.4507842064,,,
277.2500000000,34,0.4520649016,,,
277.5000000000,34,0.4546261132,,,
277.7500000000,34,0.4520649016,,,
278.0000000000,34,0.4507842064,,,
278.2500000000,34,0.4520649016,,,
278.5000000000,34,0.4507842064,,,
278.7500000000,34,0.4533455074,,,
279.0000000000,34,0.4520649016,,,
279.2500000000,34,0.4520649016,,,
279.5000000000,34,0.4533455074,,,
279.7500000000,34,0.4533455074,,,
280.0000000000,35,0.4546261132,,,
280.2500000000,35,0.4507842064,,,
280.5000000000,35,0.4533455074,,,
280.7500000000,35,0.4520649016,,,
281.0000000000,35,0.4507842064,,,
281.2500000000,35,0.4520649016,,,
281.5000000000,35,0.4533455074,,,
281.7500000000,35,0.4520649016,,,
282.0000000000,35,0.4533455074,,,
282.2500000000,35,0.4520649016,,,
282.5000000000,35,0.4533455074,,,
282.7500000000,35,0.4520649016,,,
283.0000000000,35,0.4533455074,,,
283.2500000000,35,0.4520649016,,,
283.5000000000,35,0.4546261132,,,
283.7500000000,35,0.4507842064,,,
284.0000000000,35,0.4546261132,,,
284.2500000000,35,0.4533455074,,,
284.5000000000,35,0.4520649016,,,
284.7500000000,35,0.4533455074,,,
285.0000000000,35,0.4520649016,,,
285.2500000000,35,0.4533455074,,,
285.5000000000,35,0.4520649016,,,
285.7500000000,35,0.4533455074,,,
286.0000000000,35,0.4520649016,,,
286.2500000000,35,0.4546261132,,,
286.5000000000,35,0.4507842064,,,
286.7500000000,35,0.4546261132,,,
287.0000000000,35,0.4520649016,,,
287.2500000000,35,0.4546261132,,,
287.5000000000,35,0.4520649016,,,
287.7500000000,35,0.4559068084,,,
288.0000000000,36,0.4520649016,,,
288.2500000000,36,0.4559068084,,,
288.5000000000,36,0.4520649016,,,
288.7500000000,36,0.4533455074,,,
289.0000000000,36,0.4546261132,,,
289.2500000000,36,0.4507842064,,,
289.5000000000,36,0.4533455074,,,
289.7500000000,36,0.4533455074,,,
290.0000000000,36,0.4546261132,,,
290.2500000000,36,0.4533455074,,,
290.5000000000,36,0.4559068084,,,
290.7500000000,36,0.4533455074,,,
291.0000000000,36,0.4546261132,,,
291.2500000000,36,0.4520649016,,,
291.5000000000,36,0.4546261132,,,
291.7500000000,36,0.4520649016,,,
292.0000000000,36,0.4507842064,,,
292.2500000000,36,0.4546261132,,,
292.5000000000,36,0.4533455074,,,
292.7500000000,36,0.4559068084,,,
293.0000000000,36,0.4533455074,,,
293.2500000000,36,0.4546261132,,,
293.5000000000,36,0.4533455074,,,
293.7500000000,36,0.4546261132,,,
294.0000000000,36,0.4546261132,,,
294.2500000000,36,0.4559068084,,,
294.5000000000,36,0.4533455074,,,
294.7500000000,36,0.4546261132,,,
295.0000000000,36,0.4533455074,,,
295.2500000000,36,0.4559068084,,,
295.5000000000,36,0.4533455074,,,
295.7500000000,36,0.4559068084,,,
296.0000000000,37,0.4533455074,,,
296.2500000000,37,0.4559068084,,,
296.5000000000,37,0.4533455074,,,
296.7500000000,37,0.4571874142,,,
297.0000000000,37,0.4533455074,,,
297.2500000000,37,0.4559068084,,,
297.5000000000,37,0.4520649016,,,
297.7500000000,37,0.4533455074,,,
298.0000000000,37,0.4546261132,,,
298.2500000000,37,0.4533455074,,,
298.5000000000,37,0.4546261132,,,
298.7500000000,37,0.4533455074,,,
299.0000000000,37,0.4559068084,,,
299.2500000000,37,0.4546261132,,,
299.5000000000,37,0.4546261132,,,
299.7500000000,37,0.4533455074,,,
300.0000000000,37,0.4559068084,,,
300.2500000000,37,0.4533455074,,,
300.5000000000,37,0.4571874142,,,
300.7500000000,37,0.4546261132,,,
301.0000000000,37,0.4559068084,,,
301.2500000000,37,0.4546261132,,,
301.5000000000,37,0.4584679902,,,
301.7500000000,37,0.4546261132,,,
302.0000000000,37,0.4546261132,,,
302.2500000000,37,0.4571874142,,,
302.5000000000,37,0.4546261132,,,
302.7500000000,37,0.4559068084,,,
303.0000000000,37,0.4546261132,,,
303.2500000000,37,0.4584679902,,,
303.5000000000,37,0.4571874142,,,
303.7500000000,37,0.4584679902,,,
304.0000000000,38,0.4559068084,,,
304.2500000000,38,0.4584679902,,,
304.5000000000,38,0.4559068084,,,
304.7500000000,38,0.4584679902,,,
305.0000000000,38,0.4559068084,,,
305.2500000000,38,0.4584679902,,,
305.5000000000,38,0.4559068084,,,
305.7500000000,38,0.4559068084,,,
306.0000000000,38,0.4559068084,,,
306.2500000000,38,0.4571874142,,,
306.5000000000,38,0.4584679902,,,
306.7500000000,38,0.4559068084,,,
307.0000000000,38,0.4584679902,,,
307.2500000000,38,0.4559068084,,,
307.5000000000,38,0.4559068084,,,
307.7500000000,38,0.4559068084,,,
308.0000000000,38,0.4584679902,,,
308.2500000000,38,0.4559068084,,,
308.5000000000,38,0.4571874142,,,
308.7500000000,38,0.4559068084,,,
309.0000000000,38,0.4584679902,,,
309.2500000000,38,0.4559068084,,,
309.5000000000,38,0.4584679902,,,
309.7500000000,38,0.4559068084,,,
310.0000000000,38,0.4584679902,,,
310.2500000000,38,0.4546261132,,,
310.5000000000,38,0.4584679902,,,
310.7500000000,38,0.4559068084,,,
311.0000000000,38,0.4559068084,,,
311.2500000000,38,0.4597486854,,,
311.5000000000,38,0.4546261132,,,
311.7500000000,38,0.4571874142,,,
312.0000000000,39,0.4546261132,,,
312.2500000000,39,0.4584679902,,,
312.5000000000,39,0.4559068084,,,
312.7500000000,39,0.4571874142,,,
313.0000000000,39,0.4559068084,,,
313.2500000000,39,0.4584679902,,,
313.5000000000,39,0.4546261132,,,
313.7500000000,39,0.4559068084,,,
314.0000000000,39,0.4546261132,,,
314.2500000000,39,0.4571874142,,,
314.5000000000,39,0.4546261132,,,
314.7500000000,39,0.4571874142,,,
315.0000000000,39,0.4546261132,,,
315.2500000000,39,0.4546261132,,,
315.5000000000,39,0.4559068084,,,
315.7500000000,39,0.4546261132,,,
316.0000000000,39,0.4559068084,,,
316.2500000000,39,0.4546261132,,,
316.5000000000,39,0.4546261132,,,
316.7500000000,39,0.4533455074,,,
317.0000000000,39,0.4571874142,,,
317.2500000000,39,0.4559068084,,,
317.5000000000,39,0.4571874142,,,
317.7500000000,39,0.4559068084,,,
318.0000000000,39,0.4571874142,,,
318.2500000000,39,0.4533455074,,,
318.5000000000,39,0.4546261132,,,
318.7500000000,39,0.4559068084,,,
319.0000000000,39,0.4533455074,,,
319.2500000000,39,0.4559068084,,,
319.5000000000,39,0.4533455074,,,
319.7500000000,39,0.4533455074,,,
320.0000000000,40,0.4546261132,,,
320.2500000000,40,0.4571874142,,,
320.5000000000,40,0.4546261132,,,
320.7500000000,40,0.4571874142,,,
321.0000000000,40,0.4533455074,,,
321.2500000000,40,0.4559068084,,,
321.5000000000,40,0.4533455074,,,
321.7500000000,40,0.4533455074,,,
322.0000000000,40,0.4546261132,,,
322.2500000000,40,0.4533455074,,,
322.5000000000,40,0.4546261132,,,
322.7500000000,40,0.4546261132,,,
323.0000000000,40,0.4559068084,,,
323.2500000000,40,0.4533455074,,,
323.5000000000,40,0.4546261132,,,
323.7500000000,40,0.4533455074,,,
324.0000000000,40,0.4559068084,,,
324.2500000000,40,0.4533455074,,,
324.5000000000,40,0.4571874142,,,
324.7500000000,40,0.4533455074,,,
325.0000000000,40,0.4546261132,,,
325.2500000000,40,0.4533455074,,,
325.5000000000,40,0.4546261132,,,
325.7500000000,40,0.4559068084,,,
326.0000000000,40,0.4533455074,,,
326.2500000000,40,0.4571874142,,,
326.5000000000,40,0.4533455074,,,
326.7500000000,40,0.4546261132,,,
327.0000000000,40,0.4533455074,,,
327.2500000000,40,0.4546261132,,,
327.5000000000,40,0.4533455074,,,
327.7500000000,40,0.4559068084,,,
328.0000000000,41,0.4546261132,,,
328.2500000000,41,0.4571874142,,,
328.5000000000,41,0.4533455074,,,
328.7500000000,41,0.4571874142,,,
329.0000000000,41,0.4533455074,,,
329.2500000000,41,0.4571874142,,,
329.5000000000,41,0.4533455074,,,
329.7500000000,41,0.4559068084,,,
330.0000000000,41,0.4559068084,,,
330.2500000000,41,0.4546261132,,,
330.5000000000,41,0.4546261132,,,
330.7500000000,41,0.4533455074,,,
331.0000000000,41,0.4559068084,,,
331.2500000000,41,0.4546261132,,,
331.5000000000,41,0.4546261132,,,
331.7500000000,41,0.4533455074,,,
332.0000000000,41,0.4559068084,,,
332.2500000000,41,0.4546261132,,,
332.5000000000,41,0.4559068084,,,
332.7500000000,41,0.4533455074,,,
333.0000000000,41,0.4559068084,,,
333.2500000000,41,0.4533455074,,,
333.5000000000,41,0.4559068084,,,
333.7500000000,41,0.4533455074,,,
334.0000000000,41,0.4571874142,,,
334.2500000000,41,0.4546261132,,,
334.5000000000,41,0.4546261132,,,
334.7500000000,41,0.4559068084,,,
335.0000000000,41,0.4533455074,,,
335.2500000000,41,0.4559068084,,,
335.5000000000,41,0.4546261132,,,
335.7500000000,41,0.4546261132,,,
336.0000000000,42,0.4533455074,,,
336.2500000000,42,0.4546261132,,,
336.5000000000,42,0.4533455074,,,
336.7500000000,42,0.4571874142,,,
337.0000000000,42,0.4546261132,,,
337.2500000000,42,0.4571874142,,,
337.5000000000,42,0.4546261132,,,
337.7500000000,42,0.4559068084,,,
338.0000000000,42,0.4546261132,,,
338.2500000000,42,0.4546261132,,,
338.5000000000,42,0.4559068084,,,
338.7500000000,42,0.4559068084,,,
339.0000000000,42,0.4559068084,,,
339.2500000000,42,0.4559068084,,,
339.5000000000,42,0.4559068084,,,
339.7500000000,42,0.4559068084,,,
340.0000000000,42,0.4559068084,,,
340.2500000000,42,0.4559068084,,,
340.5000000000,42,0.4559068084,,,
340.7500000000,42,0.4559068084,,,
341.0000000000,42,0.4559068084,,,
341.2500000000,42,0.4559068084,,,
341.5000000000,42,0.4559068084,,,
341.7500000000,42,0.4559068084,,,
342.0000000000,42,0.4559068084,,,
342.2500000000,42,0.4559068084,,,
342.5000000000,42,0.4559068084,,,
342.7500000000,42,0.4559068084,,,
343.0000000000,42,0.4559068084,,,
343.2500000000,42,0.4559068084,,,
343.5000000000,42,0.4559068084,,,
343.7500000000,42,0.4559068084,,,
344.0000000000,43,0.4559068084,,,
344.2500000000,43,0.4559068084,,,
344.5000000000,43,0.4559068084,,,
344.7500000000,43,0.4559068084,,,
345.0000000000,43,0.4559068084,,,
345.2500000000,43,0.4559068084,,,
345.5000000000,43,0.4559068084,,,
345.7500000000,43,0.4559068084,,,
346.0000000000,43,0.4559068084,,,
346.2500000000,43,0.4559068084,,,
346.5000000000,43,0.4559068084,,,
346.7500000000,43,0.4559068084,,,
347.0000000000,43,0.4559068084,,,
347.2500000000,43,0.4559068084,,,
347.5000000000,43,0.4559068084,,,
347.7500000000,43,0.4559068084,,,
348.0000000000,43,0.4559068084,,,
348.2500000000,43,0.4559068084,,,
348.5000000000,43,0.4559068084,,,
348.7500000000,43,0.4559068084,,,
349.0000000000,43,0.4559068084,,,
349.2500000000,43,0.4559068084,,,
349.5000000000,43,0.4559068084,,,
349.7500000000,43,0.4559068084,,,
350.0000000000,43,0.4559068084,,,
350.2500000000,43,0.4559068084,,,
350.5000000000,43,0.4559068084,,,
350.7500000000,43,0.4559068084,,,
351.0000000000,43,0.4559068084,,,
351.2500000000,43,0.4559068084,,,
351.5000000000,43,0.4559068084,,,
351.7500000000,43,0.4559068084,,,
352.0000000000,44,0.4559068084,,,
352.2500000000,44,0.4559068084,,,
352.5000000000,44,0.4559068084,,,
352.7500000000,44,0.4559068084,,,
353.0000000000,44,0.4559068084,,,
353.2500000000,44,0.4559068084,,,
353.5000000000,44,0.4559068084,,,
353.7500000000,44,0.4559068084,,,
354.0000000000,44,0.4559068084,,,
354.2500000000,44,0.4559068084,,,
354.5000000000,44,0.4559068084,,,
354.7500000000,44,0.4559068084,,,
355.0000000000,44,0.4559068084,,,
355.2500000000,44,0.4559068084,,,
355.5000000000,44,0.4559068084,,,
355.7500000000,44,0.4559068084,,,
356.0000000000,44,0.4559068084,,,
356.2500000000,44,0.4559068084,,,
356.5000000000,44,0.4559068084,,,
356.7500000000,44,0.4559068084,,,
357.0000000000,44,0.4559068084,,,
357.2500000000,44,0.4559068084,,,
357.5000000000,44,0.4546261132,,,
357.7500000000,44,0.4559068084,,,
358.0000000000,44,0.4546261132,,,
358.2500000000,44,0.4584679902,,,
358.5000000000,44,0.4546261132,,,
358.7500000000,44,0.4584679902,,,
359.0000000000,44,0.4559068084,,,
359.2500000000,44,0.4559068084,,,
359.5000000000,44,0.4559068084,,,
359.7500000000,44,0.4559068084,,,
360.0000000000,45,0.4559068084,,,
360.2500000000,45,0.4559068084,,,
360.5000000000,45,0.4559068084,,,
360.7500000000,45,0.4559068084,,,
361.0000000000,45,0.4559068084,,,
361.2500000000,45,0.4559068084,,,
361.5000000000,45,0.4559068084,,,
361.7500000000,45,0.4559068084,,,
362.0000000000,45,0.4559068084,,,
362.2500000000,45,0.4559068084,,,
362.5000000000,45,0.4559068084,,,
362.7500000000,45,0.4559068084,,,
363.0000000000,45,0.4559068084,,,
363.2500000000,45,0.4559068084,,,
363.5000000000,45,0.4559068084,,,
363.7500000000,45,0.4559068084,,,
364.0000000000,45,0.4546261132,,,
364.2500000000,45,0.4559068084,,,
364.5000000000,45,0.4584679902,,,
364.7500000000,45,0.4559068084,,,
365.0000000000,45,0.4584679902,,,
365.2500000000,45,0.4571874142,,,
365.5000000000,45,0.4584679902,,,
365.7500000000,45,0.4559068084,,,
366.0000000000,45,0.4559068084,,,
366.2500000000,45,0.4559068084,,,
366.5000000000,45,0.4559068084,,,
366.7500000000,45,0.4571874142,,,
367.0000000000,45,0.4571874142,,,
367.2500000000,45,0.4597486854,,,
367.5000000000,45,0.4571874142,,,
367.7500000000,45,0.4584679902,,,
