Time:4Hz,Epoch,Channel 1,Event Id,Event Date,Event Duration
0.0000000000,0,3.4549379349,,,
0.2500000000,0,3.4523770809,,,
0.5000000000,0,3.4594590664,,,
0.7500000000,0,3.4504940510,,,
1.0000000000,0,3.4492130280,,,
1.2500000000,0,3.4504940510,,,
1.5000000000,0,3.4568970203,,,
1.7500000000,0,3.4530549049,,,
2.0000000000,0,3.4530549049,,,
2.2500000000,0,3.4517738819,,,
2.5000000000,0,3.4492130280,,,
2.7500000000,0,3.4466509819,,,
3.0000000000,0,3.4389669895,,,
3.2500000000,0,3.4504940510,,,
3.5000000000,0,3.4415290356,,,
3.7500000000,0,3.4351251125,,,
4.0000000000,0,3.4300019741,,,
4.2500000000,0,3.4235990047,,,
4.5000000000,0,3.4261600971,,,
4.7500000000,0,3.4120719433,,,
5.0000000000,0,3.4210369587,,,
5.2500000000,0,3.4069490433,,,
5.5000000000,0,3.3941419125,,,
5.7500000000,0,3.3877379894,,,
6.0000000000,0,3.3877379894,,,
6.2500000000,0,3.3915810585,,,
6.5000000000,0,3.3570010662,,,
6.7500000000,0,3.3531589508,,,
7.0000000000,0,3.3441939354,,,
7.2500000000,0,3.3352289200,,,
7.5000000000,0,3.3313870430,,,
7.7500000000,0,3.3313870430,,,
8.0000000000,1,3.3185799122,,,
8.2500000000,1,3.3429129124,,,
8.5000000000,1,3.3237030506,,,
8.7500000000,1,3.3108959198,,,
9.0000000000,1,3.3019309044,,,
9.2500000000,1,3.3006498814,,,
9.5000000000,1,3.3070540428,,,
9.7500000000,1,3.2968080044,,,
10.0000000000,1,3.2916851044,,,
10.2500000000,1,3.2827200890,,,
10.5000000000,1,3.2737550735,,,
10.7500000000,1,3.2775969505,,,
11.0000000000,1,3.2686319351,,,
11.2500000000,1,3.2724740505,,,
11.5000000000,1,3.2609479427,,,
11.7500000000,1,3.2583858967,,,
12.0000000000,1,3.2532629967,,,
12.2500000000,1,3.2532629967,,,
12.5000000000,1,3.2519829273,,,
12.7500000000,1,3.2532629967,,,
13.0000000000,1,3.2545440197,,,
13.2500000000,1,3.2340528965,,,
13.5000000000,1,3.2340528965,,,
13.7500000000,1,3.2238070965,,,
14.0000000000,1,3.2161231041,,,
14.2500000000,1,3.2122809887,,,
14.5000000000,1,3.2084379196,,,
14.7500000000,1,3.2148420811,,,
15.0000000000,1,3.2058770657,,,
15.2500000000,1,3.2071580887,,,
15.5000000000,1,3.2058770657,,,
15.7500000000,1,3.2007539272,,,
16.0000000000,2,3.1892280579,,,
16.2500000000,2,3.1917889118,,,
16.5000000000,2,3.1981930733,,,
16.7500000000,2,3.1853859425,,,
17.0000000000,2,3.1879470348,,,
17.2500000000,2,3.1892280579,,,
17.5000000000,2,3.1764209270,,,
17.7500000000,2,3.1789820194,,,
18.0000000000,2,3.1648941040,,,
18.2500000000,2,3.1738588810,,,
18.5000000000,2,3.1610519886,,,
18.7500000000,2,3.1533679962,,,
19.0000000000,2,3.1559290886,,,
19.2500000000,2,3.1469640732,,,
19.5000000000,2,3.1559290886,,,
19.7500000000,2,3.1303150654,,,
20.0000000000,2,3.1162269115,,,
20.2500000000,2,3.1187880039,,,
20.5000000000,2,3.1187880039,,,
20.7500000000,2,3.1085429192,,,
21.0000000000,2,3.1175079346,,,
21.2500000000,2,3.1072618961,,,
21.5000000000,2,3.1021389961,,,
21.7500000000,2,3.1098229885,,,
22.0000000000,2,3.0957360268,,,
22.2500000000,2,3.1059811115,,,
22.5000000000,2,3.0995779037,,,
22.7500000000,2,3.0906128883,,,
23.0000000000,2,3.0842089653,,,
23.2500000000,2,3.0944550037,,,
23.5000000000,2,3.0918929577,,,
23.7500000000,2,3.0790860653,,,
24.0000000000,3,3.0778059959,,,
24.2500000000,3,3.0803670883,,,
24.5000000000,3,3.0726830959,,,
24.7500000000,3,3.0765249729,,,
25.0000000000,3,3.0752439499,,,
25.2500000000,3,3.0637180805,,,
25.5000000000,3,3.0573139191,,,
25.7500000000,3,3.0509109497,,,
26.0000000000,3,3.0598759651,,,
26.2500000000,3,3.0316998959,,,
26.5000000000,3,3.0432260036,,,
26.7500000000,3,3.0329809189,,,
27.0000000000,3,3.0393838882,,,
27.2500000000,3,3.0355420113,,,
27.5000000000,3,3.0291390419,,,
27.7500000000,3,3.0240159035,,,
28.0000000000,3,3.0176119804,,,
28.2500000000,3,3.0278580189,,,
28.5000000000,3,3.0304191113,,,
28.7500000000,3,3.0163309574,,,
29.0000000000,3,3.0150508881,,,
29.2500000000,3,3.0073659420,,,
29.5000000000,3,3.0048050880,,,
29.7500000000,3,2.9984009266,,,
30.0000000000,3,2.9971210957,,,
30.2500000000,3,2.9984009266,,,
30.5000000000,3,2.9868750572,,,
30.7500000000,3,2.9932789803,,,
31.0000000000,3,2.9779100418,,,
31.2500000000,3,2.9817519188,,,
31.5000000000,3,2.9791910648,,,
31.7500000000,3,2.9740679264,,,
32.0000000000,4,2.9791910648,,,
32.2500000000,4,2.9561378956,,,
32.5000000000,4,2.9879701138,,,
32.7500000000,4,2.9572329521,,,
33.0000000000,4,2.9521100521,,,
33.2500000000,4,2.9431450367,,,
33.5000000000,4,2.9521100521,,,
33.7500000000,4,2.9495489597,,,
34.0000000000,4,2.9380218983,,,
34.2500000000,4,2.9393029213,,,
34.5000000000,4,2.9328989983,,,
34.7500000000,4,2.9431450367,,,
35.0000000000,4,2.9444260597,,,
35.2500000000,4,2.9303379059,,,
35.5000000000,4,2.9252150059,,,
35.7500000000,4,2.9264960289,,,
36.0000000000,4,2.9277770519,,,
36.2500000000,4,2.9175310135,,,
36.5000000000,4,2.9175310135,,,
36.7500000000,4,2.9162499905,,,
37.0000000000,4,2.9200921059,,,
37.2500000000,4,2.9175310135,,,
37.5000000000,4,2.9111270905,,,
37.7500000000,4,2.9098470211,,,
38.0000000000,4,2.9111270905,,,
38.2500000000,4,2.9047238827,,,
38.5000000000,4,2.9034430981,,,
38.7500000000,4,2.8906359673,,,
39.0000000000,4,2.8919169903,,,
39.2500000000,4,2.8906359673,,,
39.5000000000,4,2.8816709518,,,
39.7500000000,4,2.8714249134,,,
40.0000000000,5,2.8637409210,,,
40.2500000000,5,2.8714249134,,,
40.5000000000,5,2.8701438904,,,
40.7500000000,5,2.8727059364,,,
41.0000000000,5,2.8598990440,,,
41.2500000000,5,2.8573369980,,,
41.5000000000,5,2.8534948826,,,
41.7500000000,5,2.8560559750,,,
42.0000000000,5,2.8458108902,,,
42.2500000000,5,2.8406879902,,,
42.5000000000,5,2.8419690132,,,
42.7500000000,5,2.8406879902,,,
43.0000000000,5,2.8458108902,,,
43.2500000000,5,2.8342840672,,,
43.5000000000,5,2.8304419518,,,
43.7500000000,5,2.8317229748,,,
44.0000000000,5,2.8253190517,,,
44.2500000000,5,2.8278810978,,,
44.5000000000,5,2.8201971054,,,
44.7500000000,5,2.8163549900,,,
45.0000000000,5,2.8214769363,,,
45.2500000000,5,2.8137929440,,,
45.5000000000,5,2.8330039978,,,
45.7500000000,5,2.8048279285,,,
46.0000000000,5,2.8022670746,,,
46.2500000000,5,2.8035469055,,,
46.5000000000,5,2.7997050285,,,
46.7500000000,5,2.8048279285,,,
47.0000000000,5,2.7830560207,,,
47.2500000000,5,2.7868978977,,,
47.5000000000,5,2.7792139053,,,
47.7500000000,5,2.7830560207,,,
48.0000000000,6,2.7830560207,,,
48.2500000000,6,2.7625639439,,,
48.5000000000,6,2.7612841129,,,
48.7500000000,6,2.7587220669,,,
49.0000000000,6,2.7651259899,,,
49.2500000000,6,2.7561609745,,,
49.5000000000,6,2.7510380745,,,
49.7500000000,6,2.7471959591,,,
50.0000000000,6,2.7471959591,,,
50.2500000000,6,2.7523190975,,,
50.5000000000,6,2.7433540821,,,
50.7500000000,6,2.7407920361,,,
51.0000000000,6,2.7318270206,,,
51.2500000000,6,2.7343890667,,,
51.5000000000,6,2.7356688976,,,
51.7500000000,6,2.7254240513,,,
52.0000000000,6,2.7318270206,,,
52.2500000000,6,2.7369499207,,,
52.5000000000,6,2.7203009129,,,
52.7500000000,6,2.7190198898,,,
53.0000000000,6,2.7151780128,,,
53.2500000000,6,2.7164590359,,,
53.5000000000,6,2.7074940205,,,
53.7500000000,6,2.7023708820,,,
54.0000000000,6,2.7010900974,,,
54.2500000000,6,2.6985290051,,,
54.5000000000,6,2.7010900974,,,
54.7500000000,6,2.6895639896,,,
55.0000000000,6,2.6870019436,,,
55.2500000000,6,2.6805989742,,,
55.5000000000,6,2.6946868896,,,
55.7500000000,6,2.6959669590,,,
56.0000000000,7,2.6831600666,,,
56.2500000000,7,2.6831600666,,,
56.5000000000,7,2.6754760742,,,
56.7500000000,7,2.6754760742,,,
57.0000000000,7,2.6665110588,,,
57.2500000000,7,2.6652300358,,,
57.5000000000,7,2.6652300358,,,
57.7500000000,7,2.6575460434,,,
58.0000000000,7,2.6716339588,,,
58.2500000000,7,2.6575460434,,,
58.5000000000,7,2.6562650204,,,
58.7500000000,7,2.6562650204,,,
59.0000000000,7,2.6485810280,,,
59.2500000000,7,2.6588270664,,,
59.5000000000,7,2.6473000050,,,
59.7500000000,7,2.6498620510,,,
60.0000000000,7,2.6434578896,,,
60.2500000000,7,2.6434578896,,,
60.5000000000,7,2.6498620510,,,
60.7500000000,7,2.6370539665,,,
61.0000000000,7,2.6370539665,,,
61.2500000000,7,2.6396160126,,,
61.5000000000,7,2.6332120895,,,
61.7500000000,7,2.6332120895,,,
62.0000000000,7,2.6268088818,,,
62.2500000000,7,2.6229670048,,,
62.5000000000,7,2.6216859818,,,
62.7500000000,7,2.6178441048,,,
63.0000000000,7,2.6229670048,,,
63.2500000000,7,2.6075980663,,,
63.5000000000,7,2.6101589203,,,
63.7500000000,7,2.6114399433,,,
64.0000000000,8,2.6037559509,,,
64.2500000000,8,2.6088790894,,,
64.5000000000,8,2.5922288895,,,
64.7500000000,8,2.5935099125,,,
65.0000000000,8,2.5960710049,,,
65.2500000000,8,2.5935099125,,,
65.5000000000,8,2.6011939049,,,
65.7500000000,8,2.5896680355,,,
66.0000000000,8,2.5883870125,,,
66.2500000000,8,2.5973520279,,,
66.5000000000,8,2.5845448971,,,
66.7500000000,8,2.5883870125,,,
67.0000000000,8,2.5794219971,,,
67.2500000000,8,2.5755798817,,,
67.5000000000,8,2.5794219971,,,
67.7500000000,8,2.5730190277,,,
68.0000000000,8,2.5794219971,,,
68.2500000000,8,2.5691769123,,,
68.5000000000,8,2.5627729893,,,
68.7500000000,8,2.5653340816,,,
69.0000000000,8,2.5589311123,,,
69.2500000000,8,2.5525269508,,,
69.5000000000,8,2.5486850739,,,
69.7500000000,8,2.5614919662,,,
70.0000000000,8,2.5474050045,,,
70.2500000000,8,2.5486850739,,,
70.5000000000,8,2.5422821045,,,
70.7500000000,8,2.5525269508,,,
71.0000000000,8,2.5410010815,,,
71.2500000000,8,2.5384399891,,,
71.5000000000,8,2.5371589661,,,
71.7500000000,8,2.5307550430,,,
72.0000000000,9,2.5384399891,,,
72.2500000000,9,2.5269129276,,,
72.5000000000,9,2.5217900276,,,
72.7500000000,9,2.5205090046,,,
73.0000000000,9,2.5166668892,,,
73.2500000000,9,2.5128250122,,,
73.5000000000,9,2.5102639198,,,
73.7500000000,9,2.5205090046,,,
74.0000000000,9,2.5230710506,,,
74.2500000000,9,2.5128250122,,,
74.5000000000,9,2.5128250122,,,
74.7500000000,9,2.5077021122,,,
75.0000000000,9,2.5128250122,,,
75.2500000000,9,2.5038599968,,,
75.5000000000,9,2.5012989044,,,
75.7500000000,9,2.5000178814,,,
76.0000000000,9,2.4936139584,,,
76.2500000000,9,2.4987370968,,,
76.5000000000,9,2.4884920120,,,
76.7500000000,9,2.4910531044,,,
77.0000000000,9,2.5000178814,,,
77.2500000000,9,2.4884920120,,,
77.5000000000,9,2.4961760044,,,
77.7500000000,9,2.4808070660,,,
78.0000000000,9,2.4744040966,,,
78.2500000000,9,2.4820880890,,,
78.5000000000,9,2.4731230736,,,
78.7500000000,9,2.4808070660,,,
79.0000000000,9,2.4808070660,,,
79.2500000000,9,2.4769649506,,,
79.5000000000,9,2.4731230736,,,
79.7500000000,9,2.4603159428,,,
80.0000000000,10,2.4888880253,,,
80.2500000000,10,2.4812030792,,,
80.5000000000,10,2.4812030792,,,
80.7500000000,10,2.4658350945,,,
81.0000000000,10,2.4658350945,,,
81.2500000000,10,2.4632730484,,,
81.5000000000,10,2.4607119560,,,
81.7500000000,10,2.4696769714,,,
82.0000000000,10,2.4581499100,,,
82.2500000000,10,2.4530270100,,,
82.5000000000,10,2.4543080330,,,
82.7500000000,10,2.4479050636,,,
83.0000000000,10,2.4568700790,,,
83.2500000000,10,2.4440619946,,,
83.5000000000,10,2.4415009022,,,
83.7500000000,10,2.4504659176,,,
84.0000000000,10,2.4376590252,,,
84.2500000000,10,2.4453430176,,,
84.5000000000,10,2.4325358868,,,
84.7500000000,10,2.4299750328,,,
85.0000000000,10,2.4312551022,,,
85.2500000000,10,2.4261319637,,,
85.5000000000,10,2.4338169098,,,
85.7500000000,10,2.4235711098,,,
86.0000000000,10,2.4197289944,,,
86.2500000000,10,2.4235711098,,,
86.5000000000,10,2.4133250713,,,
86.7500000000,10,2.4184479713,,,
87.0000000000,10,2.4107639790,,,
87.2500000000,10,2.4082019329,,,
87.5000000000,10,2.4082019329,,,
87.7500000000,10,2.4017989635,,,
88.0000000000,11,2.4082019329,,,
88.2500000000,11,2.3992369175,,,
88.5000000000,11,2.3953950405,,,
88.7500000000,11,2.3953950405,,,
89.0000000000,11,2.3864300251,,,
89.2500000000,11,2.3966760635,,,
89.5000000000,11,2.3902719021,,,
89.7500000000,11,2.3889920712,,,
90.0000000000,11,2.3953950405,,,
90.2500000000,11,2.3825879097,,,
90.5000000000,11,2.3864300251,,,
90.7500000000,11,2.3774650097,,,
91.0000000000,11,2.3749039173,,,
91.2500000000,11,2.3749039173,,,
91.5000000000,11,2.3710620403,,,
91.7500000000,11,2.3774650097,,,
92.0000000000,11,2.3723430634,,,
92.2500000000,11,2.3774650097,,,
92.5000000000,11,2.3672199249,,,
92.7500000000,11,2.3620970249,,,
93.0000000000,11,2.3659389019,,,
93.2500000000,11,2.3569738865,,,
93.5000000000,11,2.3633780479,,,
93.7500000000,11,2.3544130325,,,
94.0000000000,11,2.3531320095,,,
94.2500000000,11,2.3518509865,,,
94.5000000000,11,2.3454480171,,,
94.7500000000,11,2.3582549095,,,
95.0000000000,11,2.3480091095,,,
95.2500000000,11,2.3467280865,,,
95.5000000000,11,2.3518509865,,,
95.7500000000,11,2.3416049480,,,
96.0000000000,12,2.3454480171,,,
96.2500000000,12,2.3352019787,,,
96.5000000000,12,2.3390440941,,,
96.7500000000,12,2.3287980556,,,
97.0000000000,12,2.3287980556,,,
97.2500000000,12,2.3223950863,,,
97.5000000000,12,2.3249559402,,,
97.7500000000,12,2.3300790787,,,
98.0000000000,12,2.3172719479,,,
98.2500000000,12,2.3223950863,,,
98.5000000000,12,2.3185520172,,,
98.7500000000,12,2.3147099018,,,
99.0000000000,12,2.3198330402,,,
99.2500000000,12,2.3147099018,,,
99.5000000000,12,2.3287980556,,,
99.7500000000,12,2.3211140633,,,
100.0000000000,12,2.3057448864,,,
100.2500000000,12,2.3095870018,,,
100.5000000000,12,2.3070259094,,,
100.7500000000,12,2.3147099018,,,
101.0000000000,12,2.3134300709,,,
101.2500000000,12,2.3044650555,,,
101.5000000000,12,2.3031840324,,,
101.7500000000,12,2.2980608940,,,
102.0000000000,12,2.3019030094,,,
102.2500000000,12,2.2942190170,,,
102.5000000000,12,2.2903769016,,,
102.7500000000,12,2.2955000401,,,
103.0000000000,12,2.2865350246,33025,103.1875000000,0.0000000000
103.2500000000,12,2.3006219864,33024,103.3437500000,0.0000000000
103.5000000000,12,2.3070259094,,,
103.7500000000,12,2.3262369633,,,
104.0000000000,13,2.3582549095,,,
104.2500000000,13,2.3864300251,,,
104.5000000000,13,2.4415009022,,,
104.7500000000,13,2.4748001099,,,
105.0000000000,13,2.5170629025,,,
105.2500000000,13,2.5542039871,,,
105.5000000000,13,2.5798180103,,,
105.7500000000,13,2.6169590950,,,
106.0000000000,13,2.6336081028,,,
106.2500000000,13,2.6540999413,,,
106.5000000000,13,2.6566610336,,,
106.7500000000,13,2.6579420567,,,
107.0000000000,13,2.6643450260,,,
107.2500000000,13,2.6540999413,,,
107.5000000000,13,2.6438539028,,,
107.7500000000,13,2.6336081028,,,
108.0000000000,13,2.6272048950,,,
108.2500000000,13,2.6233630180,,,
108.5000000000,13,2.6118359566,,,
108.7500000000,13,2.5990290642,,,
109.0000000000,13,2.5939059258,,,
109.2500000000,13,2.5887830257,,,
109.5000000000,13,2.5939059258,,,
109.7500000000,13,2.5836598873,,,
110.0000000000,13,2.5798180103,,,
110.2500000000,13,2.5849409103,,,
110.5000000000,13,2.5746951103,,,
110.7500000000,13,2.5721340179,,,
111.0000000000,13,2.5631690025,,,
111.2500000000,13,2.5618879795,,,
111.5000000000,13,2.5657300949,,,
111.7500000000,13,2.5542039871,,,
112.0000000000,14,2.5529229641,,,
112.2500000000,14,2.5465199947,,,
112.5000000000,14,2.5465199947,,,
112.7500000000,14,2.5516419411,,,
113.0000000000,14,2.5401160717,,,
113.2500000000,14,2.5388350487,,,
113.5000000000,14,2.5401160717,,,
113.7500000000,14,2.5311510563,,,
114.0000000000,14,2.5375549793,,,
114.2500000000,14,2.5285899639,,,
114.5000000000,14,2.5196249485,,,
114.7500000000,14,2.5170629025,,,
115.0000000000,14,2.5093789101,,,
115.2500000000,14,2.5157830715,,,
115.5000000000,14,2.5157830715,,,
115.7500000000,14,2.5068180561,,,
116.0000000000,14,2.5042560101,,,
116.2500000000,14,2.4952909946,,,
116.5000000000,14,2.4888880253,,,
116.7500000000,14,2.4888880253,,,
117.0000000000,14,2.4940099716,,,
117.2500000000,14,2.4940099716,,,
117.5000000000,14,2.4850449562,,,
117.7500000000,14,2.4812030792,,,
118.0000000000,14,2.4850449562,,,
118.2500000000,14,2.4735190868,,,
118.5000000000,14,2.4722380638,,,
118.7500000000,14,2.4632730484,,,
119.0000000000,14,2.4722380638,,,
119.2500000000,14,2.4619929790,,,
119.5000000000,14,2.4671149254,,,
119.7500000000,14,2.4555890560,,,
120.0000000000,15,2.4619929790,,,
120.2500000000,15,2.4504659176,,,
120.5000000000,15,2.4466240406,,,
120.7500000000,15,2.4530270100,,,
121.0000000000,15,2.4466240406,,,
121.2500000000,15,2.4427819252,,,
121.5000000000,15,2.4376590252,,,
121.7500000000,15,2.4325358868,,,
122.0000000000,15,2.4389400482,,,
122.2500000000,15,2.4299750328,,,
122.5000000000,15,2.4299750328,,,
122.7500000000,15,2.4248518944,,,
123.0000000000,15,2.4235711098,,,
123.2500000000,15,2.4222900867,,,
123.5000000000,15,2.4184479713,,,
123.7500000000,15,2.4133250713,,,
124.0000000000,15,2.4146060944,,,
124.2500000000,15,2.4082019329,,,
124.5000000000,15,2.4069221020,,,
124.7500000000,15,2.4005179405,,,
125.0000000000,15,2.4005179405,,,
125.2500000000,15,2.4030799866,,,
125.5000000000,15,2.3953950405,,,
125.7500000000,15,2.3941149712,,,
126.0000000000,15,2.3902719021,,,
126.2500000000,15,2.3877110481,,,
126.5000000000,15,2.3953950405,,,
126.7500000000,15,2.3877110481,,,
127.0000000000,15,2.3800270557,,,
127.2500000000,15,2.3800270557,,,
127.5000000000,15,2.3723430634,,,
127.7500000000,15,2.3787460327,,,
128.0000000000,16,2.3672199249,,,
128.2500000000,16,2.3672199249,,,
128.5000000000,16,2.3736228943,,,
128.7500000000,16,2.3620970249,,,
129.0000000000,16,2.3659389019,,,
129.2500000000,16,2.3595349789,,,
129.5000000000,16,2.3595349789,,,
129.7500000000,16,2.3633780479,,,
130.0000000000,16,2.3544130325,,,
130.2500000000,16,2.3518509865,,,
130.5000000000,16,2.3505699635,,,
130.7500000000,16,2.3467280865,,,
131.0000000000,16,2.3531320095,,,
131.2500000000,16,2.3416049480,,,
131.5000000000,16,2.3428859711,,,
131.7500000000,16,2.3377630711,,,
132.0000000000,16,2.3377630711,,,
132.2500000000,16,2.3428859711,,,
132.5000000000,16,2.3339209557,,,
132.7500000000,16,2.3313601017,,,
133.0000000000,16,2.3313601017,,,
133.2500000000,16,2.3287980556,,,
133.5000000000,16,2.3236749172,,,
133.7500000000,16,2.3223950863,,,
134.0000000000,16,2.3198330402,,,
134.2500000000,16,2.3287980556,,,
134.5000000000,16,2.3121490479,,,
134.7500000000,16,2.3147099018,,,
135.0000000000,16,2.3134300709,,,
135.2500000000,16,2.3095870018,,,
135.5000000000,16,2.3147099018,,,
135.7500000000,16,2.2993419170,,,
136.0000000000,17,2.3031840324,,,
136.2500000000,17,2.3019030094,,,
136.5000000000,17,2.2967801094,,,
136.7500000000,17,2.3031840324,,,
137.0000000000,17,2.3019030094,,,
137.2500000000,17,2.2955000401,,,
137.5000000000,17,2.2878150940,,,
137.7500000000,17,2.2929379940,,,
138.0000000000,17,2.2967801094,,,
138.2500000000,17,2.2878150940,,,
138.5000000000,17,2.2814118862,,,
138.7500000000,17,2.2826919556,,,
139.0000000000,17,2.2852540016,,,
139.2500000000,17,2.2865350246,,,
139.5000000000,17,2.2788500786,,,
139.7500000000,17,2.2711660862,,,
140.0000000000,17,2.2724471092,,,
140.2500000000,17,2.2698850632,,,
140.5000000000,17,2.2750079632,,,
140.7500000000,17,2.2762889862,,,
141.0000000000,17,2.2596399784,,,
141.2500000000,17,2.2557981014,,,
141.5000000000,17,2.2570779324,,,
141.7500000000,17,2.2647619247,,,
142.0000000000,17,2.2634820938,,,
142.2500000000,17,2.2557981014,,,
142.5000000000,17,2.2634820938,,,
142.7500000000,17,2.2557981014,,,
143.0000000000,17,2.2583589554,,,
143.2500000000,17,2.2519550323,,,
143.5000000000,17,2.2506749630,,,
143.7500000000,17,2.2519550323,,,
144.0000000000,18,2.2417099476,,,
144.2500000000,18,2.2532360554,,,
144.5000000000,18,2.2429900169,,,
144.7500000000,18,2.2378680706,,,
145.0000000000,18,2.2378680706,,,
145.2500000000,18,2.2289030552,,,
145.5000000000,18,2.2365870476,,,
145.7500000000,18,2.2263410091,,,
146.0000000000,18,2.2250599861,,,
146.2500000000,18,2.2250599861,,,
146.5000000000,18,2.2237799168,,,
146.7500000000,18,2.2263410091,,,
147.0000000000,18,2.2212181091,,,
147.2500000000,18,2.2160949707,,,
147.5000000000,18,2.2237799168,,,
147.7500000000,18,2.2173759937,,,
148.0000000000,18,2.2173759937,,,
148.2500000000,18,2.2199380398,,,
148.5000000000,18,2.2186570168,,,
148.7500000000,18,2.2250599861,,,
149.0000000000,18,2.2160949707,,,
149.2500000000,18,2.2135341167,,,
149.5000000000,18,2.2084109783,,,
149.7500000000,18,2.2096920013,,,
150.0000000000,18,2.2173759937,,,
150.2500000000,18,2.2071299553,,,
150.5000000000,18,2.2045691013,,,
150.7500000000,18,2.2032880783,,,
151.0000000000,18,2.1981649399,,,
151.2500000000,18,2.2058498859,,,
151.5000000000,18,2.1917619705,,,
151.7500000000,18,2.1943230629,,,
152.0000000000,19,2.2032880783,,,
152.2500000000,19,2.1904809475,,,
152.5000000000,19,2.1981649399,,,
152.7500000000,19,2.1981649399,,,
153.0000000000,19,2.1917619705,,,
153.2500000000,19,2.1917619705,,,
153.5000000000,19,2.1891999245,,,
153.7500000000,19,2.1904809475,,,
154.0000000000,19,2.1827969551,,,
154.2500000000,19,2.1802349091,,,
154.5000000000,19,2.1879200935,,,
154.7500000000,19,2.1776740551,,,
155.0000000000,19,2.1815159321,,,
155.2500000000,19,2.1738319397,,,
155.5000000000,19,2.1712698936,,,
155.7500000000,19,2.1725509167,,,
156.0000000000,19,2.1661469936,,,
156.2500000000,19,2.1751120090,,,
156.5000000000,19,2.1725509167,,,
156.7500000000,19,2.1635859013,,,
157.0000000000,19,2.1738319397,,,
157.2500000000,19,2.1635859013,,,
157.5000000000,19,2.1712698936,,,
157.7500000000,19,2.1571819782,,,
158.0000000000,19,2.1559019089,,,
158.2500000000,19,2.1584630013,,,
158.5000000000,19,2.1520600319,,,
158.7500000000,19,2.1597440243,,,
159.0000000000,19,2.1559019089,,,
159.2500000000,19,2.1494979858,,,
159.5000000000,19,2.1546208858,,,
159.7500000000,19,2.1469368935,,,
160.0000000000,20,2.1520600319,,,
160.2500000000,20,2.1482169628,,,
160.5000000000,20,2.1379721165,,,
160.7500000000,20,2.1430950165,,,
161.0000000000,20,2.1392519474,,,
161.2500000000,20,2.1430950165,,,
161.5000000000,20,2.1290071011,,,
161.7500000000,20,2.1328489780,,,
162.0000000000,20,2.1315679550,,,
162.2500000000,20,2.1290071011,,,
162.5000000000,20,2.1379721165,,,
162.7500000000,20,2.1264450550,,,
163.0000000000,20,2.1213231087,,,
163.2500000000,20,2.1174800396,,,
163.5000000000,20,2.1200420856,,,
163.7500000000,20,2.1226029396,,,
164.0000000000,20,2.1149189472,,,
164.2500000000,20,2.1238839626,,,
164.5000000000,20,2.1290071011,,,
164.7500000000,20,2.1161999702,,,
165.0000000000,20,2.1136379242,,,
165.2500000000,20,2.1110770702,,,
165.5000000000,20,2.1200420856,,,
165.7500000000,20,2.1226029396,,,
166.0000000000,20,2.1059539318,,,
166.2500000000,20,2.1046729088,,,
166.5000000000,20,2.1033930779,,,
166.7500000000,20,2.1085159779,,,
167.0000000000,20,2.1059539318,,,
167.2500000000,20,2.1021120548,,,
167.5000000000,20,2.1008310318,,,
167.7500000000,20,2.1046729088,,,
168.0000000000,21,2.1046729088,,,
168.2500000000,21,2.0931470394,,,
168.5000000000,21,2.0982699394,,,
168.7500000000,21,2.0918660164,,,
169.0000000000,21,2.0918660164,,,
169.2500000000,21,2.0969889164,,,
169.5000000000,21,2.0957078934,,,
169.7500000000,21,2.0918660164,,,
170.0000000000,21,2.0944280624,,,
170.2500000000,21,2.0931470394,,,
170.5000000000,21,2.0957078934,,,
170.7500000000,21,2.0931470394,,,
171.0000000000,21,2.0918660164,,,
171.2500000000,21,2.0905849934,,,
171.5000000000,21,2.0841820240,,,
171.7500000000,21,2.0982699394,,,
172.0000000000,21,2.0816199780,,,
172.2500000000,21,2.0867431164,,,
172.5000000000,21,2.0854630470,,,
172.7500000000,21,2.0803399086,,,
173.0000000000,21,2.0905849934,,,
173.2500000000,21,2.0790588856,,,
173.5000000000,21,2.0829010010,,,
173.7500000000,21,2.0764980316,,,
174.0000000000,21,2.0700941086,,,
174.2500000000,21,2.0700941086,,,
174.5000000000,21,2.0675330162,,,
174.7500000000,21,2.0764980316,,,
175.0000000000,21,2.0739359856,,,
175.2500000000,21,2.0624101162,,,
175.5000000000,21,2.0739359856,,,
175.7500000000,21,2.0585680008,,,
176.0000000000,22,2.0598480701,,,
176.2500000000,22,2.0598480701,,,
176.5000000000,22,2.0572869778,,,
176.7500000000,22,2.0624101162,,,
177.0000000000,22,2.0521640778,,,
177.2500000000,22,2.0547249317,,,
177.5000000000,22,2.0534451008,,,
177.7500000000,22,2.0457599163,,,
178.0000000000,22,2.0547249317,,,
178.2500000000,22,2.0483219624,,,
178.5000000000,22,2.0457599163,,,
178.7500000000,22,2.0560059547,,,
179.0000000000,22,2.0431990623,,,
179.2500000000,22,2.0521640778,,,
179.5000000000,22,2.0419180393,,,
179.7500000000,22,2.0380759239,,,
180.0000000000,22,2.0393569469,,,
180.2500000000,22,2.0380759239,,,
180.5000000000,22,2.0406370163,,,
180.7500000000,22,2.0444800854,,,
181.0000000000,22,2.0303919315,,,
181.2500000000,22,2.0367949009,,,
181.5000000000,22,2.0303919315,,,
181.7500000000,22,2.0380759239,,,
182.0000000000,22,2.0342340469,,,
182.2500000000,22,2.0265500546,,,
182.5000000000,22,2.0188651085,,,
182.7500000000,22,2.0214269161,,,
183.0000000000,22,2.0278298855,,,
183.2500000000,22,2.0239880085,,,
183.5000000000,22,2.0214269161,,,
183.7500000000,22,2.0175850391,,,
184.0000000000,23,2.0239880085,,,
184.2500000000,23,2.0227069855,,,
184.5000000000,23,2.0111811161,,,
184.7500000000,23,2.0150229931,,,
185.0000000000,23,2.0137419701,,,
185.2500000000,23,2.0073390007,,,
185.5000000000,23,2.0163040161,,,
185.7500000000,23,2.0009350777,,,
186.0000000000,23,2.0073390007,,,
186.2500000000,23,2.0086200237,,,
186.5000000000,23,2.0047769547,,,
186.7500000000,23,2.0137419701,,,
187.0000000000,23,2.0047769547,,,
187.2500000000,23,2.0034968853,,,
187.5000000000,23,2.0111811161,,,
187.7500000000,23,2.0034968853,,,
188.0000000000,23,2.0111811161,,,
188.2500000000,23,2.0060579777,,,
188.5000000000,23,2.0099000931,,,
188.7500000000,23,2.0214269161,,,
189.0000000000,23,2.0214269161,,,
189.2500000000,23,2.0316720009,,,
189.5000000000,23,2.0316720009,,,
189.7500000000,23,2.0329530239,,,
190.0000000000,23,2.0329530239,,,
190.2500000000,23,2.0265500546,,,
190.5000000000,23,2.0380759239,,,
190.7500000000,23,2.0457599163,,,
191.0000000000,23,2.0700941086,,,
191.2500000000,23,2.0752170086,,,
191.5000000000,23,2.0816199780,,,
191.7500000000,23,2.0867431164,,,
192.0000000000,24,2.0982699394,,,
192.2500000000,24,2.1008310318,,,
192.5000000000,24,2.0995500088,,,
192.7500000000,24,2.0944280624,,,
193.0000000000,24,2.1008310318,,,
193.2500000000,24,2.0841820240,,,
193.5000000000,24,2.0893049240,,,
193.7500000000,24,2.0867431164,,,
194.0000000000,24,2.0739359856,,,
194.2500000000,24,2.0688130856,,,
194.5000000000,24,2.0649709702,,,
194.7500000000,24,2.0829010010,,,
195.0000000000,24,2.0700941086,,,
195.2500000000,24,2.0624101162,,,
195.5000000000,24,2.0636899471,,,
195.7500000000,24,2.0572869778,,,
196.0000000000,24,2.0585680008,,,
196.2500000000,24,2.0521640778,,,
196.5000000000,24,2.0496029854,,,
196.7500000000,24,2.0521640778,,,
197.0000000000,24,2.0508830547,,,
197.2500000000,24,2.0444800854,,,
197.5000000000,24,2.0470409393,,,
197.7500000000,24,2.0393569469,,,
198.0000000000,24,2.0457599163,,,
198.2500000000,24,2.0367949009,,,
198.5000000000,24,2.0355150700,,,
198.7500000000,24,2.0406370163,,,
199.0000000000,24,2.0303919315,,,
199.2500000000,24,2.0367949009,,,
199.5000000000,24,2.0303919315,,,
199.7500000000,24,2.0239880085,,,
200.0000000000,25,2.0278298855,,,
200.2500000000,25,2.0227069855,,,
200.5000000000,25,2.0303919315,,,
200.7500000000,25,2.0175850391,,,
201.0000000000,25,2.0188651085,,,
201.2500000000,25,2.0175850391,,,
201.5000000000,25,2.0150229931,,,
201.7500000000,25,2.0124619007,,,
202.0000000000,25,2.0124619007,,,
202.2500000000,25,2.0073390007,,,
202.5000000000,25,2.0137419701,,,
202.7500000000,25,2.0073390007,,,
203.0000000000,25,2.0060579777,,,
203.2500000000,25,2.0047769547,,,
203.5000000000,25,2.0009350777,,,
203.7500000000,25,2.0086200237,,,
204.0000000000,25,1.9958130121,,,
204.2500000000,25,1.9970929623,,,
204.5000000000,25,1.9919699430,,,
204.7500000000,25,1.9906899929,,,
205.0000000000,25,2.0022161007,,,
205.2500000000,25,1.9945319891,,,
205.5000000000,25,1.9906899929,,,
205.7500000000,25,1.9894089699,,,
206.0000000000,25,1.9842859507,,,
206.2500000000,25,1.9945319891,,,
206.5000000000,25,1.9830050468,,,
206.7500000000,25,1.9830050468,,,
207.0000000000,25,1.9804439545,,,
207.2500000000,25,1.9714790583,,,
207.5000000000,25,1.9855669737,,,
207.7500000000,25,1.9881279469,,,
208.0000000000,26,1.9778829813,,,
208.2500000000,26,1.9753210545,,,
208.5000000000,26,1.9727599621,,,
208.7500000000,26,1.9855669737,,,
209.0000000000,26,1.9740400314,,,
209.2500000000,26,1.9701980352,,,
209.5000000000,26,1.9804439545,,,
209.7500000000,26,1.9714790583,,,
210.0000000000,26,1.9625140429,,,
210.2500000000,26,1.9676369429,,,
210.5000000000,26,1.9637949467,,,
210.7500000000,26,1.9689179659,,,
211.0000000000,26,1.9586720467,,,
211.2500000000,26,1.9947060347,,,
211.5000000000,26,1.9895830154,,,
211.7500000000,26,1.9857410192,,,
212.0000000000,26,1.9959870577,,,
212.2500000000,26,1.9844599962,,,
212.5000000000,26,1.9806180000,,,
212.7500000000,26,1.9754949808,,,
213.0000000000,26,1.9754949808,,,
213.2500000000,26,1.9806180000,,,
213.5000000000,26,1.9729340076,,,
213.7500000000,26,1.9754949808,,,
214.0000000000,26,1.9703719616,,,
214.2500000000,26,1.9678109884,,,
214.5000000000,26,1.9716529846,,,
214.7500000000,26,1.9639689922,,,
215.0000000000,26,1.9652500153,,,
215.2500000000,26,1.9639689922,,,
215.5000000000,26,1.9575649500,,,
215.7500000000,26,1.9639689922,,,
216.0000000000,27,1.9626879692,,,
216.2500000000,27,1.9588459730,,,
216.5000000000,27,1.9639689922,,,
216.7500000000,27,1.9562849998,,,
217.0000000000,27,1.9588459730,,,
217.2500000000,27,1.9498809576,,,
217.5000000000,27,1.9486000538,,,
217.7500000000,27,1.9460389614,,,
218.0000000000,27,1.9447580576,,,
218.2500000000,27,1.9421969652,,,
218.5000000000,27,1.9550039768,,,
218.7500000000,27,1.9460389614,,,
219.0000000000,27,1.9511619806,,,
219.2500000000,27,1.9434770346,,,
219.5000000000,27,1.9434770346,,,
219.7500000000,27,1.9409159422,,,
220.0000000000,27,1.9396350384,,,
220.2500000000,27,1.9421969652,,,
220.5000000000,27,1.9383549690,,,
220.7500000000,27,1.9332319498,,,
221.0000000000,27,1.9370739460,,,
221.2500000000,27,1.9319510460,,,
221.5000000000,27,1.9370739460,,,
221.7500000000,27,1.9281090498,,,
222.0000000000,27,1.9281090498,,,
222.2500000000,27,1.9255470037,,,
222.5000000000,27,1.9242670536,,,
222.7500000000,27,1.9293899536,,,
223.0000000000,27,1.9293899536,,,
223.2500000000,27,1.9242670536,,,
223.5000000000,27,1.9204250574,,,
223.7500000000,27,1.9178630114,,,
224.0000000000,28,1.9229860306,,,
224.2500000000,28,1.9127399921,,,
224.5000000000,28,1.9165819883,,,
224.7500000000,28,1.9140210152,,,
225.0000000000,28,1.9114600420,,,
225.2500000000,28,1.9204250574,,,
225.5000000000,28,1.9127399921,,,
225.7500000000,28,1.9114600420,,,
226.0000000000,28,1.9088979959,,,
226.2500000000,28,1.9076169729,,,
226.5000000000,28,1.9127399921,,,
226.7500000000,28,1.9088979959,,,
227.0000000000,28,1.9114600420,,,
227.2500000000,28,1.9063370228,,,
227.5000000000,28,1.8973720074,,,
227.7500000000,28,1.8986519575,,,
228.0000000000,28,1.8960909843,,,
228.2500000000,28,1.9024950266,,,
228.5000000000,28,1.8948099613,,,
228.7500000000,28,1.8960909843,,,
229.0000000000,28,1.8909679651,,,
229.2500000000,28,1.8820029497,,,
229.5000000000,28,1.8960909843,,,
229.7500000000,28,1.8871259689,,,
230.0000000000,28,1.8820029497,,,
230.2500000000,28,1.8807220459,,,
230.5000000000,28,1.8820029497,,,
230.7500000000,28,1.8845649958,,,
231.0000000000,28,1.8781609535,,,
231.2500000000,28,1.8960909843,,,
231.5000000000,28,1.8845649958,,,
231.7500000000,28,1.8768800497,,,
232.0000000000,29,1.8743189573,,,
232.2500000000,29,1.8820029497,,,
232.5000000000,29,1.8743189573,,,
232.7500000000,29,1.8755999804,,,
233.0000000000,29,1.8704769611,,,
233.2500000000,29,1.8730380535,,,
233.5000000000,29,1.8717579842,,,
233.7500000000,29,1.8691960573,,,
234.0000000000,29,1.8755999804,,,
234.2500000000,29,1.8679150343,,,
234.5000000000,29,1.8679150343,,,
234.7500000000,29,1.8691960573,,,
235.0000000000,29,1.8666349649,,,
235.2500000000,29,1.8704769611,,,
235.5000000000,29,1.8602310419,,,
235.7500000000,29,1.8615119457,,,
236.0000000000,29,1.8653539419,,,
236.2500000000,29,1.8589500189,,,
236.5000000000,29,1.8627920151,,,
236.7500000000,29,1.8640730381,,,
237.0000000000,29,1.8640730381,,,
237.2500000000,29,1.8589500189,,,
237.5000000000,29,1.8512660265,,,
237.7500000000,29,1.8576699495,,,
238.0000000000,29,1.8499850035,,,
238.2500000000,29,1.8487050533,,,
238.5000000000,29,1.8563890457,,,
238.7500000000,29,1.8487050533,,,
239.0000000000,29,1.8551080227,,,
239.2500000000,29,1.8461430073,,,
239.5000000000,29,1.8423010111,,,
239.7500000000,29,1.8499850035,,,
240.0000000000,30,1.8423010111,,,
240.2500000000,30,1.8461430073,,,
240.5000000000,30,1.8397400379,,,
240.7500000000,30,1.8410199881,,,
241.0000000000,30,1.8397400379,,,
241.2500000000,30,1.8358969688,,,
241.5000000000,30,1.8384590149,,,
241.7500000000,30,1.8307750225,,,
242.0000000000,30,1.8346170187,,,
242.2500000000,30,1.8346170187,,,
242.5000000000,30,1.8307750225,,,
242.7500000000,30,1.8397400379,,,
243.0000000000,30,1.8294939995,,,
243.2500000000,30,1.8294939995,,,
243.5000000000,30,1.8294939995,,,
243.7500000000,30,1.8282129765,,,
244.0000000000,30,1.8333359957,,,
244.2500000000,30,1.8243709803,,,
244.5000000000,30,1.8294939995,,,
244.7500000000,30,1.8230899572,,,
245.0000000000,30,1.8230899572,,,
245.2500000000,30,1.8218100071,,,
245.5000000000,30,1.8154059649,,,
245.7500000000,30,1.8230899572,,,
246.0000000000,30,1.8269319534,,,
246.2500000000,30,1.8192479610,,,
246.5000000000,30,1.8230899572,,,
246.7500000000,30,1.8141249418,,,
247.0000000000,30,1.8166869879,,,
247.2500000000,30,1.8141249418,,,
247.5000000000,30,1.8064409494,,,
247.7500000000,30,1.8166869879,,,
248.0000000000,31,1.8090029955,,,
248.2500000000,31,1.8128449917,,,
248.5000000000,31,1.8064409494,,,
248.7500000000,31,1.8064409494,,,
249.0000000000,31,1.8115639687,,,
249.2500000000,31,1.8000379801,,,
249.5000000000,31,1.8051600456,,,
249.7500000000,31,1.7949149609,,,
250.0000000000,31,1.8025989532,,,
250.2500000000,31,1.8038799763,,,
250.5000000000,31,1.8000379801,,,
250.7500000000,31,1.8077219725,,,
251.0000000000,31,1.8013180494,,,
251.2500000000,31,1.8064409494,,,
251.5000000000,31,1.8115639687,,,
251.7500000000,31,1.8307750225,,,
252.0000000000,31,1.8627920151,,,
252.2500000000,31,1.8717579842,,,
252.5000000000,31,1.8922489882,,,
252.7500000000,31,1.9063370228,,,
253.0000000000,31,1.9281090498,,,
253.2500000000,31,1.9511619806,,,
253.5000000000,31,1.9524420500,,,
253.7500000000,31,1.9652500153,,,
254.0000000000,31,1.9806180000,,,
254.2500000000,31,1.9895830154,,,
254.5000000000,31,1.9959870577,,,
254.7500000000,31,2.0087940693,,,
255.0000000000,31,2.0049519539,,,
255.2500000000,31,2.0049519539,,,
255.5000000000,31,2.0023899078,,,
255.7500000000,31,1.9985480309,,,
256.0000000000,32,2.0011100769,,,
256.2500000000,32,1.9921449423,,,
256.5000000000,32,1.9844599962,,,
256.7500000000,32,1.9908640385,,,
257.0000000000,32,1.9742150307,,,
257.2500000000,32,1.9729340076,,,
257.5000000000,32,1.9678109884,,,
257.7500000000,32,1.9601269960,,,
258.0000000000,32,1.9652500153,,,
258.2500000000,32,1.9588459730,,,
258.5000000000,32,1.9652500153,,,
258.7500000000,32,1.9550039768,,,
259.0000000000,32,1.9524420500,,,
259.2500000000,32,1.9511619806,,,
259.5000000000,32,1.9537229538,,,
259.7500000000,32,1.9550039768,,,
260.0000000000,32,1.9473199844,,,
260.2500000000,32,1.9447580576,,,
260.5000000000,32,1.9460389614,,,
260.7500000000,32,1.9370739460,,,
261.0000000000,32,1.9421969652,,,
261.2500000000,32,1.9332319498,,,
261.5000000000,32,1.9332319498,,,
261.7500000000,32,1.9396350384,,,
262.0000000000,32,1.9293899536,,,
262.2500000000,32,1.9255470037,,,
262.5000000000,32,1.9229860306,,,
262.7500000000,32,1.9306700230,,,
263.0000000000,32,1.9255470037,,,
263.2500000000,32,1.9242670536,,,
263.5000000000,32,1.9165819883,,,
263.7500000000,32,1.9153020382,,,
264.0000000000,33,1.9204250574,,,
264.2500000000,33,1.9140210152,,,
264.5000000000,33,1.9076169729,,,
264.7500000000,33,1.9063370228,,,
265.0000000000,33,1.9050559998,,,
265.2500000000,33,1.9101790190,,,
265.5000000000,33,1.9101790190,,,
265.7500000000,33,1.9024950266,,,
266.0000000000,33,1.9024950266,,,
266.2500000000,33,1.8960909843,,,
266.5000000000,33,1.9050559998,,,
266.7500000000,33,1.9076169729,,,
267.0000000000,33,1.8999329805,,,
267.2500000000,33,1.8973720074,,,
267.5000000000,33,1.8922489882,,,
267.7500000000,33,1.8986519575,,,
268.0000000000,33,1.8909679651,,,
268.2500000000,33,1.8896869421,,,
268.5000000000,33,1.8973720074,,,
268.7500000000,33,1.8922489882,,,
269.0000000000,33,1.8922489882,,,
269.2500000000,33,1.8832839727,,,
269.5000000000,33,1.8845649958,,,
269.7500000000,33,1.8820029497,,,
270.0000000000,33,1.8807220459,,,
270.2500000000,33,1.8845649958,,,
270.5000000000,33,1.8768800497,,,
270.7500000000,33,1.8755999804,,,
271.0000000000,33,1.8768800497,,,
271.2500000000,33,1.8755999804,,,
271.5000000000,33,1.8730380535,,,
271.7500000000,33,1.8691960573,,,
272.0000000000,34,1.8768800497,,,
272.2500000000,34,1.8717579842,,,
272.5000000000,34,1.8666349649,,,
272.7500000000,34,1.8768800497,,,
273.0000000000,34,1.8691960573,,,
273.2500000000,34,1.8691960573,,,
273.5000000000,34,1.8691960573,,,
273.7500000000,34,1.8615119457,,,
274.0000000000,34,1.8679150343,,,
274.2500000000,34,1.8602310419,,,
274.5000000000,34,1.8627920151,,,
274.7500000000,34,1.8627920151,,,
275.0000000000,34,1.8525470495,,,
275.2500000000,34,1.8512660265,,,
275.5000000000,34,1.8499850035,,,
275.7500000000,34,1.8525470495,,,
276.0000000000,34,1.8423010111,,,
276.2500000000,34,1.8474240303,,,
276.5000000000,34,1.8563890457,,,
276.7500000000,34,1.8461430073,,,
277.0000000000,34,1.8525470495,,,
277.2500000000,34,1.8423010111,,,
277.5000000000,34,1.8423010111,,,
277.7500000000,34,1.8423010111,,,
278.0000000000,34,1.8397400379,,,
278.2500000000,34,1.8474240303,,,
278.5000000000,34,1.8371779919,,,
278.7500000000,34,1.8333359957,,,
279.0000000000,34,1.8358969688,,,
279.2500000000,34,1.8333359957,,,
279.5000000000,34,1.8346170187,,,
279.7500000000,34,1.8294939995,,,
280.0000000000,35,1.8307750225,,,
280.2500000000,35,1.8256520033,,,
280.5000000000,35,1.8294939995,,,
280.7500000000,35,1.8294939995,,,
281.0000000000,35,1.8218100071,,,
281.2500000000,35,1.8256520033,,,
281.5000000000,35,1.8282129765,,,
281.7500000000,35,1.8230899572,,,
282.0000000000,35,1.8269319534,,,
282.2500000000,35,1.8179670572,,,
282.5000000000,35,1.8282129765,,,
282.7500000000,35,1.8230899572,,,
283.0000000000,35,1.8166869879,,,
283.2500000000,35,1.8115639687,,,
283.5000000000,35,1.8102829456,,,
283.7500000000,35,1.8166869879,,,
284.0000000000,35,1.8154059649,,,
284.2500000000,35,1.8102829456,,,
284.5000000000,35,1.8128449917,,,
284.7500000000,35,1.8102829456,,,
285.0000000000,35,1.8179670572,,,
285.2500000000,35,1.8090029955,,,
285.5000000000,35,1.8115639687,,,
285.7500000000,35,1.8077219725,,,
286.0000000000,35,1.8090029955,,,
286.2500000000,35,1.8179670572,,,
286.5000000000,35,1.8179670572,,,
286.7500000000,35,1.8128449917,,,
287.0000000000,35,1.8154059649,,,
287.2500000000,35,1.8154059649,,,
287.5000000000,35,1.8269319534,,,
287.7500000000,35,1.8166869879,,,
288.0000000000,36,1.8205289841,,,
288.2500000000,36,1.8166869879,,,
288.5000000000,36,1.8166869879,,,
288.7500000000,36,1.8218100071,,,
289.0000000000,36,1.8230899572,,,
289.2500000000,36,1.8243709803,,,
289.5000000000,36,1.8154059649,,,
289.7500000000,36,1.8077219725,,,
290.0000000000,36,1.8077219725,,,
290.2500000000,36,1.8025989532,,,
290.5000000000,36,1.8102829456,,,
290.7500000000,36,1.8025989532,,,
291.0000000000,36,1.8000379801,,,
291.2500000000,36,1.7974760532,,,
291.5000000000,36,1.8038799763,,,
291.7500000000,36,1.8102829456,,,
292.0000000000,36,1.7961950302,,,
292.2500000000,36,1.7936340570,,,
292.5000000000,36,1.7910720110,,,
292.7500000000,36,1.7910720110,,,
293.0000000000,36,1.7923530340,,,
293.2500000000,36,1.7872300148,,,
293.5000000000,36,1.7833880186,,,
293.7500000000,36,1.7910720110,,,
294.0000000000,36,1.7821069956,,,
294.2500000000,36,1.7859499454,,,
294.5000000000,36,1.7795460224,,,
294.7500000000,36,1.7833880186,,,
295.0000000000,36,1.7872300148,,,
295.2500000000,36,1.7757040262,,,
295.5000000000,36,1.7769850492,,,
295.7500000000,36,1.7782649994,,,
296.0000000000,37,1.7757040262,,,
296.2500000000,37,1.7821069956,,,
296.5000000000,37,1.7718620300,,,
296.7500000000,37,1.7757040262,,,
297.0000000000,37,1.7744230032,,,
297.2500000000,37,1.7731419802,,,
297.5000000000,37,1.7782649994,,,
297.7500000000,37,1.7744230032,,,
298.0000000000,37,1.7692999840,,,
298.2500000000,37,1.7705810070,,,
298.5000000000,37,1.7667390108,,,
298.7500000000,37,1.7718620300,,,
299.0000000000,37,1.7705810070,,,
299.2500000000,37,1.7628970146,,,
299.5000000000,37,1.7577739954,,,
299.7500000000,37,1.7577739954,,,
300.0000000000,37,1.7628970146,,,
300.2500000000,37,1.7539319992,,,
300.5000000000,37,1.7526509762,,,
300.7500000000,37,1.7475279570,,,
301.0000000000,37,1.7513699532,,,
301.2500000000,37,1.7552119493,,,
301.5000000000,37,1.7564929724,,,
301.7500000000,37,1.7488089800,,,
302.0000000000,37,1.7462470531,,,
302.2500000000,37,1.7449669838,,,
302.5000000000,37,1.7513699532,,,
302.7500000000,37,1.7449669838,,,
303.0000000000,37,1.7424050570,,,
303.2500000000,37,1.7385629416,,,
303.5000000000,37,1.7334400415,,,
303.7500000000,37,1.7449669838,,,
304.0000000000,38,1.7385629416,,,
304.2500000000,38,1.7334400415,,,
304.5000000000,38,1.7334400415,,,
304.7500000000,38,1.7347209454,,,
305.0000000000,38,1.7398439646,,,
305.2500000000,38,1.7295980453,,,
305.5000000000,38,1.7308789492,,,
305.7500000000,38,1.7398439646,,,
306.0000000000,38,1.7295980453,,,
306.2500000000,38,1.7347209454,,,
306.5000000000,38,1.7295980453,,,
306.7500000000,38,1.7270369530,,,
307.0000000000,38,1.7257560492,,,
307.2500000000,38,1.7206330299,,,
307.5000000000,38,1.7283170223,,,
307.7500000000,38,1.7257560492,,,
308.0000000000,38,1.7231949568,,,
308.2500000000,38,1.7219140530,,,
308.5000000000,38,1.7206330299,,,
308.7500000000,38,1.7219140530,,,
309.0000000000,38,1.7180720568,,,
309.2500000000,38,1.7155100107,,,
309.5000000000,38,1.7155100107,,,
309.7500000000,38,1.7180720568,,,
310.0000000000,38,1.7206330299,,,
310.2500000000,38,1.7180720568,,,
310.5000000000,38,1.7103869915,,,
310.7500000000,38,1.7078260183,,,
311.0000000000,38,1.7052650452,,,
311.2500000000,38,1.7116680145,,,
311.5000000000,38,1.7065449953,,,
311.7500000000,38,1.7052650452,,,
