Time:4Hz,Epoch,Channel 1,Event Id,Event Date,Event Duration
0.0000000000,0,4.3344879150,,,
0.2500000000,0,4.3472971916,,,
0.5000000000,0,4.4164638519,,,
0.7500000000,0,4.5138101578,,,
1.0000000000,0,4.6009092331,,,
1.2500000000,0,4.6585478783,,,
1.5000000000,0,4.7110629082,,,
1.7500000000,0,4.7149062157,,,
2.0000000000,0,4.6739177704,,,
2.2500000000,0,4.6303691864,,,
2.5000000000,0,4.5906620026,,,
2.7500000000,0,4.5855379105,,,
3.0000000000,0,4.5932240486,,,
3.2500000000,0,4.6111559868,,,
3.5000000000,0,4.6111559868,,,
3.7500000000,0,4.6021900177,,,
4.0000000000,0,4.5727300644,,,
4.2500000000,0,4.5394268036,,,
4.5000000000,0,4.5010008812,,,
4.7500000000,0,4.4753842354,,,
5.0000000000,0,4.4523282051,,,
5.2500000000,0,4.4472050667,,,
5.5000000000,0,4.4267110825,,,
5.7500000000,0,4.4164638519,,,
6.0000000000,0,4.3985309601,,,
6.2500000000,0,4.3882851601,,,
6.5000000000,0,4.3639478683,,,
6.7500000000,0,4.3562631607,,,
7.0000000000,0,4.3370499611,,,
7.2500000000,0,4.3242411613,,,
7.5000000000,0,4.3024659157,,,
7.7500000000,0,4.2973427773,,,
8.0000000000,1,4.2819719315,,,
8.2500000000,1,4.2717261314,,,
8.5000000000,1,4.2614779472,,,
8.7500000000,1,4.2537927628,,,
9.0000000000,1,4.2435460091,,,
9.2500000000,1,4.2358608246,,,
9.5000000000,1,4.2422661781,,,
9.7500000000,1,4.2217721939,,,
10.0000000000,1,4.2076821327,,,
10.2500000000,1,4.1910309792,,,
10.5000000000,1,4.1961550713,,,
10.7500000000,1,4.1846270561,,,
11.0000000000,1,4.1871881485,,,
11.2500000000,1,4.1769409180,,,
11.5000000000,1,4.1705369949,,,
11.7500000000,1,4.1628518105,,,
12.0000000000,1,4.1526050568,,,
12.2500000000,1,4.1436390877,,,
12.5000000000,1,4.1397957802,,,
12.7500000000,1,4.1321110725,,,
13.0000000000,1,4.1257071495,,,
13.2500000000,1,4.1180210114,,,
13.5000000000,1,4.1116170883,,,
13.7500000000,1,4.0988078117,,,
14.0000000000,1,4.0949659348,,,
14.2500000000,1,4.0872812271,,,
14.5000000000,1,4.0795960426,,,
14.7500000000,1,4.0808758736,,,
15.0000000000,1,4.0795960426,,,
15.2500000000,1,4.1013698578,,,
15.5000000000,1,4.1205830574,,,
15.7500000000,1,4.1474809647,,,
16.0000000000,2,4.1641330719,,,
16.2500000000,2,4.1743798256,,,
16.5000000000,2,4.1666941643,,,
16.7500000000,2,4.1602897644,,,
17.0000000000,2,4.1385149956,,,
17.2500000000,2,4.1269869804,,,
17.5000000000,2,4.1128978729,,,
17.7500000000,2,4.1026511192,,,
18.0000000000,2,4.0834379196,,,
18.2500000000,2,4.0731911659,,,
18.5000000000,2,4.0642251968,,,
18.7500000000,2,4.0578207970,,,
19.0000000000,2,4.0539779663,,,
19.2500000000,2,4.0450119972,,,
19.5000000000,2,4.0437312126,,,
19.7500000000,2,4.0373268127,,,
20.0000000000,2,4.0424499512,,,
20.2500000000,2,4.0386080742,,,
20.5000000000,2,4.0488538742,,,
20.7500000000,2,4.0386080742,,,
21.0000000000,2,4.0386080742,,,
21.2500000000,2,4.0309219360,,,
21.5000000000,2,4.0245180130,,,
21.7500000000,2,4.0091481209,,,
22.0000000000,2,4.0078668594,,,
22.2500000000,2,3.9950580597,,,
22.5000000000,2,3.9950580597,,,
22.7500000000,2,3.9989008904,,,
23.0000000000,2,4.0193939209,,,
23.2500000000,2,4.0552592278,,,
23.5000000000,2,4.0719099045,,,
23.7500000000,2,4.0924038887,,,
24.0000000000,3,4.0859990120,,,
24.2500000000,3,4.0911231041,,,
24.5000000000,3,4.0770339966,,,
24.7500000000,3,4.0706291199,,,
25.0000000000,3,4.0475740433,,,
25.2500000000,3,4.0360460281,,,
25.5000000000,3,4.0245180130,,,
25.7500000000,3,4.0117092133,,,
26.0000000000,3,4.0014619827,,,
26.2500000000,3,4.0001821518,,,
26.5000000000,3,3.9886538982,,,
26.7500000000,3,3.9745640755,,,
27.0000000000,3,3.9758450985,,,
27.2500000000,3,3.9694409370,,,
27.5000000000,3,3.9668788910,,,
27.7500000000,3,3.9553511143,,,
28.0000000000,3,3.9579129219,,,
28.2500000000,3,3.9489469528,,,
28.5000000000,3,3.9600160122,,,
28.7500000000,3,3.9484889507,,,
29.0000000000,3,3.9484889507,,,
29.2500000000,3,3.9382419586,,,
29.5000000000,3,3.9395229816,,,
29.7500000000,3,3.9279949665,,,
30.0000000000,3,3.9254329205,,,
30.2500000000,3,3.9177479744,,,
30.5000000000,3,3.9151859283,,,
30.7500000000,3,3.9075009823,,,
31.0000000000,3,3.9036579132,,,
31.2500000000,3,3.8972539902,,,
31.5000000000,3,3.8959729671,,,
31.7500000000,3,3.8895690441,,,
32.0000000000,4,3.8844449520,,,
32.2500000000,4,3.8831639290,,,
32.5000000000,4,3.8780410290,,,
32.7500000000,4,3.8793220520,,,
33.0000000000,4,3.8741979599,,,
33.2500000000,4,3.8703560829,,,
33.5000000000,4,3.8549849987,,,
33.7500000000,4,3.8473000526,,,
34.0000000000,4,3.8434569836,,,
34.2500000000,4,3.8421759605,,,
34.5000000000,4,3.8357720375,,,
34.7500000000,4,3.8524229527,,,
35.0000000000,4,3.8498620987,,,
35.2500000000,4,3.8511428833,,,
35.5000000000,4,3.8139979839,,,
35.7500000000,4,3.8011889458,,,
36.0000000000,4,3.7909419537,,,
36.2500000000,4,3.7896609306,,,
36.5000000000,4,3.7794139385,,,
36.7500000000,4,3.7819759846,,,
37.0000000000,4,3.7755711079,,,
37.2500000000,4,3.7717289925,,,
37.5000000000,4,3.7678859234,,,
37.7500000000,4,3.7576389313,,,
38.0000000000,4,3.7563579082,,,
38.2500000000,4,3.7550780773,,,
38.5000000000,4,3.7448310852,,,
38.7500000000,4,3.7435500622,,,
39.0000000000,4,3.7499539852,,,
39.2500000000,4,3.7678859234,,,
39.5000000000,4,3.8024699688,,,
39.7500000000,4,3.8383340836,,,
40.0000000000,5,3.8639509678,,,
40.2500000000,5,3.8844449520,,,
40.5000000000,5,3.8882880211,,,
40.7500000000,5,3.8870069981,,,
41.0000000000,5,3.8818829060,,,
41.2500000000,5,3.8844449520,,,
41.5000000000,5,3.8754789829,,,
41.7500000000,5,3.8690750599,,,
42.0000000000,5,3.8613901138,,,
42.2500000000,5,3.8485810757,,,
42.5000000000,5,3.8332099915,,,
42.7500000000,5,3.8255250454,,,
43.0000000000,5,3.8127160072,,,
43.2500000000,5,3.7960650921,,,
43.5000000000,5,3.7986268997,,,
43.7500000000,5,3.7973461151,,,
44.0000000000,5,3.7883799076,,,
44.2500000000,5,3.7909419537,,,
44.5000000000,5,3.7781329155,,,
44.7500000000,5,3.7794139385,,,
45.0000000000,5,3.7691669464,,,
45.2500000000,5,3.7691669464,,,
45.5000000000,5,3.7589199543,,,
45.7500000000,5,3.7627630234,,,
46.0000000000,5,3.7525160313,,,
46.2500000000,5,3.7742910385,,,
46.5000000000,5,3.8139979839,,,
46.7500000000,5,3.8895690441,,,
47.0000000000,5,3.9472079277,,,
47.2500000000,5,3.9958810806,,,
47.5000000000,5,4.0035657883,,,
47.7500000000,5,4.0061278343,,,
48.0000000000,6,3.9920380116,,,
48.2500000000,6,3.9817910194,,,
48.5000000000,6,3.9625780582,,,
48.7500000000,6,3.9382419586,,,
49.0000000000,6,3.9382419586,,,
49.2500000000,6,4.0279030800,,,
49.5000000000,6,4.2366838455,,,
49.7500000000,6,4.4954199791,,,
50.0000000000,6,4.6982550621,,,
50.2500000000,6,4.8173761368,,,
50.5000000000,6,4.8788571358,,,
50.7500000000,6,4.8955078125,,,
51.0000000000,6,4.8340268135,,,
51.2500000000,6,4.7533321381,,,
51.5000000000,6,4.6585478783,,,
51.7500000000,6,4.5637640953,,,
52.0000000000,6,4.4805068970,,,
52.2500000000,6,4.4126210213,,,
52.5000000000,6,4.3485770226,,,
52.7500000000,6,4.3050279617,,,
53.0000000000,6,4.2589168549,,,
53.2500000000,6,4.2384228706,,,
53.5000000000,6,4.2102441788,,,
53.7500000000,6,4.1935930252,,,
54.0000000000,6,4.1705369949,,,
54.2500000000,6,4.1551671028,,,
54.5000000000,6,4.1474809647,,,
54.7500000000,6,4.1526050568,,,
55.0000000000,6,4.1500430107,,,
55.2500000000,6,4.1679749489,,,
55.5000000000,6,4.1654129028,,,
55.7500000000,6,4.1923117638,,,
56.0000000000,7,4.2422661781,,,
56.2500000000,7,4.3037471771,,,
56.5000000000,7,4.3255219460,,,
56.7500000000,7,4.3293647766,,,
57.0000000000,7,4.3075900078,,,
57.2500000000,7,4.2883768082,,,
57.5000000000,7,4.2525119781,,,
57.7500000000,7,4.2230529785,,,
58.0000000000,7,4.1782221794,,,
58.2500000000,7,4.1564469337,,,
58.5000000000,7,4.1269869804,,,
58.7500000000,7,4.1128978729,,,
59.0000000000,7,4.0911231041,,,
59.2500000000,7,4.0808758736,,,
59.5000000000,7,4.0603818893,,,
59.7500000000,7,4.0475740433,,,
60.0000000000,7,4.0411691666,,,
60.2500000000,7,4.0283608437,,,
60.5000000000,7,4.0142707825,,,
60.7500000000,7,4.0129899979,,,
61.0000000000,7,3.9976201057,,,
61.2500000000,7,3.9950580597,,,
61.5000000000,7,3.9822490215,,,
61.7500000000,7,3.9822490215,,,
62.0000000000,7,3.9694409370,,,
62.2500000000,7,3.9745640755,,,
62.5000000000,7,3.9655981064,,,
62.7500000000,7,3.9591939449,,,
63.0000000000,7,3.9579129219,,,
63.2500000000,7,3.9515089989,,,
63.5000000000,7,3.9502279758,,,
63.7500000000,7,3.9510500431,,,
64.0000000000,8,3.9536120892,,,
64.2500000000,8,3.9369609356,,,
64.5000000000,8,3.9331181049,,,
64.7500000000,8,3.9279949665,,,
65.0000000000,8,3.9228711128,,,
65.2500000000,8,3.9087820053,,,
65.5000000000,8,3.9126238823,,,
65.7500000000,8,3.8998160362,,,
66.0000000000,8,3.8985350132,,,
66.2500000000,8,3.8921298981,,,
66.5000000000,8,3.8882880211,,,
66.7500000000,8,3.8767600060,,,
67.0000000000,8,3.8767600060,,,
67.2500000000,8,3.8690750599,,,
67.5000000000,8,3.8677940369,,,
67.7500000000,8,3.8575470448,,,
68.0000000000,8,3.8537039757,,,
68.2500000000,8,3.8511428833,,,
68.5000000000,8,3.8434569836,,,
68.7500000000,8,3.8408958912,,,
69.0000000000,8,3.8408958912,,,
69.2500000000,8,3.8396151066,,,
69.5000000000,8,3.8306488991,,,
69.7500000000,8,3.8383340836,,,
70.0000000000,8,3.8306488991,,,
70.2500000000,8,3.8306488991,,,
70.5000000000,8,3.8255250454,,,
70.7500000000,8,3.8229629993,,,
71.0000000000,8,3.8191208839,,,
71.2500000000,8,3.8268060684,,,
71.5000000000,8,3.8229629993,,,
71.7500000000,8,3.8268060684,,,
72.0000000000,9,3.8229629993,,,
72.2500000000,9,3.8229629993,,,
72.5000000000,9,3.8114359379,,,
72.7500000000,9,3.8101549149,,,
73.0000000000,9,3.7986268997,,,
73.2500000000,9,3.7973461151,,,
73.5000000000,9,3.7883799076,,,
73.7500000000,9,3.7922229767,,,
74.0000000000,9,3.7794139385,,,
74.2500000000,9,3.7845380306,,,
74.5000000000,9,3.7742910385,,,
74.7500000000,9,3.7742910385,,,
75.0000000000,9,3.7717289925,,,
75.2500000000,9,3.7730100155,,,
75.5000000000,9,3.7640440464,,,
75.7500000000,9,3.7666049004,,,
76.0000000000,9,3.7589199543,,,
76.2500000000,9,3.7550780773,,,
76.5000000000,9,3.7486729622,,,
76.7500000000,9,3.7499539852,,,
77.0000000000,9,3.7461109161,,,
77.2500000000,9,3.7499539852,,,
77.5000000000,9,3.7397069931,,,
77.7500000000,9,3.7409880161,,,
78.0000000000,9,3.7345840931,,,
78.2500000000,9,3.7371449471,,,
78.5000000000,9,3.7281789780,,,
78.7500000000,9,3.7281789780,,,
79.0000000000,9,3.7153708935,,,
79.2500000000,9,3.7230560780,,,
79.5000000000,9,3.7166509628,,,
79.7500000000,9,3.7179319859,,,
80.0000000000,10,3.7064039707,,,
80.2500000000,10,3.7089660168,,,
80.5000000000,10,3.7051239014,,,
80.7500000000,10,3.7025620937,,,
81.0000000000,10,3.6974380016,,,
81.2500000000,10,3.6974380016,,,
81.5000000000,10,3.6910340786,,,
81.7500000000,10,3.6923151016,,,
82.0000000000,10,3.6948769093,,,
82.2500000000,10,3.7025620937,,,
82.5000000000,10,3.6961569786,,,
82.7500000000,10,3.6974380016,,,
83.0000000000,10,3.6974380016,,,
83.2500000000,10,3.6923151016,,,
83.5000000000,10,3.6859109402,,,
83.7500000000,10,3.6897530556,,,
84.0000000000,10,3.6846299171,,,
84.2500000000,10,3.6795060635,,,
84.5000000000,10,3.6718211174,,,
84.7500000000,10,3.6718211174,,,
85.0000000000,10,3.6718211174,,,
85.2500000000,10,3.6641359329,,,
85.5000000000,10,3.6679790020,,,
85.7500000000,10,3.6628549099,,,
86.0000000000,10,3.6615738869,,,
86.2500000000,10,3.6577320099,,,
86.5000000000,10,3.6795060635,,,
86.7500000000,10,3.6500461102,,,
87.0000000000,10,3.6500461102,,,
87.2500000000,10,3.6397991180,,,
87.5000000000,10,3.6462039948,,,
87.7500000000,10,3.6410799026,,,
88.0000000000,11,3.6436419487,,,
88.2500000000,11,3.6333949566,,,
88.5000000000,11,3.6269910336,,,
88.7500000000,11,3.6257100105,,,
89.0000000000,11,3.6257100105,,,
89.2500000000,11,3.6193048954,,,
89.5000000000,11,3.6205859184,,,
89.7500000000,11,3.6116199493,,,
90.0000000000,11,3.6077780724,,,
90.2500000000,11,3.6077780724,,,
90.5000000000,11,3.6039350033,,,
90.7500000000,11,3.6077780724,,,
91.0000000000,11,3.6013729572,,,
91.2500000000,11,3.6077780724,,,
91.5000000000,11,3.5975310802,,,
91.7500000000,11,3.5988121033,,,
92.0000000000,11,3.5911259651,,,
92.2500000000,11,3.6000919342,,,
92.5000000000,11,3.5898449421,,,
92.7500000000,11,3.5821599960,,,
93.0000000000,11,3.5872840881,,,
93.2500000000,11,3.5847220421,,,
93.5000000000,11,3.5821599960,,,
93.7500000000,11,3.5847220421,,,
94.0000000000,11,3.5744750500,,,
94.2500000000,11,3.5770370960,,,
94.5000000000,11,3.5731940269,,,
94.7500000000,11,3.5719130039,,,
95.0000000000,11,3.5655090809,,,
95.2500000000,11,3.5629470348,,,
95.5000000000,11,3.5578238964,,,
95.7500000000,11,3.5578238964,,,
96.0000000000,12,3.5655090809,,,
96.2500000000,12,3.5591049194,,,
96.5000000000,12,3.5693519115,,,
96.7500000000,12,3.5642280579,,,
97.0000000000,12,3.5680708885,,,
97.2500000000,12,3.5578238964,,,
97.5000000000,12,3.5591049194,,,
97.7500000000,12,3.5514190197,,,
98.0000000000,12,3.5539810658,,,
98.2500000000,12,3.5475769043,,,
98.5000000000,12,3.5501379967,,,
98.7500000000,12,3.5462958813,,,
99.0000000000,12,3.5462958813,,,
99.2500000000,12,3.5360488892,,,
99.5000000000,12,3.5398919582,,,
99.7500000000,12,3.5309259892,,,
100.0000000000,12,3.5373299122,,,
100.2500000000,12,3.5258018970,,,
100.5000000000,12,3.5309259892,,,
100.7500000000,12,3.5206789970,,,
101.0000000000,12,3.5258018970,,,
101.2500000000,12,3.5232400894,,,
101.5000000000,12,3.5258018970,,,
101.7500000000,12,3.5142738819,,,
102.0000000000,12,3.5206789970,,,
102.2500000000,12,3.5078699589,,,
102.5000000000,12,3.5155549049,,,
102.7500000000,12,3.5078699589,,,
103.0000000000,12,3.5104320049,,,
103.2500000000,12,3.5027461052,,,
103.5000000000,12,3.5104320049,,,
103.7500000000,12,3.4937798977,,,
104.0000000000,13,3.4989039898,,,
104.2500000000,13,3.4912190437,,,
104.5000000000,13,3.4963419437,,,
104.7500000000,13,3.4899380207,,,
105.0000000000,13,3.4912190437,,,
105.2500000000,13,3.4835329056,,,
105.5000000000,13,3.4822530746,,,
105.7500000000,13,3.4822530746,,,
106.0000000000,13,3.4835329056,,,
106.2500000000,13,3.4745669365,,,
106.5000000000,13,3.4745669365,33025:33024,106.5000000000:106.5937500000,0.0000000000:0.0000000000
106.7500000000,13,3.4681630135,,,
107.0000000000,13,3.4732859135,,,
107.2500000000,13,3.4681630135,,,
107.5000000000,13,3.4707250595,33025:33024,107.5000000000:107.5937500000,0.0000000000:0.0000000000
107.7500000000,13,3.4656009674,,,
108.0000000000,13,3.4630401134,,,
108.2500000000,13,3.4681630135,,,
108.5000000000,13,3.4617590904,,,
108.7500000000,13,3.4668819904,,,
109.0000000000,13,3.4579160213,33025:33024,109.1562500000:109.2187500000,0.0000000000:0.0000000000
109.2500000000,13,3.4656009674,33025:33024,109.3125000000:109.4062500000,0.0000000000:0.0000000000
109.5000000000,13,3.4566349983,,,
109.7500000000,13,3.4630401134,,,
110.0000000000,13,3.4540729523,,,
110.2500000000,13,3.4527928829,,,
110.5000000000,13,3.4489500523,,,
110.7500000000,13,3.4637169838,,,
111.0000000000,13,3.4598751068,,,
111.2500000000,13,3.4637169838,,,
111.5000000000,13,3.4649980068,,,
111.7500000000,13,3.4816501141,,,
112.0000000000,14,3.4829308987,,,
112.2500000000,14,3.4957389832,,,
112.5000000000,14,3.4918971062,,,
112.7500000000,14,3.4957389832,,,
113.0000000000,14,3.4829308987,,,
113.2500000000,14,3.4816501141,,,
113.5000000000,14,3.4714028835,,,
113.7500000000,14,3.4675600529,,,
114.0000000000,14,3.4560320377,,,
114.2500000000,14,3.4585940838,,,
114.5000000000,14,3.4496281147,,,
114.7500000000,14,3.4470660686,,,
115.0000000000,14,3.4445040226,,,
115.2500000000,14,3.4445040226,,,
115.5000000000,14,3.4393808842,,,
115.7500000000,14,3.4406619072,,,
116.0000000000,14,3.4291338921,,,
116.2500000000,14,3.4278531075,,,
116.5000000000,14,3.4291338921,,,
116.7500000000,14,3.4304149151,,,
117.0000000000,14,3.4240109921,,,
117.2500000000,14,3.4176061153,,,
117.5000000000,14,3.4150450230,,,
117.7500000000,14,3.4163250923,,,
118.0000000000,14,3.4163250923,,,
118.2500000000,14,3.4124829769,,,
118.5000000000,14,3.4099209309,,,
118.7500000000,14,3.4047980309,,,
119.0000000000,14,3.4073588848,,,
119.2500000000,14,3.4022359848,,,
119.5000000000,14,3.4009549618,,,
119.7500000000,14,3.3945510387,,,
120.0000000000,15,3.3958320618,,,
120.2500000000,15,3.3830230236,,,
120.5000000000,15,3.3907079697,,,
120.7500000000,15,3.3843040466,,,
121.0000000000,15,3.3907079697,,,
121.2500000000,15,3.3791799545,,,
121.5000000000,15,3.3817420006,,,
121.7500000000,15,3.3740570545,,,
122.0000000000,15,3.3740570545,,,
122.2500000000,15,3.3689329624,,,
122.5000000000,15,3.3714950085,,,
122.7500000000,15,3.3663721085,,,
123.0000000000,15,3.3625290394,,,
123.2500000000,15,3.3586859703,,,
123.5000000000,15,3.3612480164,,,
123.7500000000,15,3.3535630703,,,
124.0000000000,15,3.3535630703,,,
124.2500000000,15,3.3497200012,,,
124.5000000000,15,3.3497200012,,,
124.7500000000,15,3.3433160782,,,
125.0000000000,15,3.3471579552,,,
125.2500000000,15,3.3407540321,,,
125.5000000000,15,3.3369119167,,,
125.7500000000,15,3.3305070400,,,
126.0000000000,15,3.3343501091,,,
126.2500000000,15,3.3369119167,,,
126.5000000000,15,3.3266649246,,,
126.7500000000,15,3.3279449940,,,
127.0000000000,15,3.3228220940,,,
127.2500000000,15,3.3253839016,,,
127.5000000000,15,3.3189799786,,,
127.7500000000,15,3.3202600479,,,
128.0000000000,16,3.3138558865,,,
128.2500000000,16,3.3189799786,,,
128.5000000000,16,3.3048899174,,,
128.7500000000,16,3.3112940788,,,
129.0000000000,16,3.3023281097,,,
129.2500000000,16,3.3036088943,,,
129.5000000000,16,3.3023281097,,,
129.7500000000,16,3.2972049713,,,
130.0000000000,16,3.2895200253,,,
130.2500000000,16,3.2997660637,,,
130.5000000000,16,3.2908000946,,,
130.7500000000,16,3.2959239483,,,
131.0000000000,16,3.2856769562,,,
131.2500000000,16,3.2831149101,,,
131.5000000000,16,3.2818338871,,,
131.7500000000,16,3.2818338871,,,
132.0000000000,16,3.2754299641,,,
132.2500000000,16,3.2728679180,,,
132.5000000000,16,3.2690260410,,,
132.7500000000,16,3.2703061104,,,
133.0000000000,16,3.2677450180,,,
133.2500000000,16,3.2651829720,,,
133.5000000000,16,3.2651829720,,,
133.7500000000,16,3.2562170029,,,
134.0000000000,16,3.2587790489,,,
134.2500000000,16,3.2536549568,,,
134.5000000000,16,3.2549359798,,,
134.7500000000,16,3.2523739338,,,
135.0000000000,16,3.2562170029,,,
135.2500000000,16,3.2485320568,,,
135.5000000000,16,3.2485320568,,,
135.7500000000,16,3.2408459187,,,
136.0000000000,17,3.2472510338,,,
136.2500000000,17,3.2370040417,,,
136.5000000000,17,3.2382850647,,,
136.7500000000,17,3.2305989265,,,
137.0000000000,17,3.2382850647,,,
137.2500000000,17,3.2280380726,,,
137.5000000000,17,3.2305989265,,,
137.7500000000,17,3.2241950035,,,
138.0000000000,17,3.2331609726,,,
138.2500000000,17,3.2203528881,,,
138.5000000000,17,3.2216329575,,,
138.7500000000,17,3.2165100574,,,
139.0000000000,17,3.2177910805,,,
139.2500000000,17,3.2126669884,,,
139.5000000000,17,3.2101058960,,,
139.7500000000,17,3.2049820423,,,
140.0000000000,17,3.2024199963,,,
140.2500000000,17,3.2024199963,,,
140.5000000000,17,3.2024199963,,,
140.7500000000,17,3.1947350502,,,
141.0000000000,17,3.1972970963,,,
141.2500000000,17,3.1921730042,,,
141.5000000000,17,3.1896119118,,,
141.7500000000,17,3.1934540272,,,
142.0000000000,17,3.1857690811,,,
142.2500000000,17,3.1819260120,,,
142.5000000000,17,3.1780838966,,,
142.7500000000,17,3.1806459427,,,
143.0000000000,17,3.1755220890,,,
143.2500000000,17,3.1768031120,,,
143.5000000000,17,3.1703989506,,,
143.7500000000,17,3.1716790199,,,
144.0000000000,18,3.1729609966,,,
144.2500000000,18,3.1691179276,,,
144.5000000000,18,3.1639940739,,,
144.7500000000,18,3.1678369045,,,
145.0000000000,18,3.1537470818,,,
145.2500000000,18,3.1691179276,,,
145.5000000000,18,3.1511859894,,,
145.7500000000,18,3.1550281048,,,
146.0000000000,18,3.1499049664,,,
146.2500000000,18,3.1550281048,,,
146.5000000000,18,3.1473429203,,,
146.7500000000,18,3.1537470818,,,
147.0000000000,18,3.1537470818,,,
147.2500000000,18,3.1537470818,,,
147.5000000000,18,3.1460618973,,,
147.7500000000,18,3.1447811127,,,
148.0000000000,18,3.1409389973,,,
148.2500000000,18,3.1447811127,,,
148.5000000000,18,3.1345338821,,,
148.7500000000,18,3.1370959282,,,
149.0000000000,18,3.1281299591,,,
149.2500000000,18,3.1281299591,,,
149.5000000000,18,3.1242868900,,,
149.7500000000,18,3.1242868900,,,
150.0000000000,18,3.1166019440,,,
150.2500000000,18,3.1191639900,,,
150.5000000000,18,3.1089169979,,,
150.7500000000,18,3.1140398979,,,
151.0000000000,18,3.1076359749,,,
151.2500000000,18,3.1101980209,,,
151.5000000000,18,3.1012320518,,,
151.7500000000,18,3.1025130749,,,
152.0000000000,19,3.0935471058,,,
152.2500000000,19,3.0948269367,,,
152.5000000000,19,3.0909850597,,,
152.7500000000,19,3.0909850597,,,
153.0000000000,19,3.0871419907,,,
153.2500000000,19,3.0858609676,,,
153.5000000000,19,3.0833001137,,,
153.7500000000,19,3.0884230137,,,
154.0000000000,19,3.0820190907,,,
154.2500000000,19,3.0845799446,,,
154.5000000000,19,3.0756139755,,,
154.7500000000,19,3.0794570446,,,
155.0000000000,19,3.0781760216,,,
155.2500000000,19,3.0781760216,,,
155.5000000000,19,3.0704910755,,,
155.7500000000,19,3.0704910755,,,
156.0000000000,19,3.0640869141,,,
156.2500000000,19,3.0666480064,,,
156.5000000000,19,3.0602440834,,,
156.7500000000,19,3.0576820374,,,
157.0000000000,19,3.0576820374,,,
157.2500000000,19,3.0564010143,,,
157.5000000000,19,3.0538399220,,,
157.7500000000,19,3.0512781143,,,
158.0000000000,19,3.0474350452,,,
158.2500000000,19,3.0448729992,,,
158.5000000000,19,3.0474350452,,,
158.7500000000,19,3.0295031071,,,
159.0000000000,19,3.0397500992,,,
159.2500000000,19,3.0333459377,,,
159.5000000000,19,3.0333459377,,,
159.7500000000,19,3.0256609917,,,
160.0000000000,20,3.0269420147,,,
160.2500000000,20,3.0346269608,,,
160.5000000000,20,3.0256609917,,,
160.7500000000,20,3.0179750919,,,
161.0000000000,20,3.0218179226,,,
161.2500000000,20,3.0243799686,,,
161.5000000000,20,3.0115709305,,,
161.7500000000,20,3.0115709305,,,
162.0000000000,20,3.0141329765,,,
162.2500000000,20,3.0179750919,,,
162.5000000000,20,3.0269420147,,,
162.7500000000,20,3.0333459377,,,
163.0000000000,20,3.0423119068,,,
163.2500000000,20,3.0384690762,,,
163.5000000000,20,3.0704910755,,,
163.7500000000,20,3.0423119068,,,
164.0000000000,20,3.0435929298,,,
164.2500000000,20,3.0371880531,,,
164.5000000000,20,3.0333459377,,,
164.7500000000,20,3.0243799686,,,
165.0000000000,20,3.0256609917,,,
165.2500000000,20,3.0141329765,,,
165.5000000000,20,3.0141329765,,,
165.7500000000,20,3.0064480305,,,
166.0000000000,20,3.0102899075,,,
166.2500000000,20,3.0051670074,,,
166.5000000000,20,3.0038859844,,,
166.7500000000,20,2.9962010384,,,
167.0000000000,20,3.0000429153,,,
167.2500000000,20,2.9949200153,,,
167.5000000000,20,2.9949200153,,,
167.7500000000,20,2.9872350693,,,
168.0000000000,21,2.9821109772,,,
168.2500000000,21,2.9872350693,,,
168.5000000000,21,2.9782679081,,,
168.7500000000,21,2.9846730232,,,
169.0000000000,21,2.9744260311,,,
169.2500000000,21,2.9808299541,,,
169.5000000000,21,2.9757070541,,,
169.7500000000,21,2.9693019390,,,
170.0000000000,21,2.9654600620,,,
170.2500000000,21,2.9680209160,,,
170.5000000000,21,2.9603359699,,,
170.7500000000,21,2.9628980160,,,
171.0000000000,21,2.9552130699,,,
171.2500000000,21,2.9590549469,,,
171.5000000000,21,2.9526510239,,,
171.7500000000,21,2.9716780186,,,
172.0000000000,21,2.9665551186,,,
172.2500000000,21,2.9627120495,,,
172.5000000000,21,2.9563078880,,,
172.7500000000,21,2.9665551186,,,
173.0000000000,21,2.9601509571,,,
173.2500000000,21,2.9575889111,,,
173.5000000000,21,2.9537460804,,,
173.7500000000,21,2.9486229420,,,
174.0000000000,21,2.9422190189,,,
174.2500000000,21,2.9422190189,,,
174.5000000000,21,2.9383759499,,,
174.7500000000,21,2.9396569729,,,
175.0000000000,21,2.9345331192,,,
175.2500000000,21,2.9319720268,,,
175.5000000000,21,2.9281289577,,,
175.7500000000,21,2.9255669117,,,
176.0000000000,22,2.9255669117,,,
176.2500000000,22,2.9204440117,,,
176.5000000000,22,2.9230060577,,,
176.7500000000,22,2.9191629887,,,
177.0000000000,22,2.9217250347,,,
177.2500000000,22,2.9166009426,,,
177.5000000000,22,2.9127590656,,,
177.7500000000,22,2.9089159966,,,
178.0000000000,22,2.9076349735,,,
178.2500000000,22,2.9037919044,,,
178.5000000000,22,2.9089159966,,,
178.7500000000,22,2.9012310505,,,
179.0000000000,22,2.9025120735,,,
179.2500000000,22,2.8986690044,,,
179.5000000000,22,2.9025120735,,,
179.7500000000,22,2.8935461044,,,
180.0000000000,22,2.8948259354,,,
180.2500000000,22,2.8884220123,,,
180.5000000000,22,2.8897030354,,,
180.7500000000,22,2.8832991123,,,
181.0000000000,22,2.8845789433,,,
181.2500000000,22,2.8794560432,,,
181.5000000000,22,2.8743319511,,,
181.7500000000,22,2.8730518818,,,
182.0000000000,22,2.8743319511,,,
182.2500000000,22,2.8666470051,,,
182.5000000000,22,2.8666470051,,,
182.7500000000,22,2.8640849590,,,
183.0000000000,22,2.8666470051,,,
183.2500000000,22,2.8576810360,,,
183.5000000000,22,2.8525578976,,,
183.7500000000,22,2.8487150669,,,
184.0000000000,23,2.8564000130,,,
184.2500000000,23,2.8487150669,,,
184.5000000000,23,2.8512771130,,,
184.7500000000,23,2.8435919285,,,
185.0000000000,23,2.8423109055,,,
185.2500000000,23,2.8359069824,,,
185.5000000000,23,2.8346250057,,,
185.7500000000,23,2.8320639133,,,
186.0000000000,23,2.8333449364,,,
186.2500000000,23,2.8256599903,,,
186.5000000000,23,2.8230979443,,,
186.7500000000,23,2.8256599903,,,
187.0000000000,23,2.8269400597,,,
187.2500000000,23,2.8230979443,,,
187.5000000000,23,2.8282210827,,,
187.7500000000,23,2.8269400597,,,
188.0000000000,23,2.8295021057,,,
188.2500000000,23,2.8243789673,,,
188.5000000000,23,2.8218169212,,,
188.7500000000,23,2.8166930676,,,
189.0000000000,23,2.8166930676,,,
189.2500000000,23,2.8179740906,,,
189.5000000000,23,2.8205358982,,,
189.7500000000,23,2.8218169212,,,
190.0000000000,23,2.8192551136,,,
190.2500000000,23,2.8154129982,,,
190.5000000000,23,2.8166930676,,,
190.7500000000,23,2.8141319752,,,
191.0000000000,23,2.8102889061,,,
191.2500000000,23,2.8051660061,,,
191.5000000000,23,2.8038849831,,,
191.7500000000,23,2.7974801064,,,
192.0000000000,24,2.7962000370,,,
192.2500000000,24,2.7923569679,,,
192.5000000000,24,2.7910759449,,,
192.7500000000,24,2.7872331142,,,
193.0000000000,24,2.7872331142,,,
193.2500000000,24,2.7821099758,,,
193.5000000000,24,2.7821099758,,,
193.7500000000,24,2.7846720219,,,
194.0000000000,24,2.7757060528,,,
194.2500000000,24,2.7795479298,,,
194.5000000000,24,2.7705819607,,,
194.7500000000,24,2.7757060528,,,
195.0000000000,24,2.7628970146,,,
195.2500000000,24,2.7705819607,,,
195.5000000000,24,2.7667400837,,,
195.7500000000,24,2.7718629837,,,
196.0000000000,24,2.7667400837,,,
196.2500000000,24,2.7731440067,,,
196.5000000000,24,2.7821099758,,,
196.7500000000,24,2.7705819607,,,
197.0000000000,24,2.7603349686,,,
197.2500000000,24,2.7564930916,,,
197.5000000000,24,2.7526500225,,,
197.7500000000,24,2.7564930916,,,
198.0000000000,24,2.7513689995,,,
198.2500000000,24,2.7513689995,,,
198.5000000000,24,2.7449650764,,,
198.7500000000,24,2.7500879765,,,
199.0000000000,24,2.7462460995,,,
199.2500000000,24,2.7500879765,,,
199.5000000000,24,2.7424030304,,,
199.7500000000,24,2.7462460995,,,
200.0000000000,25,2.7321560383,,,
200.2500000000,25,2.7424030304,,,
200.5000000000,25,2.7321560383,,,
200.7500000000,25,2.7321560383,,,
201.0000000000,25,2.7270328999,,,
201.2500000000,25,2.7308750153,,,
201.5000000000,25,2.7193470001,,,
201.7500000000,25,2.7219090462,,,
202.0000000000,25,2.7142241001,,,
202.2500000000,25,2.7167859077,,,
202.5000000000,25,2.7129430771,,,
202.7500000000,25,2.7026960850,,,
203.0000000000,25,2.7065389156,,,
203.2500000000,25,2.7052578926,,,
203.5000000000,25,2.7078199387,,,
203.7500000000,25,2.7001349926,,,
204.0000000000,25,2.7026960850,,,
204.2500000000,25,2.6988530159,,,
204.5000000000,25,2.7001349926,,,
204.7500000000,25,2.7001349926,,,
205.0000000000,25,2.6950109005,,,
205.2500000000,25,2.6873259544,,,
205.5000000000,25,2.6886069775,,,
205.7500000000,25,2.6873259544,,,
206.0000000000,25,2.6860449314,,,
206.2500000000,25,2.6796410084,,,
206.5000000000,25,2.6822021008,,,
206.7500000000,25,2.6796410084,,,
207.0000000000,25,2.6847639084,,,
207.2500000000,25,2.6796410084,,,
207.5000000000,25,2.6770789623,,,
207.7500000000,25,2.6719551086,,,
208.0000000000,26,2.6745169163,,,
208.2500000000,26,2.6604280472,,,
208.5000000000,26,2.6668319702,,,
208.7500000000,26,2.6629889011,,,
209.0000000000,26,2.6591470242,,,
209.2500000000,26,2.6553039551,,,
209.5000000000,26,2.6463379860,,,
209.7500000000,26,2.6501810551,,,
210.0000000000,26,2.6501810551,,,
210.2500000000,26,2.6501810551,,,
210.5000000000,26,2.6450569630,,,
210.7500000000,26,2.6463379860,,,
211.0000000000,26,2.6386530399,,,
211.2500000000,26,2.6437759399,,,
211.5000000000,26,2.6386530399,,,
211.7500000000,26,2.6386530399,,,
212.0000000000,26,2.6296870708,,,
212.2500000000,26,2.6296870708,,,
212.5000000000,26,2.6232819557,,,
212.7500000000,26,2.6284060478,,,
213.0000000000,26,2.6194400787,,,
213.2500000000,26,2.6232819557,,,
213.5000000000,26,2.6168780327,,,
213.7500000000,26,2.6091930866,,,
214.0000000000,26,2.6066310406,,,
214.2500000000,26,2.6104741096,,,
214.5000000000,26,2.6040689945,,,
214.7500000000,26,2.6053500175,,,
215.0000000000,26,2.5963840485,,,
215.2500000000,26,2.5989460945,,,
215.5000000000,26,2.5951030254,,,
215.7500000000,26,2.5912609100,,,
216.0000000000,27,2.5899798870,,,
216.2500000000,27,2.5912609100,,,
216.5000000000,27,2.5797328949,,,
216.7500000000,27,2.5810139179,,,
217.0000000000,27,2.5861370564,,,
217.2500000000,27,2.5784521103,,,
217.5000000000,27,2.5861370564,,,
217.7500000000,27,2.5746090412,,,
218.0000000000,27,2.5784521103,,,
218.2500000000,27,2.5733280182,,,
218.5000000000,27,2.5746090412,,,
218.7500000000,27,2.5669240952,,,
219.0000000000,27,2.5643620491,,,
219.2500000000,27,2.5630819798,,,
219.5000000000,27,2.5720469952,,,
219.7500000000,27,2.5618009567,,,
220.0000000000,27,2.5707669258,,,
220.2500000000,27,2.5643620491,,,
220.5000000000,27,2.5643620491,,,
220.7500000000,27,2.5694859028,,,
221.0000000000,27,2.5592389107,,,
221.2500000000,27,2.5643620491,,,
221.5000000000,27,2.5579578876,,,
221.7500000000,27,2.5566771030,,,
222.0000000000,27,2.5489919186,,,
222.2500000000,27,2.5579578876,,,
222.5000000000,27,2.5451490879,,,
222.7500000000,27,2.5528349876,,,
223.0000000000,27,2.5438690186,,,
223.2500000000,27,2.5477108955,,,
223.5000000000,27,2.5400259495,,,
223.7500000000,27,2.5387449265,,,
224.0000000000,28,2.5387449265,,,
224.2500000000,28,2.5387449265,,,
224.5000000000,28,2.5336220264,,,
224.7500000000,28,2.5349020958,,,
225.0000000000,28,2.5323410034,,,
225.2500000000,28,2.5336220264,,,
225.5000000000,28,2.5284979343,,,
225.7500000000,28,2.5310599804,,,
226.0000000000,28,2.5246551037,,,
226.2500000000,28,2.5246551037,,,
226.5000000000,28,2.5195319653,,,
226.7500000000,28,2.5156888962,,,
227.0000000000,28,2.5182509422,,,
227.2500000000,28,2.5131280422,,,
227.5000000000,28,2.5156888962,,,
227.7500000000,28,2.5092849731,,,
228.0000000000,28,2.5105659962,,,
228.2500000000,28,2.5067229271,,,
228.5000000000,28,2.5156888962,,,
228.7500000000,28,2.5041620731,,,
229.0000000000,28,2.5067229271,,,
229.2500000000,28,2.5041620731,,,
229.5000000000,28,2.5054419041,,,
229.7500000000,28,2.5028810501,,,
230.0000000000,28,2.5041620731,,,
230.2500000000,28,2.4926340580,,,
230.5000000000,28,2.4951949120,,,
230.7500000000,28,2.4862289429,,,
231.0000000000,28,2.4900720119,,,
231.2500000000,28,2.4900720119,,,
231.5000000000,28,2.4900720119,,,
231.7500000000,28,2.4836680889,,,
232.0000000000,29,2.4862289429,,,
232.2500000000,29,2.4811060429,,,
232.5000000000,29,2.4798250198,,,
232.7500000000,29,2.4849491119,,,
233.0000000000,29,2.4682970047,,,
233.2500000000,29,2.4836680889,,,
233.5000000000,29,2.4772629738,,,
233.7500000000,29,2.4811060429,,,
234.0000000000,29,2.4682970047,,,
234.2500000000,29,2.4721400738,,,
234.5000000000,29,2.4657349586,,,
234.7500000000,29,2.4734210968,,,
235.0000000000,29,2.4695780277,,,
235.2500000000,29,2.4798250198,,,
235.5000000000,29,2.4734210968,,,
235.7500000000,29,2.4708590508,,,
236.0000000000,29,2.4721400738,,,
236.2500000000,29,2.4772629738,,,
236.5000000000,29,2.4682970047,,,
236.7500000000,29,2.4734210968,,,
237.0000000000,29,2.4631741047,,,
237.2500000000,29,2.4695780277,,,
237.5000000000,29,2.4593310356,,,
237.7500000000,29,2.4580500126,,,
238.0000000000,29,2.4763779640,,,
238.2500000000,29,2.4699740410,,,
238.5000000000,29,2.4686930180,,,
238.7500000000,29,2.4635701180,,,
239.0000000000,29,2.4674119949,,,
239.2500000000,29,2.4597270489,,,
239.5000000000,29,2.4635701180,,,
239.7500000000,29,2.4558839798,,,
240.0000000000,30,2.4584460258,,,
240.2500000000,30,2.4507610798,,,
240.5000000000,30,2.4558839798,,,
240.7500000000,30,2.4533228874,,,
241.0000000000,30,2.4494800568,,,
241.2500000000,30,2.4417951107,,,
241.5000000000,30,2.4443569183,,,
241.7500000000,30,2.4405140877,,,
242.0000000000,30,2.4417951107,,,
242.2500000000,30,2.4392330647,,,
242.5000000000,30,2.4392330647,,,
242.7500000000,30,2.4341099262,,,
243.0000000000,30,2.4341099262,,,
243.2500000000,30,2.4302670956,,,
243.5000000000,30,2.4315481186,,,
243.7500000000,30,2.4264249802,,,
244.0000000000,30,2.4225819111,,,
244.2500000000,30,2.4213008881,,,
244.5000000000,30,2.4213008881,,,
244.7500000000,30,2.4200201035,,,
245.0000000000,30,2.4289860725,,,
245.2500000000,30,2.4302670956,,,
245.5000000000,30,2.4405140877,,,
245.7500000000,30,2.4392330647,,,
246.0000000000,30,2.4430758953,,,
246.2500000000,30,2.4417951107,,,
246.5000000000,30,2.4353909492,,,
246.7500000000,30,2.4302670956,,,
247.0000000000,30,2.4277050495,,,
247.2500000000,30,2.4225819111,,,
247.5000000000,30,2.4238629341,,,
247.7500000000,30,2.4136159420,,,
248.0000000000,31,2.4084920883,,,
248.2500000000,31,2.4110538960,,,
248.5000000000,31,2.4046499729,,,
248.7500000000,31,2.4059309959,,,
249.0000000000,31,2.4059309959,,,
249.2500000000,31,2.4033689499,,,
249.5000000000,31,2.3918409348,,,
249.7500000000,31,2.3982450962,,,
250.0000000000,31,2.3931219578,,,
250.2500000000,31,2.3944029808,,,
250.5000000000,31,2.3854370117,,,
250.7500000000,31,2.3892788887,,,
251.0000000000,31,2.3841559887,,,
251.2500000000,31,2.3841559887,,,
251.5000000000,31,2.3803129196,,,
251.7500000000,31,2.3828749657,,,
252.0000000000,31,2.3751900196,,,
252.2500000000,31,2.3713469505,,,
252.5000000000,31,2.3713469505,,,
252.7500000000,31,2.3687849045,,,
253.0000000000,31,2.3610999584,,,
253.2500000000,31,2.3598189354,,,
253.5000000000,31,2.3675050735,,,
253.7500000000,31,2.3598189354,,,
254.0000000000,31,2.3623809814,,,
254.2500000000,31,2.3598189354,,,
254.5000000000,31,2.3572580814,,,
254.7500000000,31,2.3508529663,,,
255.0000000000,31,2.3508529663,,,
255.2500000000,31,2.3444490433,,,
255.5000000000,31,2.3470110893,,,
255.7500000000,31,2.3431680202,,,
256.0000000000,32,2.3444490433,,,
256.2500000000,32,2.3367640972,,,
256.5000000000,32,2.3342020512,,,
256.7500000000,32,2.3342020512,,,
257.0000000000,32,2.3316400051,,,
257.2500000000,32,2.3342020512,,,
257.5000000000,32,2.3277978897,,,
257.7500000000,32,2.3239550591,,,
258.0000000000,32,2.3252360821,,,
258.2500000000,32,2.3252360821,,,
258.5000000000,32,2.3188319206,,,
258.7500000000,32,2.3201119900,,,
259.0000000000,32,2.3137080669,,,
259.2500000000,32,2.3162701130,,,
259.5000000000,32,2.3073039055,,,
259.7500000000,32,2.3098649979,,,
260.0000000000,32,2.3047420979,,,
260.2500000000,32,2.3047420979,,,
260.5000000000,32,2.2996180058,,,
260.7500000000,32,2.3034610748,,,
261.0000000000,32,2.2944951057,,,
261.2500000000,32,2.2957758904,,,
261.5000000000,32,2.2983379364,,,
261.7500000000,32,2.2919330597,,,
262.0000000000,32,2.2996180058,,,
262.2500000000,32,2.2855288982,,,
262.5000000000,32,2.2906529903,,,
262.7500000000,32,2.2829670906,,,
263.0000000000,32,2.2855288982,,,
263.2500000000,32,2.2752819061,,,
263.5000000000,32,2.2778439522,,,
263.7500000000,32,2.2740008831,,,
264.0000000000,33,2.2765629292,,,
264.2500000000,33,2.2688779831,,,
264.5000000000,33,2.2675969601,,,
264.7500000000,33,2.2650349140,,,
265.0000000000,33,2.2663159370,,,
265.2500000000,33,2.2611930370,,,
265.5000000000,33,2.2586309910,,,
265.7500000000,33,2.2637538910,,,
266.0000000000,33,2.2535068989,,,
266.2500000000,33,2.2599120140,,,
266.5000000000,33,2.2522261143,,,
266.7500000000,33,2.2586309910,,,
267.0000000000,33,2.2535068989,,,
267.2500000000,33,2.2560689449,,,
267.5000000000,33,2.2483839989,,,
267.7500000000,33,2.2509460449,,,
268.0000000000,33,2.2445409298,,,
268.2500000000,33,2.2496650219,,,
268.5000000000,33,2.2445409298,,,
268.7500000000,33,2.2406990528,,,
269.0000000000,33,2.2381370068,,,
269.2500000000,33,2.2342939377,,,
269.5000000000,33,2.2355749607,,,
269.7500000000,33,2.2419800758,,,
270.0000000000,33,2.2355749607,,,
270.2500000000,33,2.2432599068,,,
270.5000000000,33,2.2355749607,,,
270.7500000000,33,2.2330129147,,,
271.0000000000,33,2.2291710377,,,
271.2500000000,33,2.2317330837,,,
271.5000000000,33,2.2278900146,,,
271.7500000000,33,2.2278900146,,,
272.0000000000,34,2.2304520607,,,
272.2500000000,34,2.2214860916,,,
272.5000000000,34,2.2278900146,,,
272.7500000000,34,2.2214860916,,,
273.0000000000,34,2.2266089916,,,
273.2500000000,34,2.2176430225,,,
273.5000000000,34,2.2202050686,,,
273.7500000000,34,2.2163619995,,,
274.0000000000,34,2.2150809765,,,
274.2500000000,34,2.2048339844,,,
274.5000000000,34,2.2125198841,,,
274.7500000000,34,2.2073960304,,,
275.0000000000,34,2.2086770535,,,
275.2500000000,34,2.2035529613,,,
275.5000000000,34,2.2048339844,,,
275.7500000000,34,2.1971490383,,,
276.0000000000,34,2.2009921074,,,
276.2500000000,34,2.1945869923,,,
276.5000000000,34,2.1958680153,,,
276.7500000000,34,2.1920258999,,,
277.0000000000,34,2.1907451153,,,
277.2500000000,34,2.1920258999,,,
277.5000000000,34,2.1907451153,,,
277.7500000000,34,2.1869020462,,,
278.0000000000,34,2.1869020462,,,
278.2500000000,34,2.1830589771,,,
278.5000000000,34,2.1804978848,,,
278.7500000000,34,2.1753740311,,,
279.0000000000,34,2.1804978848,,,
279.2500000000,34,2.1728129387,,,
279.5000000000,34,2.1728129387,,,
279.7500000000,34,2.1664080620,,,
280.0000000000,35,2.1753740311,,,
280.2500000000,35,2.1638460159,,,
280.5000000000,35,2.1651279926,,,
280.7500000000,35,2.1625659466,,,
281.0000000000,35,2.1600039005,,,
281.2500000000,35,2.1638460159,,,
281.5000000000,35,2.1587231159,,,
281.7500000000,35,2.1612849236,,,
282.0000000000,35,2.1535999775,,,
282.2500000000,35,2.1587231159,,,
282.5000000000,35,2.1459140778,,,
282.7500000000,35,2.1561610699,,,
283.0000000000,35,2.1471951008,,,
283.2500000000,35,2.1497569084,,,
283.5000000000,35,2.1433529854,,,
283.7500000000,35,2.1471951008,,,
284.0000000000,35,2.1420719624,,,
284.2500000000,35,2.1420719624,,,
284.5000000000,35,2.1574420929,,,
284.7500000000,35,2.1382288933,,,
285.0000000000,35,2.1331059933,,,
285.2500000000,35,2.1318249702,,,
285.5000000000,35,2.1279819012,,,
285.7500000000,35,2.1331059933,,,
286.0000000000,35,2.1241400242,,,
286.2500000000,35,2.1254210472,,,
286.5000000000,35,2.1215779781,,,
286.7500000000,35,2.1267011166,,,
287.0000000000,35,2.1177349091,,,
287.2500000000,35,2.1202969551,,,
287.5000000000,35,2.1215779781,,,
287.7500000000,35,2.1151740551,,,
288.0000000000,36,2.1138930321,,,
288.2500000000,36,2.1074879169,,,
288.5000000000,36,2.1113309860,,,
288.7500000000,36,2.1062068939,,,
289.0000000000,36,2.1062068939,,,
289.2500000000,36,2.0959610939,,,
289.5000000000,36,2.1036460400,,,
289.7500000000,36,2.0959610939,,,
290.0000000000,36,2.0998029709,,,
290.2500000000,36,2.0921180248,,,
290.5000000000,36,2.0972409248,,,
290.7500000000,36,2.0895559788,,,
291.0000000000,36,2.0921180248,,,
291.2500000000,36,2.0857141018,,,
291.5000000000,36,2.0857141018,,,
291.7500000000,36,2.0908370018,,,
292.0000000000,36,2.0793089867,,,
292.2500000000,36,2.0869939327,,,
292.5000000000,36,2.0805900097,,,
292.7500000000,36,2.0869939327,,,
293.0000000000,36,2.0767469406,,,
293.2500000000,36,2.0831520557,,,
293.5000000000,36,2.0729050636,,,
293.7500000000,36,2.0729050636,,,
294.0000000000,36,2.0690619946,,,
294.2500000000,36,2.0716240406,,,
294.5000000000,36,2.0664999485,,,
294.7500000000,36,2.0664999485,,,
295.0000000000,36,2.0652201176,,,
295.2500000000,36,2.0613770485,,,
295.5000000000,36,2.0652201176,,,
295.7500000000,36,2.0626580715,,,
296.0000000000,37,2.0652201176,,,
296.2500000000,37,2.0511300564,,,
296.5000000000,37,2.0588150024,,,
296.7500000000,37,2.0498490334,,,
297.0000000000,37,2.0549728870,,,
297.2500000000,37,2.0485680103,,,
297.5000000000,37,2.0498490334,,,
297.7500000000,37,2.0434451103,,,
298.0000000000,37,2.0434451103,,,
298.2500000000,37,2.0383210182,,,
298.5000000000,37,2.0383210182,,,
298.7500000000,37,2.0383210182,,,
299.0000000000,37,2.0370399952,,,
299.2500000000,37,2.0383210182,,,
299.5000000000,37,2.0331981182,,,
299.7500000000,37,2.0319170952,,,
300.0000000000,37,2.0280749798,,,
300.2500000000,37,2.0331981182,,,
300.5000000000,37,2.0267939568,,,
300.7500000000,37,2.0280749798,,,
301.0000000000,37,2.0242319107,,,
301.2500000000,37,2.0267939568,,,
301.5000000000,37,2.0178279877,,,
301.7500000000,37,2.0216701031,,,
302.0000000000,37,2.0191090107,,,
302.2500000000,37,2.0203890800,,,
302.5000000000,37,2.0178279877,,,
302.7500000000,37,2.0152659416,,,
303.0000000000,37,2.0101420879,,,
303.2500000000,37,2.0191090107,,,
303.5000000000,37,2.0075809956,,,
303.7500000000,37,2.0127038956,,,
304.0000000000,38,2.0037379265,,,
304.2500000000,38,2.0062999725,,,
304.5000000000,38,1.9973340034,,,
304.7500000000,38,2.0075809956,,,
305.0000000000,38,1.9973340034,,,
305.2500000000,38,2.0011761189,,,
305.5000000000,38,1.9947719574,,,
305.7500000000,38,1.9986150265,,,
306.0000000000,38,1.9934910536,,,
306.2500000000,38,1.9947719574,,,
306.5000000000,38,1.9922100306,,,
306.7500000000,38,1.9947719574,,,
307.0000000000,38,1.9858059883,,,
307.2500000000,38,1.9870870113,,,
307.5000000000,38,1.9819630384,,,
307.7500000000,38,1.9858059883,,,
308.0000000000,38,1.9806820154,,,
308.2500000000,38,1.9794009924,,,
308.5000000000,38,1.9781210423,,,
308.7500000000,38,1.9742779732,,,
309.0000000000,38,1.9742779732,,,
309.2500000000,38,1.9755589962,,,
309.5000000000,38,1.9768400192,,,
309.7500000000,38,1.9691549540,,,
310.0000000000,38,1.9691549540,,,
310.2500000000,38,1.9678740501,,,
310.5000000000,38,1.9729969501,,,
310.7500000000,38,1.9627499580,,,
311.0000000000,38,1.9653120041,,,
311.2500000000,38,1.9653120041,,,
311.5000000000,38,1.9691549540,,,
311.7500000000,38,1.9589079618,,,
