Time:4Hz,Epoch,Channel 1,Event Id,Event Date,Event Duration
0.0000000000,0,4.9257798195,,,
0.2500000000,0,4.9424309731,,,
0.5000000000,0,4.9411511421,,,
0.7500000000,0,4.9283418655,,,
1.0000000000,0,4.9027237892,,,
1.2500000000,0,4.8924779892,,,
1.5000000000,0,4.9129710197,,,
1.7500000000,0,4.9488358498,,,
2.0000000000,0,4.9770150185,,,
2.2500000000,0,4.9987888336,,,
2.5000000000,0,5.0000710487,,,
2.7500000000,0,4.9949469566,,,
3.0000000000,0,4.9718909264,,,
3.2500000000,0,4.9526782036,,,
3.5000000000,0,4.9296231270,,,
3.7500000000,0,4.9065670967,,,
4.0000000000,0,4.8924779892,,,
4.2500000000,0,4.8796691895,,,
4.5000000000,0,4.8681411743,,,
4.7500000000,0,4.8604559898,,,
5.0000000000,0,4.8655791283,,,
5.2500000000,0,4.8745450974,,,
5.5000000000,0,4.9052858353,,,
5.7500000000,0,4.9270610809,,,
6.0000000000,0,4.9449930191,,,
6.2500000000,0,4.9462738037,,,
6.5000000000,0,4.9462738037,,,
6.7500000000,0,4.9283418655,,,
7.0000000000,0,4.9321842194,,,
7.2500000000,0,4.9462738037,,,
7.5000000000,0,5.0000710487,,,
7.7500000000,0,5.0653948784,,,
8.0000000000,1,5.1268758774,,,
8.2500000000,1,5.1640210152,,,
8.5000000000,1,5.1922011375,,,
8.7500000000,1,5.1934809685,,,
9.0000000000,1,5.2216610909,,,
9.2500000000,1,5.2805809975,,,
9.5000000000,1,5.3433427811,,,
9.7500000000,1,5.3792080879,,,
10.0000000000,1,5.3766460419,,,
10.2500000000,1,5.3574328423,,,
10.5000000000,1,5.3228487968,,,
10.7500000000,1,5.2793002129,,,
11.0000000000,1,5.2293457985,,,
11.2500000000,1,5.1845149994,,,
11.5000000000,1,5.1563358307,,,
11.7500000000,1,5.1435279846,,,
12.0000000000,1,5.1588978767,,,
12.2500000000,1,5.1704258919,,,
12.5000000000,1,5.1883578300,,,
12.7500000000,1,5.2075710297,,,
13.0000000000,1,5.2562441826,,,
13.2500000000,1,5.2831420898,,,
13.5000000000,1,5.3023548126,,,
13.7500000000,1,5.2959508896,,,
14.0000000000,1,5.2780189514,,,
14.2500000000,1,5.2728948593,,,
14.5000000000,1,5.2280650139,,,
14.7500000000,1,5.2024469376,,,
15.0000000000,1,5.1768298149,,,
15.2500000000,1,5.1947622299,,,
15.5000000000,1,5.2395930290,,,
15.7500000000,1,5.2831420898,,,
16.0000000000,2,5.3151640892,,,
16.2500000000,2,5.3215680122,,,
16.5000000000,2,5.3177261353,,,
16.7500000000,2,5.3010749817,,,
17.0000000000,2,5.2613668442,,,
17.2500000000,2,5.2357501984,,,
17.5000000000,2,5.2088518143,,,
17.7500000000,2,5.1934809685,,,
18.0000000000,2,5.1819539070,,,
18.2500000000,2,5.1665830612,,,
18.5000000000,2,5.1601791382,,,
18.7500000000,2,5.1435279846,,,
19.0000000000,2,5.1409659386,,,
19.2500000000,2,5.1345620155,,,
19.5000000000,2,5.1281571388,,,
19.7500000000,2,5.1230340004,,,
20.0000000000,2,5.1191911697,,,
20.2500000000,2,5.1115059853,,,
20.5000000000,2,5.1166300774,,,
20.7500000000,2,5.1499319077,,,
21.0000000000,2,5.2306270599,,,
21.2500000000,2,5.3420619965,,,
21.5000000000,2,5.4406890869,,,
21.7500000000,2,5.4974632263,,,
22.0000000000,2,5.5269231796,,,
22.2500000000,2,5.5089907646,,,
22.5000000000,2,5.4744071960,,,
22.7500000000,2,5.4603180885,,,
23.0000000000,2,5.4744071960,,,
23.2500000000,2,5.5141139030,,,
23.5000000000,2,5.5486979485,,,
23.7500000000,2,5.5602250099,,,
24.0000000000,3,5.5499792099,,,
24.2500000000,3,5.5141139030,,,
24.5000000000,3,5.4628801346,,,
24.7500000000,3,5.4206109047,,,
25.0000000000,3,5.3821849823,,,
25.2500000000,3,5.3514437675,,,
25.5000000000,3,5.3232650757,,,
25.7500000000,3,5.3104557991,,,
26.0000000000,3,5.2950859070,,,
26.2500000000,3,5.2784352303,,,
26.5000000000,3,5.2707490921,,,
26.7500000000,3,5.2592220306,,,
27.0000000000,3,5.2515358925,,,
27.2500000000,3,5.2451319695,,,
27.5000000000,3,5.2502560616,,,
27.7500000000,3,5.2464132309,,,
28.0000000000,3,5.2733111382,,,
28.2500000000,3,5.3155798912,,,
28.5000000000,3,5.3744997978,,,
28.7500000000,3,5.4103641510,,,
29.0000000000,3,5.4334201813,,,
29.2500000000,3,5.4308581352,,,
29.5000000000,3,5.4142069817,,,
29.7500000000,3,5.3975548744,,,
30.0000000000,3,5.3706569672,,,
30.2500000000,3,5.3591289520,,,
30.5000000000,3,5.3565669060,,,
30.7500000000,3,5.3578481674,,,
31.0000000000,3,5.3501629829,,,
31.2500000000,3,5.3488821983,,,
31.5000000000,3,5.3399162292,,,
31.7500000000,3,5.3386349678,,,
32.0000000000,4,5.3309497833,,,
32.2500000000,4,5.3296689987,,,
32.5000000000,4,5.3181409836,,,
32.7500000000,4,5.3155798912,,,
33.0000000000,4,5.3155798912,,,
33.2500000000,4,5.3181409836,,,
33.5000000000,4,5.3091750145,,,
33.7500000000,4,5.3091750145,,,
34.0000000000,4,5.3104557991,,,
34.2500000000,4,5.3040518761,,,
34.5000000000,4,5.3104557991,,,
34.7500000000,4,5.3078951836,,,
35.0000000000,4,5.3091750145,,,
35.2500000000,4,5.3014898300,,,
35.5000000000,4,5.3002099991,,,
35.7500000000,4,5.2950859070,,,
36.0000000000,4,5.2976469994,,,
36.2500000000,4,5.2886819839,,,
36.5000000000,4,5.2925238609,,,
36.7500000000,4,5.2809958458,,,
37.0000000000,4,5.2809958458,,,
37.2500000000,4,5.2797160149,,,
37.5000000000,4,5.2912430763,,,
37.7500000000,4,5.2874011993,,,
38.0000000000,4,5.2809958458,,,
38.2500000000,4,5.2835578918,,,
38.5000000000,4,5.2797160149,,,
38.7500000000,4,5.2784352303,,,
39.0000000000,4,5.2745919228,,,
39.2500000000,4,5.2694678307,,,
39.5000000000,4,5.2656259537,,,
39.7500000000,4,5.2656259537,,,
40.0000000000,5,5.2669072151,,,
40.2500000000,5,5.2681879997,,,
40.5000000000,5,5.2617831230,,,
40.7500000000,5,5.2758731842,,,
41.0000000000,5,5.2925238609,,,
41.2500000000,5,5.3194217682,,,
41.5000000000,5,5.3347930908,,,
41.7500000000,5,5.3501629829,,,
42.0000000000,5,5.3552870750,,,
42.2500000000,5,5.3552870750,,,
42.5000000000,5,5.3501629829,,,
42.7500000000,5,5.3501629829,,,
43.0000000000,5,5.3335118294,,,
43.2500000000,5,5.3283882141,,,
43.5000000000,5,5.3283882141,,,
43.7500000000,5,5.3181409836,,,
44.0000000000,5,5.3130178452,,,
44.2500000000,5,5.3053331375,,,
44.5000000000,5,5.3066129684,,,
44.7500000000,5,5.3027710915,,,
45.0000000000,5,5.3053331375,,,
45.2500000000,5,5.3078951836,,,
45.5000000000,5,5.3078951836,,,
45.7500000000,5,5.3040518761,,,
46.0000000000,5,5.3117370605,,,
46.2500000000,5,5.3296689987,,,
46.5000000000,5,5.3604102135,,,
46.7500000000,5,5.3809041977,,,
47.0000000000,5,5.3962750435,,,
47.2500000000,5,5.3975548744,,,
47.5000000000,5,5.4026789665,,,
47.7500000000,5,5.3873081207,,,
48.0000000000,6,5.3809041977,,,
48.2500000000,6,5.3770608902,,,
48.5000000000,6,5.3937129974,,,
48.7500000000,6,5.4129261971,,,
49.0000000000,6,5.4347000122,,,
49.2500000000,6,5.4347000122,,,
49.5000000000,6,5.4385428429,,,
49.7500000000,6,5.4347000122,,,
50.0000000000,6,5.4295768738,,,
50.2500000000,6,5.4564747810,,,
50.5000000000,6,5.5166759491,,,
50.7500000000,6,5.5845618248,,,
51.0000000000,6,5.6409201622,,,
51.2500000000,6,5.6690988541,,,
51.5000000000,6,5.6895928383,,,
51.7500000000,6,5.6921548843,,,
52.0000000000,6,5.6742229462,,,
52.2500000000,6,5.6537289619,,,
52.5000000000,6,5.6319541931,,,
52.7500000000,6,5.6178650856,,,
53.0000000000,6,5.5948090553,,,
53.2500000000,6,5.5768771172,,,
53.5000000000,6,5.5576639175,,,
53.7500000000,6,5.5448551178,,,
54.0000000000,6,5.5269231796,,,
54.2500000000,6,5.5179572105,,,
54.5000000000,6,5.5077099800,,,
54.7500000000,6,5.5025858879,,,
55.0000000000,6,5.4923400879,,,
55.2500000000,6,5.5102720261,,,
55.5000000000,6,5.5448551178,,,
55.7500000000,6,5.5922470093,,,
56.0000000000,7,5.6319541931,,,
56.2500000000,7,5.6498861313,,,
56.5000000000,7,5.6511669159,,,
56.7500000000,7,5.6396389008,,,
57.0000000000,7,5.6140217781,,,
57.2500000000,7,5.5960898399,,,
57.5000000000,7,5.5730338097,,,
57.7500000000,7,5.5653491020,,,
58.0000000000,7,5.5435738564,,,
58.2500000000,7,5.5358891487,,,
58.5000000000,7,5.5256419182,,,
58.7500000000,7,5.5192379951,,,
59.0000000000,7,5.5077099800,,,
59.2500000000,7,5.5089907646,,,
59.5000000000,7,5.5064291954,,,
59.7500000000,7,5.5025858879,,,
60.0000000000,7,5.4974632263,,,
60.2500000000,7,5.4936199188,,,
60.5000000000,7,5.5000247955,,,
60.7500000000,7,5.5089907646,,,
61.0000000000,7,5.5307660103,,,
61.2500000000,7,5.5448551178,,,
61.5000000000,7,5.5551018715,,,
61.7500000000,7,5.5551018715,,,
62.0000000000,7,5.5474171638,,,
62.2500000000,7,5.5371699333,,,
62.5000000000,7,5.5256419182,,,
62.7500000000,7,5.5089907646,,,
63.0000000000,7,5.5038671494,,,
63.2500000000,7,5.4910588264,,,
63.5000000000,7,5.4897780418,,,
63.7500000000,7,5.4769687653,,,
64.0000000000,8,5.4769687653,,,
64.2500000000,8,5.4680027962,,,
64.5000000000,8,5.4654412270,,,
64.7500000000,8,5.4641599655,,,
65.0000000000,8,5.4833741188,,,
65.2500000000,8,5.5230798721,,,
65.5000000000,8,5.5743150711,,,
65.7500000000,8,5.6050558090,,,
66.0000000000,8,5.6306729317,,,
66.2500000000,8,5.6383590698,,,
66.5000000000,8,5.6281108856,,,
66.7500000000,8,5.6063370705,,,
67.0000000000,8,5.5807189941,,,
67.2500000000,8,5.5551018715,,,
67.5000000000,8,5.5397319794,,,
67.7500000000,8,5.5243611336,,,
68.0000000000,8,5.5089907646,,,
68.2500000000,8,5.5051479340,,,
68.5000000000,8,5.4949011803,,,
68.7500000000,8,5.4897780418,,,
69.0000000000,8,5.4872159958,,,
69.2500000000,8,5.4808120728,,,
69.5000000000,8,5.4769687653,,,
69.7500000000,8,5.4692840576,,,
70.0000000000,8,5.4628801346,,,
70.2500000000,8,5.4667220116,,,
70.5000000000,8,5.4590368271,,,
70.7500000000,8,5.4603180885,,,
71.0000000000,8,5.4513521194,,,
71.2500000000,8,5.4513521194,,,
71.5000000000,8,5.4462289810,,,
71.7500000000,8,5.4475088120,,,
72.0000000000,9,5.4411048889,,,
72.2500000000,9,5.4385428429,,,
72.5000000000,9,5.4321389198,,,
72.7500000000,9,5.4270148277,,,
73.0000000000,9,5.4347000122,,,
73.2500000000,9,5.4334201813,,,
73.5000000000,9,5.4372620583,,,
73.7500000000,9,5.4475088120,,,
74.0000000000,9,5.4949011803,,,
74.2500000000,9,5.5717539787,,,
74.5000000000,9,5.6716609001,,,
74.7500000000,9,5.7587599754,,,
75.0000000000,9,5.8240838051,,,
75.2500000000,9,5.8484210968,,,
75.5000000000,9,5.8458590508,,,
75.7500000000,9,5.8189611435,,,
76.0000000000,9,5.7895011902,,,
76.2500000000,9,5.7408280373,,,
76.5000000000,9,5.7036828995,,,
76.7500000000,9,5.6639761925,,,
77.0000000000,9,5.6345157623,,,
77.2500000000,9,5.6076178551,,,
77.5000000000,9,5.5896849632,,,
77.7500000000,9,5.5704731941,,,
78.0000000000,9,5.5602250099,,,
78.2500000000,9,5.5474171638,,,
78.5000000000,9,5.5410127640,,,
78.7500000000,9,5.5358891487,,,
79.0000000000,9,5.5307660103,,,
79.2500000000,9,5.5256419182,,,
79.5000000000,9,5.5192379951,,,
79.7500000000,9,5.5205187798,,,
80.0000000000,10,5.5218000412,,,
80.2500000000,10,5.5422940254,,,
80.5000000000,10,5.5858430862,,,
80.7500000000,10,5.6345157623,,,
81.0000000000,10,5.6562910080,,,
81.2500000000,10,5.6755042076,,,
81.5000000000,10,5.6716609001,,,
81.7500000000,10,5.6601328850,,,
82.0000000000,10,5.6357970238,,,
82.2500000000,10,5.6153030396,,,
82.5000000000,10,5.5973711014,,,
82.7500000000,10,5.5743150711,,,
83.0000000000,10,5.5653491020,,,
83.2500000000,10,5.5512599945,,,
83.5000000000,10,5.5397319794,,,
83.7500000000,10,5.5294852257,,,
84.0000000000,10,5.5282039642,,,
84.2500000000,10,5.5192379951,,,
84.5000000000,10,5.5192379951,,,
84.7500000000,10,5.5192379951,,,
85.0000000000,10,5.5192379951,,,
85.2500000000,10,5.5192379951,,,
85.5000000000,10,5.5192379951,,,
85.7500000000,10,5.5192379951,,,
86.0000000000,10,5.5192379951,,,
86.2500000000,10,5.5192379951,,,
86.5000000000,10,5.5192379951,,,
86.7500000000,10,5.5192379951,,,
87.0000000000,10,5.5192379951,,,
87.2500000000,10,5.5192379951,,,
87.5000000000,10,5.5192379951,,,
87.7500000000,10,5.5192379951,,,
88.0000000000,11,5.5192379951,,,
88.2500000000,11,5.5192379951,,,
88.5000000000,11,5.5192379951,,,
88.7500000000,11,5.5192379951,,,
89.0000000000,11,5.5192379951,,,
89.2500000000,11,5.5192379951,,,
89.5000000000,11,5.5192379951,,,
89.7500000000,11,5.5192379951,,,
90.0000000000,11,5.5192379951,,,
90.2500000000,11,5.5192379951,,,
90.5000000000,11,5.5192379951,,,
90.7500000000,11,5.5192379951,,,
91.0000000000,11,5.5192379951,,,
91.2500000000,11,5.5192379951,,,
91.5000000000,11,5.5192379951,,,
91.7500000000,11,5.5192379951,,,
92.0000000000,11,5.5192379951,,,
92.2500000000,11,5.5192379951,,,
92.5000000000,11,5.5192379951,,,
92.7500000000,11,5.5192379951,,,
93.0000000000,11,5.5192379951,,,
93.2500000000,11,5.5192379951,,,
93.5000000000,11,5.5192379951,,,
93.7500000000,11,5.5192379951,,,
94.0000000000,11,5.5192379951,,,
94.2500000000,11,5.5192379951,,,
94.5000000000,11,5.5192379951,,,
94.7500000000,11,5.5192379951,,,
95.0000000000,11,5.5192379951,33025,95.1875000000,0.0000000000
95.2500000000,11,5.5192379951,33024,95.3750000000,0.0000000000
95.5000000000,11,5.5192379951,33025:33024,95.4687500000:95.6875000000,0.0000000000:0.0000000000
95.7500000000,11,5.5192379951,,,
96.0000000000,12,5.5192379951,,,
96.2500000000,12,5.5192379951,,,
96.5000000000,12,5.5192379951,,,
96.7500000000,12,5.5192379951,,,
97.0000000000,12,5.5192379951,,,
97.2500000000,12,5.5192379951,,,
97.5000000000,12,5.5192379951,,,
97.7500000000,12,5.5653491020,,,
98.0000000000,12,5.5512599945,,,
98.2500000000,12,5.5397319794,,,
98.5000000000,12,5.5294852257,,,
98.7500000000,12,5.5282039642,,,
99.0000000000,12,5.5192379951,,,
99.2500000000,12,5.5871238708,,,
99.5000000000,12,5.5871238708,,,
99.7500000000,12,5.5871238708,,,
100.0000000000,12,5.5871238708,,,
100.2500000000,12,5.5871238708,,,
100.5000000000,12,5.5871238708,,,
100.7500000000,12,5.5871238708,,,
101.0000000000,12,5.5871238708,,,
101.2500000000,12,5.5871238708,,,
101.5000000000,12,5.5871238708,,,
101.7500000000,12,5.5871238708,,,
102.0000000000,12,5.5871238708,,,
102.2500000000,12,5.5871238708,,,
102.5000000000,12,5.5871238708,,,
102.7500000000,12,5.5871238708,,,
103.0000000000,12,5.5871238708,,,
103.2500000000,12,5.5871238708,,,
103.5000000000,12,5.5871238708,,,
103.7500000000,12,5.5871238708,,,
104.0000000000,13,5.5819997787,,,
104.2500000000,13,5.5807189941,,,
104.5000000000,13,5.5948090553,,,
104.7500000000,13,5.6780648232,,,
105.0000000000,13,5.6665377617,,,
105.2500000000,13,5.6434822083,,,
105.5000000000,13,5.6293931007,,,
105.7500000000,13,5.6101789474,,,
106.0000000000,13,5.5935277939,,,
106.2500000000,13,5.5884051323,,,
106.5000000000,13,5.5755958557,,,
106.7500000000,13,5.5691909790,,,
107.0000000000,13,5.5602250099,,,
107.2500000000,13,5.5551018715,,,
107.5000000000,13,5.5486979485,,,
107.7500000000,13,5.5435738564,,,
108.0000000000,13,5.5435738564,,,
108.2500000000,13,5.5474171638,,,
108.5000000000,13,5.5410127640,,,
108.7500000000,13,5.5563831329,,,
109.0000000000,13,5.5717539787,,,
109.2500000000,13,5.6127409935,,,
109.5000000000,13,5.6780648232,,,
109.7500000000,13,5.7549180984,,,
110.0000000000,13,5.8112759590,,,
110.2500000000,13,5.8394551277,,,
110.5000000000,13,5.8394551277,,,
110.7500000000,13,5.8189611435,,,
111.0000000000,13,5.7882199287,,,
111.2500000000,13,5.7497940063,,,
111.5000000000,13,5.7203340530,,,
111.7500000000,13,5.6204261780,,,
112.0000000000,14,5.6165838242,,,
112.2500000000,14,5.6076178551,,,
112.5000000000,14,5.6037750244,,,
112.7500000000,14,5.5935277939,,,
113.0000000000,14,5.5871238708,,,
113.2500000000,14,5.5819997787,,,
113.5000000000,14,5.5819997787,,,
113.7500000000,14,5.5730338097,,,
114.0000000000,14,5.5743150711,,,
114.2500000000,14,5.5653491020,,,
114.5000000000,14,5.5602250099,,,
114.7500000000,14,5.5602250099,,,
115.0000000000,14,5.5486979485,,,
115.2500000000,14,5.5474171638,,,
115.5000000000,14,5.5422940254,,,
115.7500000000,14,5.5371699333,,,
116.0000000000,14,5.5320458412,,,
116.2500000000,14,5.5307660103,,,
116.5000000000,14,5.5320458412,,,
116.7500000000,14,5.5384511948,,,
117.0000000000,14,5.5410127640,,,
117.2500000000,14,5.5448551178,,,
117.5000000000,14,5.5461359024,,,
117.7500000000,14,5.5486979485,,,
118.0000000000,14,5.5410127640,,,
118.2500000000,14,5.5384511948,,,
118.5000000000,14,5.5320458412,,,
118.7500000000,14,5.5115518570,,,
119.0000000000,14,5.5064291954,,,
119.2500000000,14,5.5000247955,,,
119.5000000000,14,5.5000247955,,,
119.7500000000,14,5.4884967804,,,
120.0000000000,15,5.4846539497,,,
120.2500000000,15,5.4731259346,33025:33024,120.2500000000:120.4062500000,0.0000000000:0.0000000000
120.5000000000,15,5.4769687653,,,
120.7500000000,15,5.4641599655,,,
121.0000000000,15,5.4641599655,,,
121.2500000000,15,5.4615988731,,,
121.5000000000,15,5.4603180885,,,
121.7500000000,15,5.4526319504,,,
122.0000000000,15,5.4513521194,,,
122.2500000000,15,5.4436659813,,,
122.5000000000,15,5.4436659813,,,
122.7500000000,15,5.4347000122,,,
123.0000000000,15,5.4282960892,,,
123.2500000000,15,5.4257349968,,,
123.5000000000,15,5.4244542122,,,
123.7500000000,15,5.4475088120,,,
124.0000000000,15,5.5064291954,,,
124.2500000000,15,5.5896849632,,,
124.5000000000,15,5.6844701767,,,
124.7500000000,15,5.7651638985,,,
125.0000000000,15,5.8023099899,,,
125.2500000000,15,5.8125572205,,,
125.5000000000,15,5.7895011902,,,
125.7500000000,15,5.6665377617,,,
126.0000000000,15,5.6614141464,,,
126.2500000000,15,5.6678190231,,,
126.5000000000,15,5.6626949310,,,
126.7500000000,15,5.6550102234,,,
127.0000000000,15,5.6422009468,,,
127.2500000000,15,5.6229882240,,,
127.5000000000,15,5.6063370705,,,
127.7500000000,15,5.5909662247,,,
128.0000000000,16,5.5768771172,,,
128.2500000000,16,5.5653491020,,,
128.5000000000,16,5.5781579018,,,
128.7500000000,16,5.6037750244,,,
129.0000000000,16,5.6434822083,,,
129.2500000000,16,5.6870322227,,,
129.5000000000,16,5.7216148376,,,
129.7500000000,16,5.7421088219,,,
130.0000000000,16,5.7408280373,,,
130.2500000000,16,5.7241768837,,,
130.5000000000,16,5.7100868225,,,
130.7500000000,16,5.6819081306,,,
131.0000000000,16,5.6626949310,,,
131.2500000000,16,5.6434822083,,,
131.5000000000,16,5.6293931007,,,
131.7500000000,16,5.6217069626,,,
132.0000000000,16,5.6063370705,,,
132.2500000000,16,5.6024937630,,,
132.5000000000,16,5.5935277939,,,
132.7500000000,16,5.5755958557,,,
133.0000000000,16,5.5704731941,,,
133.2500000000,16,5.5679111481,,,
133.5000000000,16,5.5615057945,,,
133.7500000000,16,5.5602250099,,,
134.0000000000,16,5.5563831329,,,
134.2500000000,16,5.5589451790,,,
134.5000000000,16,5.5576639175,,,
134.7500000000,16,5.5576639175,,,
135.0000000000,16,5.5627880096,,,
135.2500000000,16,5.5704731941,,,
135.5000000000,16,5.5717539787,,,
135.7500000000,16,5.5704731941,,,
136.0000000000,17,5.5691909790,,,
136.2500000000,17,5.5627880096,,,
136.5000000000,17,5.5551018715,,,
136.7500000000,17,5.5474171638,,,
137.0000000000,17,5.5333271027,,,
137.2500000000,17,5.5269231796,,,
137.5000000000,17,5.5153951645,,,
137.7500000000,17,5.5141139030,,,
138.0000000000,17,5.5038671494,,,
138.2500000000,17,5.5013060570,,,
138.5000000000,17,5.4949011803,,,
138.7500000000,17,5.4936199188,,,
139.0000000000,17,5.4859352112,,,
139.2500000000,17,5.4910588264,,,
139.5000000000,17,5.4987440109,,,
139.7500000000,17,5.6037750244,,,
140.0000000000,17,5.6204261780,,,
140.2500000000,17,5.6293931007,,,
140.5000000000,17,5.6229882240,,,
140.7500000000,17,5.6076178551,,,
141.0000000000,17,5.5986509323,,,
141.2500000000,17,5.5807189941,,,
141.5000000000,17,5.5679111481,,,
141.7500000000,17,5.5576639175,,,
142.0000000000,17,5.5448551178,,,
142.2500000000,17,5.5448551178,,,
142.5000000000,17,5.5371699333,,,
142.7500000000,17,5.5358891487,,,
143.0000000000,17,5.5243611336,,,
143.2500000000,17,5.5218000412,,,
143.5000000000,17,5.5102720261,,,
143.7500000000,17,5.5064291954,,,
144.0000000000,18,5.5358891487,,,
144.2500000000,18,5.4923400879,,,
144.5000000000,18,5.4808120728,,,
144.7500000000,18,5.4756879807,,,
145.0000000000,18,5.4705648422,,,
145.2500000000,18,5.4603180885,,,
145.5000000000,18,5.4603180885,,,
145.7500000000,18,5.4513521194,,,
146.0000000000,18,5.4526319504,,,
146.2500000000,18,5.4449467659,,,
146.5000000000,18,5.4385428429,,,
146.7500000000,18,5.7267379761,,,
147.0000000000,18,5.7677259445,,,
147.2500000000,18,5.7792539597,,,
147.5000000000,18,5.7638840675,,,
147.7500000000,18,5.7331428528,,,
148.0000000000,18,5.6947169304,,,
148.2500000000,18,5.6626949310,,,
148.5000000000,18,5.6345157623,,,
148.7500000000,18,5.6050558090,,,
149.0000000000,18,5.5871238708,,,
149.2500000000,18,5.5679111481,,,
149.5000000000,18,5.5563831329,,,
149.7500000000,18,5.5461359024,,,
150.0000000000,18,5.5320458412,,,
150.2500000000,18,5.5256419182,,,
150.5000000000,18,5.5179572105,,,
150.7500000000,18,5.5128340721,,,
151.0000000000,18,5.5013060570,,,
151.2500000000,18,5.5000247955,,,
151.5000000000,18,5.4910588264,,,
151.7500000000,18,5.4859352112,,,
152.0000000000,19,5.4795308113,,,
152.2500000000,19,5.4744071960,,,
152.5000000000,19,5.4667220116,,,
152.7500000000,19,5.4590368271,,,
153.0000000000,19,5.4577560425,,,
153.2500000000,19,5.4487900734,,,
153.5000000000,19,5.4436659813,,,
153.7500000000,19,5.4103641510,,,
154.0000000000,19,5.4142069817,,,
154.2500000000,19,5.4039602280,,,
154.5000000000,19,5.4078021049,,,
154.7500000000,19,5.3949937820,,,
155.0000000000,19,5.3988361359,,,
155.2500000000,19,5.3847470284,,,
155.5000000000,19,5.3860268593,,,
155.7500000000,19,5.3783421516,,,
156.0000000000,19,5.3783421516,,,
156.2500000000,19,5.3680949211,,,
156.5000000000,19,5.3642530441,,,
156.7500000000,19,5.3591289520,,,
157.0000000000,19,5.3578481674,,,
157.2500000000,19,5.3527250290,,,
157.5000000000,19,5.3488821983,,,
157.7500000000,19,5.3501629829,,,
158.0000000000,19,5.3411970139,,,
158.2500000000,19,5.3386349678,,,
158.5000000000,19,5.3271069527,,,
158.7500000000,19,5.3296689987,,,
159.0000000000,19,5.3232650757,,,
159.2500000000,19,5.3181409836,,,
159.5000000000,19,5.3155798912,,,
159.7500000000,19,5.3104557991,,,
160.0000000000,20,5.3002099991,,,
160.2500000000,20,5.3014898300,,,
160.5000000000,20,5.2950859070,,,
160.7500000000,20,5.3078951836,,,
161.0000000000,20,5.4129261971,,,
161.2500000000,20,5.4231719971,,,
161.5000000000,20,5.4193301201,,,
161.7500000000,20,5.4129261971,,,
162.0000000000,20,5.3937129974,,,
162.2500000000,20,5.3911509514,,,
162.5000000000,20,5.4013981819,,,
162.7500000000,20,5.4218921661,,,
163.0000000000,20,5.4385428429,,,
163.2500000000,20,5.4462289810,,,
163.5000000000,20,5.4436659813,,,
163.7500000000,20,5.4385428429,,,
164.0000000000,20,5.4167690277,,,
164.2500000000,20,5.4001169205,,,
164.5000000000,20,5.3911509514,,,
164.7500000000,20,5.4167690277,,,
165.0000000000,20,5.4526319504,,,
165.2500000000,20,5.4936199188,,,
165.5000000000,20,5.5115518570,,,
165.7500000000,20,5.5205187798,,,
166.0000000000,20,5.5153951645,,,
166.2500000000,20,5.4949011803,,,
166.5000000000,20,5.4769687653,,,
166.7500000000,20,5.4500708580,,,
167.0000000000,20,5.4436659813,,,
167.2500000000,20,5.4282960892,,,
167.5000000000,20,5.4231719971,,,
167.7500000000,20,5.4154868126,,,
168.0000000000,21,5.3719382286,,,
168.2500000000,21,5.3591289520,,,
168.5000000000,21,5.3552870750,,,
168.7500000000,21,5.3527250290,,,
169.0000000000,21,5.3437590599,,,
169.2500000000,21,5.3399162292,,,
169.5000000000,21,5.3335118294,,,
169.7500000000,21,5.3347930908,,,
170.0000000000,21,5.3476009369,,,
170.2500000000,21,5.3924322128,,,
170.5000000000,21,5.4462289810,,,
170.7500000000,21,5.5038671494,,,
171.0000000000,21,5.5384511948,,,
171.2500000000,21,5.5435738564,,,
171.5000000000,21,5.5410127640,,,
171.7500000000,21,5.5282039642,,,
172.0000000000,21,5.4961819649,,,
172.2500000000,21,5.4769687653,,,
172.5000000000,21,5.4833741188,,,
172.7500000000,21,5.5435738564,,,
173.0000000000,21,5.6101789474,,,
173.2500000000,21,5.6908740997,,,
173.5000000000,21,5.6908740997,,,
173.7500000000,21,5.7062439919,,,
174.0000000000,21,5.7177720070,,,
174.2500000000,21,5.7216148376,,,
174.5000000000,21,5.7126488686,,,
174.7500000000,21,5.7049641609,,,
175.0000000000,21,5.9914598465,,,
175.2500000000,21,5.9760890007,,,
175.5000000000,21,5.9222931862,,,
175.7500000000,21,5.8556880951,,,
176.0000000000,22,5.7903637886,,,
176.2500000000,22,5.7429709435,,,
176.5000000000,22,5.6955800056,,,
176.7500000000,22,5.6635580063,,,
177.0000000000,22,5.6238508224,,,
177.2500000000,22,5.6020760536,,,
177.5000000000,22,5.5790209770,,,
177.7500000000,22,5.5662121773,,,
178.0000000000,22,5.5546841621,,,
178.2500000000,22,5.5431561470,,,
178.5000000000,22,5.5469989777,,,
178.7500000000,22,5.5585269928,,,
179.0000000000,22,5.5828628540,,,
179.2500000000,22,5.6046380997,,,
179.5000000000,22,5.6251320839,,,
179.7500000000,22,5.6353788376,,,
180.0000000000,22,5.7032651901,,,
180.2500000000,22,5.7954869270,,,
180.5000000000,22,5.8838667870,,,
180.7500000000,22,5.9299778938,,,
181.0000000000,22,5.9389438629,,,
181.2500000000,22,5.9133272171,,,
181.5000000000,22,5.8941140175,,,
181.7500000000,22,5.9274168015,,,
182.0000000000,22,6.0157971382,,,
182.2500000000,22,5.9607191086,,,
182.5000000000,22,5.8992381096,,,
182.7500000000,22,5.8403182030,,,
183.0000000000,22,5.7813978195,,,
183.2500000000,22,5.7416911125,,,
183.5000000000,22,5.7071070671,,,
183.7500000000,22,5.6789278984,,,
184.0000000000,23,5.6545920372,,,
184.2500000000,23,5.6405019760,,,
184.5000000000,23,5.6276931763,,,
184.7500000000,23,5.6174459457,,,
185.0000000000,23,5.6084799767,,,
185.2500000000,23,5.5931100845,,,
185.5000000000,23,5.5905480385,,,
185.7500000000,23,5.5764579773,,,
186.0000000000,23,5.5777401924,,,
186.2500000000,23,5.5713348389,,,
186.5000000000,23,5.5700550079,,,
186.7500000000,23,5.5623688698,,,
187.0000000000,23,5.5572462082,,,
187.2500000000,23,5.5495610237,,,
187.5000000000,23,5.5495610237,,,
187.7500000000,23,5.5380330086,,,
188.0000000000,23,5.5444369316,,,
188.2500000000,23,5.5418748856,,,
188.5000000000,23,5.5662121773,,,
188.7500000000,23,5.5803008080,,,
189.0000000000,23,5.6174459457,,,
189.2500000000,23,5.6481871605,,,
189.5000000000,23,5.6802091599,,,
189.7500000000,23,5.7058258057,,,
190.0000000000,23,5.7147917747,,,
190.2500000000,23,5.7083878517,,,
190.5000000000,23,5.6981410980,,,
190.7500000000,23,5.6814899445,,,
191.0000000000,23,5.6584339142,,,
191.2500000000,23,5.6430640221,,,
191.5000000000,23,5.6251320839,,,
191.7500000000,23,5.6225700378,,,
192.0000000000,24,5.6033568382,,,
192.2500000000,24,5.5995140076,,,
192.5000000000,24,5.5879859924,,,
192.7500000000,24,5.5931100845,,,
193.0000000000,24,5.5764579773,,,
193.2500000000,24,5.5790209770,,,
193.5000000000,24,5.5713348389,,,
193.7500000000,24,5.5636501312,,,
194.0000000000,24,5.5610880852,,,
194.2500000000,24,5.5508408546,,,
194.5000000000,24,5.5469989777,,,
194.7500000000,24,5.5380330086,,,
195.0000000000,24,5.5687727928,,,
195.2500000000,24,5.6084799767,,,
195.5000000000,24,5.6853318214,,,
195.7500000000,24,5.7519378662,,,
196.0000000000,24,5.8147001266,,,
196.2500000000,24,5.8006110191,,,
196.5000000000,24,5.8095769882,,,
196.7500000000,24,5.8300700188,,,
197.0000000000,24,5.8364748955,,,
197.2500000000,24,5.8377561569,,,
197.5000000000,24,5.8198242188,,,
197.7500000000,24,5.8057341576,,,
198.0000000000,24,5.7775549889,,,
198.2500000000,24,5.7609038353,,,
198.5000000000,24,5.7404098511,,,
198.7500000000,24,5.7186350822,,,
199.0000000000,24,5.7096691132,,,
199.2500000000,24,5.6968598366,,,
199.5000000000,24,5.6827712059,,,
199.7500000000,24,5.6725239754,,,
200.0000000000,25,5.6750860214,,,
200.2500000000,25,5.6571540833,,,
200.5000000000,25,5.6648387909,,,
200.7500000000,25,5.6507492065,,,
201.0000000000,25,5.6571540833,,,
201.2500000000,25,5.6507492065,,,
201.5000000000,25,5.6584339142,,,
201.7500000000,25,5.6609959602,,,
202.0000000000,25,5.6507492065,,,
202.2500000000,25,5.6545920372,,,
202.5000000000,25,5.6507492065,,,
202.7500000000,25,5.6545920372,,,
203.0000000000,25,5.6648387909,,,
203.2500000000,25,5.7045450211,,,
203.5000000000,25,5.7045450211,,,
203.7500000000,25,5.6878938675,,,
204.0000000000,25,5.6789278984,,,
204.2500000000,25,5.6738052368,,,
204.5000000000,25,5.6635580063,,,
204.7500000000,25,5.6699619293,,,
205.0000000000,25,5.6507492065,,,
205.2500000000,25,5.6481871605,,,
205.5000000000,25,5.6353788376,,,
205.7500000000,25,5.6340980530,,,
206.0000000000,25,5.6251320839,,,
206.2500000000,25,5.6187272072,,,
206.5000000000,25,5.6136040688,,,
206.7500000000,25,5.6315360069,,,
207.0000000000,25,5.6686811447,,,
207.2500000000,25,5.7391290665,,,
207.5000000000,25,5.8057341576,,,
207.7500000000,25,5.8556880951,,,
208.0000000000,26,5.8915519714,,,
208.2500000000,26,5.9158887863,,,
208.5000000000,26,5.9184498787,,,
208.7500000000,26,5.9094839096,,,
209.0000000000,26,5.8941140175,,,
209.2500000000,26,5.8787441254,,,
209.5000000000,26,5.8620920181,,,
209.7500000000,26,5.8403182030,,,
210.0000000000,26,5.8275089264,,,
210.2500000000,26,5.8006110191,,,
210.5000000000,26,5.7826790810,,,
210.7500000000,26,5.7647461891,,,
211.0000000000,26,5.7429709435,,,
211.2500000000,26,5.7327251434,,,
211.5000000000,26,5.7237591743,,,
211.7500000000,26,5.7160739899,,,
212.0000000000,26,5.7135109901,,,
212.2500000000,26,5.7007031441,,,
212.5000000000,26,5.7019839287,,,
212.7500000000,26,5.6942992210,,,
213.0000000000,26,5.6917371750,,,
213.2500000000,26,5.6853318214,,,
213.5000000000,26,5.6814899445,,,
213.7500000000,26,5.6738052368,,,
214.0000000000,26,5.6853318214,,,
214.2500000000,26,5.7071070671,,,
214.5000000000,26,5.7532191277,,,
214.7500000000,26,5.7916450500,,,
215.0000000000,26,5.8262281418,,,
215.2500000000,26,5.8351941109,,,
215.5000000000,26,5.8454408646,,,
215.7500000000,26,5.8531260490,,,
216.0000000000,27,5.8915519714,,,
216.2500000000,27,5.9069228172,,,
216.5000000000,27,5.9197320938,,,
216.7500000000,27,5.9120459557,,,
217.0000000000,27,5.8928332329,,,
217.2500000000,27,5.8710579872,,,
217.5000000000,27,5.8403182030,,,
217.7500000000,27,5.8198242188,,,
218.0000000000,27,5.7967681885,,,
218.2500000000,27,5.7929248810,,,
218.5000000000,27,5.8313508034,,,
218.7500000000,27,5.9299778938,,,
219.0000000000,27,6.0222010612,,,
219.2500000000,27,6.0900869370,,,
219.5000000000,27,6.1105809212,,,
219.7500000000,27,6.1054568291,,,
220.0000000000,27,6.0785589218,,,
220.2500000000,27,6.0324478149,,,
220.5000000000,27,5.9914598465,,,
220.7500000000,27,5.9453492165,,,
221.0000000000,27,5.9184498787,,,
221.2500000000,27,5.8864288330,,,
221.5000000000,27,5.8620920181,,,
221.7500000000,27,5.8364748955,,,
222.0000000000,27,5.8313508034,,,
222.2500000000,27,5.8134188652,,,
222.5000000000,27,5.8070149422,,,
222.7500000000,27,5.7954869270,,,
223.0000000000,27,5.7916450500,,,
223.2500000000,27,5.7813978195,,,
223.5000000000,27,5.7749929428,,,
223.7500000000,27,5.7698698044,,,
224.0000000000,28,5.7609038353,,,
224.2500000000,28,5.7583417892,,,
224.5000000000,28,5.7519378662,,,
224.7500000000,28,5.7506570816,,,
225.0000000000,28,5.7698698044,,,
225.2500000000,28,5.8275089264,,,
225.5000000000,28,5.9082040787,,,
225.7500000000,28,5.9824938774,,,
226.0000000000,28,6.0170769691,,,
226.2500000000,28,6.0222010612,,,
226.5000000000,28,6.0081110001,,,
226.7500000000,28,5.9696850777,,,
227.0000000000,28,5.9402251244,,,
227.2500000000,28,5.9017992020,,,
227.5000000000,28,5.8723387718,,,
227.7500000000,28,5.8480029106,,,
228.0000000000,28,5.8390359879,,,
228.2500000000,28,5.8172621727,,,
228.5000000000,28,5.8082962036,,,
228.7500000000,28,5.7980489731,,,
229.0000000000,28,5.7942061424,,,
229.2500000000,28,5.7788357735,,,
229.5000000000,28,5.7801170349,,,
229.7500000000,28,5.7724308968,,,
230.0000000000,28,5.7788357735,,,
230.2500000000,28,5.7775549889,,,
230.5000000000,28,5.7762742043,,,
230.7500000000,28,5.7839589119,,,
231.0000000000,28,5.8006110191,,,
231.2500000000,28,5.8377561569,,,
231.5000000000,28,5.8569688797,,,
231.7500000000,28,5.8723387718,,,
232.0000000000,29,5.8672161102,,,
232.2500000000,29,5.8646540642,,,
232.5000000000,29,5.8531260490,,,
232.7500000000,29,5.8467221260,,,
233.0000000000,29,5.8300700188,,,
233.2500000000,29,5.8313508034,,,
233.5000000000,29,5.8172621727,,,
233.7500000000,29,5.8108577728,,,
234.0000000000,29,5.7967681885,,,
234.2500000000,29,5.8082962036,,,
234.5000000000,29,5.8390359879,,,
234.7500000000,29,5.9030799866,,,
235.0000000000,29,5.9607191086,,,
235.2500000000,29,6.0004258156,,,
235.5000000000,29,6.0106730461,,,
235.7500000000,29,6.0017070770,,,
236.0000000000,29,5.9748091698,,,
236.2500000000,29,5.9389438629,,,
236.5000000000,29,5.9082040787,,,
236.7500000000,29,5.8761820793,,,
237.0000000000,29,5.8595299721,,,
237.2500000000,29,5.8364748955,,,
237.5000000000,29,5.8339128494,,,
237.7500000000,29,5.8313508034,,,
238.0000000000,29,5.8467221260,,,
238.2500000000,29,5.8492841721,,,
238.5000000000,29,5.8582501411,,,
238.7500000000,29,5.8505640030,,,
239.0000000000,29,5.8480029106,,,
239.2500000000,29,5.8287901878,,,
239.5000000000,29,5.8211050034,,,
239.7500000000,29,5.8121390343,,,
240.0000000000,30,5.7993302345,,,
240.2500000000,30,5.7929248810,,,
240.5000000000,30,5.7788357735,,,
240.7500000000,30,5.7826790810,,,
241.0000000000,30,5.7673082352,,,
241.2500000000,30,5.7647461891,,,
241.5000000000,30,5.7609038353,,,
241.7500000000,30,5.7634649277,,,
242.0000000000,30,5.7660269737,,,
242.2500000000,30,5.7762742043,,,
242.5000000000,30,5.7762742043,,,
242.7500000000,30,5.7724308968,,,
243.0000000000,30,5.7621850967,,,
243.2500000000,30,5.7596230507,,,
243.5000000000,30,5.7532191277,,,
243.7500000000,30,5.7468137741,,,
244.0000000000,30,5.7455329895,,,
244.2500000000,30,5.7378478050,,,
244.5000000000,30,5.7314438820,,,
244.7500000000,30,5.7263197899,,,
245.0000000000,30,5.7378478050,,,
245.2500000000,30,5.7480950356,,,
245.5000000000,30,5.7685890198,,,
245.7500000000,30,5.7749929428,,,
246.0000000000,30,5.7826790810,,,
246.2500000000,30,5.7775549889,,,
246.5000000000,30,5.7749929428,,,
246.7500000000,30,5.7596230507,,,
247.0000000000,30,5.7480950356,,,
247.2500000000,30,5.7352862358,,,
247.5000000000,30,5.7276010513,,,
247.7500000000,30,5.7173538208,,,
248.0000000000,31,5.7160739899,,,
248.2500000000,31,5.7032651901,,,
248.5000000000,31,5.6994218826,,,
248.7500000000,31,5.6942992210,,,
249.0000000000,31,5.6904559135,,,
249.2500000000,31,5.6904559135,,,
249.5000000000,31,5.7160739899,,,
249.7500000000,31,5.7737121582,,,
250.0000000000,31,5.8403182030,,,
250.2500000000,31,5.9017992020,,,
250.5000000000,31,5.9504718781,,,
250.7500000000,31,5.9722471237,,,
251.0000000000,31,5.9684038162,,,
251.2500000000,31,5.9530339241,,,
251.5000000000,31,5.9222931862,,,
251.7500000000,31,5.8992381096,,,
252.0000000000,31,5.8672161102,,,
252.2500000000,31,5.8531260490,,,
252.5000000000,31,5.8236660957,,,
252.7500000000,31,5.8121390343,,,
253.0000000000,31,5.7929248810,,,
253.2500000000,31,5.7865209579,,,
253.5000000000,31,5.7685890198,,,
253.7500000000,31,5.7621850967,,,
254.0000000000,31,5.7506570816,,,
254.2500000000,31,5.7429709435,,,
254.5000000000,31,5.7352862358,,,
254.7500000000,31,5.7340049744,,,
255.0000000000,31,5.7237591743,,,
255.2500000000,31,5.7250390053,,,
255.5000000000,31,5.7186350822,,,
255.7500000000,31,5.7365670204,,,
256.0000000000,32,5.7737121582,,,
256.2500000000,32,5.8326330185,,,
256.5000000000,32,5.8774628639,,,
256.7500000000,32,5.9184498787,,,
257.0000000000,32,5.9312591553,,,
257.2500000000,32,5.9299778938,,,
257.5000000000,32,5.9082040787,,,
257.7500000000,32,5.8902711868,,,
258.0000000000,32,5.8608112335,,,
258.2500000000,32,5.8351941109,,,
258.5000000000,32,5.8223848343,,,
258.7500000000,32,5.8031730652,,,
259.0000000000,32,5.7929248810,,,
259.2500000000,32,5.7801170349,,,
259.5000000000,32,5.7775549889,,,
259.7500000000,32,5.7634649277,,,
260.0000000000,32,5.7634649277,,,
260.2500000000,32,5.7570610046,,,
260.5000000000,32,5.7685890198,,,
260.7500000000,32,5.7813978195,,,
261.0000000000,32,5.8057341576,,,
261.2500000000,32,5.8223848343,,,
261.5000000000,32,5.8287901878,,,
261.7500000000,32,5.8236660957,,,
262.0000000000,32,5.8147001266,,,
262.2500000000,32,5.8006110191,,,
262.5000000000,32,5.7852401733,,,
262.7500000000,32,5.7826790810,,,
263.0000000000,32,5.7749929428,,,
263.2500000000,32,5.7711510658,,,
263.5000000000,32,5.7673082352,,,
263.7500000000,32,5.7493758202,,,
264.0000000000,33,5.7493758202,,,
264.2500000000,33,5.7391290665,,,
264.5000000000,33,5.7391290665,,,
264.7500000000,33,5.7276010513,,,
265.0000000000,33,5.7288818359,,,
265.2500000000,33,5.7122311592,,,
265.5000000000,33,5.7122311592,,,
265.7500000000,33,5.7071070671,,,
266.0000000000,33,5.7147917747,,,
266.2500000000,33,5.7058258057,,,
266.5000000000,33,5.7122311592,,,
266.7500000000,33,5.6994218826,,,
267.0000000000,33,5.7019839287,,,
267.2500000000,33,5.6904559135,,,
267.5000000000,33,5.6866140366,,,
267.7500000000,33,5.6789278984,,,
268.0000000000,33,5.6750860214,,,
268.2500000000,33,5.6635580063,,,
268.5000000000,33,5.6712431908,,,
268.7500000000,33,5.6545920372,,,
269.0000000000,33,5.6571540833,,,
269.2500000000,33,5.6443448067,,,
269.5000000000,33,5.6507492065,,,
269.7500000000,33,5.6430640221,,,
270.0000000000,33,5.6340980530,,,
270.2500000000,33,5.6328167915,,,
270.5000000000,33,5.6200079918,,,
270.7500000000,33,5.6123228073,,,
271.0000000000,33,5.6072001457,,,
271.2500000000,33,5.6110420227,,,
271.5000000000,33,5.6136040688,,,
271.7500000000,33,5.6212887764,,,
272.0000000000,34,5.6212887764,,,
272.2500000000,34,5.6276931763,,,
272.5000000000,34,5.6264119148,,,
272.7500000000,34,5.6353788376,,,
273.0000000000,34,5.6405019760,,,
273.2500000000,34,5.6545920372,,,
273.5000000000,34,5.6584339142,,,
273.7500000000,34,5.6661200523,,,
274.0000000000,34,5.6686811447,,,
274.2500000000,34,5.6917371750,,,
274.5000000000,34,5.7109498978,,,
274.7500000000,34,5.7416911125,,,
275.0000000000,34,5.7378478050,,,
275.2500000000,34,5.7340049744,,,
275.5000000000,34,5.7224769592,,,
275.7500000000,34,5.7058258057,,,
276.0000000000,34,5.6904559135,,,
276.2500000000,34,5.6686811447,,,
276.5000000000,34,5.6673998833,,,
276.7500000000,34,5.6507492065,,,
277.0000000000,34,5.6430640221,,,
277.2500000000,34,5.6289739609,,,
277.5000000000,34,5.6251320839,,,
277.7500000000,34,5.6200079918,,,
278.0000000000,34,5.6148848534,,,
278.2500000000,34,5.6007947922,,,
278.5000000000,34,5.6020760536,,,
278.7500000000,34,5.5879859924,,,
279.0000000000,34,5.5918288231,,,
279.2500000000,34,5.5815820694,,,
279.5000000000,34,5.5803008080,,,
279.7500000000,34,5.5777401924,,,
280.0000000000,35,5.5764579773,,,
280.2500000000,35,5.5777401924,,,
280.5000000000,35,5.5623688698,,,
280.7500000000,35,5.5662121773,,,
281.0000000000,35,5.5572462082,,,
281.2500000000,35,5.5521221161,,,
281.5000000000,35,5.5405950546,,,
281.7500000000,35,5.5405950546,,,
282.0000000000,35,5.5662121773,,,
282.2500000000,35,5.6212887764,,,
282.5000000000,35,5.6622772217,,,
282.7500000000,35,5.7007031441,,,
283.0000000000,35,5.7160739899,,,
283.2500000000,35,5.7199158669,,,
283.5000000000,35,5.7032651901,,,
283.7500000000,35,5.6827712059,,,
284.0000000000,35,5.6533107758,,,
284.2500000000,35,5.6392211914,,,
284.5000000000,35,5.6084799767,,,
284.7500000000,35,5.5982332230,,,
285.0000000000,35,5.5790209770,,,
285.2500000000,35,5.5713348389,,,
285.5000000000,35,5.5662121773,,,
285.7500000000,35,5.5534029007,,,
286.0000000000,35,5.5457181931,,,
286.2500000000,35,5.5367522240,,,
286.5000000000,35,5.5341901779,,,
286.7500000000,35,5.5265049934,,,
287.0000000000,35,5.5213809013,,,
287.2500000000,35,5.5149769783,,,
287.5000000000,35,5.5201010704,,,
287.7500000000,35,5.5124149323,,,
288.0000000000,36,5.5098528862,,,
288.2500000000,36,5.4996070862,,,
288.5000000000,36,5.5021681786,,,
288.7500000000,36,5.5047302246,,,
289.0000000000,36,5.5213809013,,,
289.2500000000,36,5.5674920082,,,
289.5000000000,36,5.5316281319,,,
289.7500000000,36,5.5354709625,,,
290.0000000000,36,5.5213809013,,,
290.2500000000,36,5.5188198090,,,
290.5000000000,36,5.4983258247,,,
290.7500000000,36,5.5021681786,,,
291.0000000000,36,5.4906411171,,,
291.2500000000,36,5.4829549789,,,
291.5000000000,36,5.4739890099,,,
291.7500000000,36,5.4816741943,,,
292.0000000000,36,5.4880790710,,,
292.2500000000,36,5.5098528862,,,
292.5000000000,36,5.5226621628,,,
292.7500000000,36,5.5290670395,,,
293.0000000000,36,5.5290670395,,,
293.2500000000,36,5.5316281319,,,
293.5000000000,36,5.5175390244,,,
293.7500000000,36,5.5124149323,,,
294.0000000000,36,5.4983258247,,,
294.2500000000,36,5.4867978096,,,
294.5000000000,36,5.4803929329,,,
294.7500000000,36,5.4663038254,,,
295.0000000000,36,5.4637417793,,,
295.2500000000,36,5.4547758102,,,
295.5000000000,36,5.4470911026,,,
295.7500000000,36,5.4526319504,,,
296.0000000000,37,5.4551939964,,,
296.2500000000,37,5.4628801346,,,
296.5000000000,37,5.4756879807,,,
296.7500000000,37,5.4859352112,,,
297.0000000000,37,5.4859352112,,,
297.2500000000,37,5.4808120728,,,
297.5000000000,37,5.4731259346,,,
297.7500000000,37,5.4628801346,,,
298.0000000000,37,5.4564747810,,,
298.2500000000,37,5.4411048889,,,
298.5000000000,37,5.4347000122,,,
298.7500000000,37,5.4359807968,,,
299.0000000000,37,5.4539141655,,,
299.2500000000,37,5.4961819649,,,
299.5000000000,37,5.5448551178,,,
299.7500000000,37,5.5871238708,,,
300.0000000000,37,5.6101789474,,,
300.2500000000,37,5.6191449165,,,
300.5000000000,37,5.6140217781,,,
300.7500000000,37,5.6101789474,,,
301.0000000000,37,5.6050558090,,,
301.2500000000,37,5.5999331474,,,
301.5000000000,37,5.5896849632,,,
301.7500000000,37,5.5807189941,,,
302.0000000000,37,5.5602250099,,,
302.2500000000,37,5.5474171638,,,
302.5000000000,37,5.5243611336,,,
302.7500000000,37,5.5205187798,,,
303.0000000000,37,5.5064291954,,,
303.2500000000,37,5.5038671494,,,
303.5000000000,37,5.4897780418,,,
303.7500000000,37,5.4820919037,,,
304.0000000000,38,5.4782500267,,,
304.2500000000,38,5.4680027962,,,
304.5000000000,38,5.4628801346,,,
304.7500000000,38,5.4526319504,,,
305.0000000000,38,5.4500708580,,,
305.2500000000,38,5.4462289810,,,
305.5000000000,38,5.4436659813,,,
305.7500000000,38,5.4359807968,,,
306.0000000000,38,5.4372620583,,,
306.2500000000,38,5.4398241043,,,
306.5000000000,38,5.4641599655,,,
306.7500000000,38,5.5000247955,,,
307.0000000000,38,5.5243611336,,,
307.2500000000,38,5.5320458412,,,
307.5000000000,38,5.5410127640,,,
307.7500000000,38,5.5371699333,,,
308.0000000000,38,5.5205187798,,,
308.2500000000,38,5.5000247955,,,
308.5000000000,38,5.4846539497,,,
308.7500000000,38,5.4731259346,,,
309.0000000000,38,5.4590368271,,,
309.2500000000,38,5.4500708580,,,
309.5000000000,38,5.4436659813,,,
309.7500000000,38,5.4436659813,,,
310.0000000000,38,5.4462289810,,,
310.2500000000,38,5.4590368271,,,
310.5000000000,38,5.4731259346,,,
310.7500000000,38,5.4769687653,,,
311.0000000000,38,5.4769687653,,,
311.2500000000,38,5.4731259346,,,
311.5000000000,38,5.4680027962,,,
311.7500000000,38,5.4564747810,,,
