Time:4Hz,Epoch,Channel 1,Event Id,Event Date,Event Duration
0.0000000000,0,0.2561737001,,,
0.2500000000,0,0.2561737001,,,
0.5000000000,0,0.2523309886,,,
0.7500000000,0,0.2561737001,,,
1.0000000000,0,0.2523309886,,,
1.2500000000,0,0.2536118925,,,
1.5000000000,0,0.2523309886,,,
1.7500000000,0,0.2536118925,,,
2.0000000000,0,0.2497693002,,,
2.2500000000,0,0.2523309886,,,
2.5000000000,0,0.2497693002,,,
2.7500000000,0,0.2497693002,,,
3.0000000000,0,0.2510502040,,,
3.2500000000,0,0.2484885007,,,
3.5000000000,0,0.2536118925,,,
3.7500000000,0,0.2523309886,,,
4.0000000000,0,0.2574545145,,,
4.2500000000,0,0.2561737001,,,
4.5000000000,0,0.2600162923,,,
4.7500000000,0,0.2574545145,,,
5.0000000000,0,0.2587353885,,,
5.2500000000,0,0.2753866911,,,
5.5000000000,0,0.2587353885,,,
5.7500000000,0,0.2561737001,,,
6.0000000000,0,0.2536118925,,,
6.2500000000,0,0.2574545145,,,
6.5000000000,0,0.2548927963,,,
6.7500000000,0,0.2574545145,,,
7.0000000000,0,0.2548927963,,,
7.2500000000,0,0.2561737001,,,
7.5000000000,0,0.2536118925,,,
7.7500000000,0,0.2548927963,,,
8.0000000000,1,0.2548927963,,,
8.2500000000,1,0.2561737001,,,
8.5000000000,1,0.2536118925,,,
8.7500000000,1,0.2548927963,,,
9.0000000000,1,0.2536118925,,,
9.2500000000,1,0.2561737001,,,
9.5000000000,1,0.2536118925,,,
9.7500000000,1,0.2561737001,,,
10.0000000000,1,0.2536118925,,,
10.2500000000,1,0.2561737001,,,
10.5000000000,1,0.2523309886,,,
10.7500000000,1,0.2548927963,,,
11.0000000000,1,0.2523309886,,,
11.2500000000,1,0.2523309886,,,
11.5000000000,1,0.2536118925,,,
11.7500000000,1,0.2523309886,,,
12.0000000000,1,0.2548927963,,,
12.2500000000,1,0.2536118925,,,
12.5000000000,1,0.2561737001,,,
12.7500000000,1,0.2548927963,,,
13.0000000000,1,0.2574545145,,,
13.2500000000,1,0.2548927963,,,
13.5000000000,1,0.2753866911,,,
13.7500000000,1,0.2548927963,,,
14.0000000000,1,0.2561737001,,,
14.2500000000,1,0.2548927963,,,
14.5000000000,1,0.2548927963,,,
14.7500000000,1,0.2510502040,,,
15.0000000000,1,0.2536118925,,,
15.2500000000,1,0.2510502040,,,
15.5000000000,1,0.2510502040,,,
15.7500000000,1,0.2548927963,,,
16.0000000000,2,0.2536118925,,,
16.2500000000,2,0.2561737001,,,
16.5000000000,2,0.2548927963,,,
16.7500000000,2,0.2561737001,,,
17.0000000000,2,0.2497693002,,,
17.2500000000,2,0.2561737001,,,
17.5000000000,2,0.2523309886,,,
17.7500000000,2,0.2536118925,,,
18.0000000000,2,0.2497693002,,,
18.2500000000,2,0.2497693002,,,
18.5000000000,2,0.2523309886,,,
18.7500000000,2,0.2484885007,,,
19.0000000000,2,0.2484885007,,,
19.2500000000,2,0.2472075969,,,
19.5000000000,2,0.2484885007,,,
19.7500000000,2,0.2446458042,,,
20.0000000000,2,0.2484885007,,,
20.2500000000,2,0.2446458042,,,
20.5000000000,2,0.2446458042,,,
20.7500000000,2,0.2446458042,,,
21.0000000000,2,0.2433650047,,,
21.2500000000,2,0.2446458042,,,
21.5000000000,2,0.2446458042,,,
21.7500000000,2,0.2446458042,,,
22.0000000000,2,0.2420841008,,,
22.2500000000,2,0.2446458042,,,
22.5000000000,2,0.2408031970,,,
22.7500000000,2,0.2433650047,,,
23.0000000000,2,0.2395223975,,,
23.2500000000,2,0.2433650047,,,
23.5000000000,2,0.2408031970,,,
23.7500000000,2,0.2433650047,,,
24.0000000000,3,0.2395223975,,,
24.2500000000,3,0.2395223975,,,
24.5000000000,3,0.2408031970,,,
24.7500000000,3,0.2382414937,,,
25.0000000000,3,0.2395223975,,,
25.2500000000,3,0.2356798053,,,
25.5000000000,3,0.2395223975,,,
25.7500000000,3,0.2356798053,,,
26.0000000000,3,0.2369606048,,,
26.2500000000,3,0.2356798053,,,
26.5000000000,3,0.2369606048,,,
26.7500000000,3,0.2343989015,,,
27.0000000000,3,0.2369606048,,,
27.2500000000,3,0.2343989015,,,
27.5000000000,3,0.2356798053,,,
27.7500000000,3,0.2331179976,,,
28.0000000000,3,0.2343989015,,,
28.2500000000,3,0.2331179976,,,
28.5000000000,3,0.2356798053,,,
28.7500000000,3,0.2331179976,,,
29.0000000000,3,0.2356798053,,,
29.2500000000,3,0.2318371981,,,
29.5000000000,3,0.2331179976,,,
29.7500000000,3,0.2331179976,,,
30.0000000000,3,0.2318371981,,,
30.2500000000,3,0.2343989015,,,
30.5000000000,3,0.2318371981,,,
30.7500000000,3,0.2331179976,,,
31.0000000000,3,0.2305562943,,,
31.2500000000,3,0.2331179976,,,
31.5000000000,3,0.2305562943,,,
31.7500000000,3,0.2331179976,,,
32.0000000000,4,0.2292754054,,,
32.2500000000,4,0.2318371981,,,
32.5000000000,4,0.2292754054,,,
32.7500000000,4,0.2305562943,,,
33.0000000000,4,0.2279946059,,,
33.2500000000,4,0.2292754054,,,
33.5000000000,4,0.2254327983,,,
33.7500000000,4,0.2267137021,,,
34.0000000000,4,0.2305562943,,,
34.2500000000,4,0.2279946059,,,
34.5000000000,4,0.2305562943,,,
34.7500000000,4,0.2279946059,,,
35.0000000000,4,0.2305562943,,,
35.2500000000,4,0.2279946059,,,
35.5000000000,4,0.2305562943,,,
35.7500000000,4,0.2279946059,,,
36.0000000000,4,0.2292754054,,,
36.2500000000,4,0.2215902060,,,
36.5000000000,4,0.2279946059,,,
36.7500000000,4,0.2254327983,,,
37.0000000000,4,0.2279946059,,,
37.2500000000,4,0.2254327983,,,
37.5000000000,4,0.2254327983,,,
37.7500000000,4,0.2279946059,,,
38.0000000000,4,0.2254327983,,,
38.2500000000,4,0.2267137021,,,
38.5000000000,4,0.2254327983,,,
38.7500000000,4,0.2267137021,,,
39.0000000000,4,0.2215902060,,,
39.2500000000,4,0.2267137021,,,
39.5000000000,4,0.2228710949,,,
39.7500000000,4,0.2267137021,,,
40.0000000000,5,0.2241519988,,,
40.2500000000,5,0.2267137021,,,
40.5000000000,5,0.2241519988,,,
40.7500000000,5,0.2267137021,,,
41.0000000000,5,0.2241519988,,,
41.2500000000,5,0.2267137021,,,
41.5000000000,5,0.2241519988,,,
41.7500000000,5,0.2267137021,,,
42.0000000000,5,0.2279946059,,,
42.2500000000,5,0.2228710949,,,
42.5000000000,5,0.2254327983,,,
42.7500000000,5,0.2215902060,,,
43.0000000000,5,0.2228710949,,,
43.2500000000,5,0.2203093022,,,
43.5000000000,5,0.2190285027,,,
43.7500000000,5,0.2190285027,,,
44.0000000000,5,0.2215902060,,,
44.2500000000,5,0.2177475989,,,
44.5000000000,5,0.2190285027,,,
44.7500000000,5,0.2177475989,,,
45.0000000000,5,0.2215902060,,,
45.2500000000,5,0.2164666951,,,
45.5000000000,5,0.2164666951,,,
45.7500000000,5,0.2190285027,,,
46.0000000000,5,0.2164666951,,,
46.2500000000,5,0.2190285027,,,
46.5000000000,5,0.2177475989,,,
46.7500000000,5,0.2241519988,,,
47.0000000000,5,0.2267137021,,,
47.2500000000,5,0.2331179976,,,
47.5000000000,5,0.2446458042,,,
47.7500000000,5,0.2651396990,,,
48.0000000000,6,0.2766675949,,,
48.2500000000,6,0.2869144976,,,
48.5000000000,6,0.2907570899,,,
48.7500000000,6,0.2984423041,,,
49.0000000000,6,0.3010041118,,,
49.2500000000,6,0.3022848964,,,
49.5000000000,6,0.3061274886,,,
49.7500000000,6,0.3022848964,,,
50.0000000000,6,0.2984423041,,,
50.2500000000,6,0.2945997119,,,
50.5000000000,6,0.2920379937,,,
50.7500000000,6,0.2881954014,,,
51.0000000000,6,0.2881954014,,,
51.2500000000,6,0.2843526900,,,
51.5000000000,6,0.2856335938,,,
51.7500000000,6,0.2830719054,,,
52.0000000000,6,0.2843526900,,,
52.2500000000,6,0.2817910016,,,
52.5000000000,6,0.2843526900,,,
52.7500000000,6,0.2805101871,,,
53.0000000000,6,0.2843526900,,,
53.2500000000,6,0.2817910016,,,
53.5000000000,6,0.2843526900,,,
53.7500000000,6,0.2817910016,,,
54.0000000000,6,0.2830719054,,,
54.2500000000,6,0.2805101871,,,
54.5000000000,6,0.2805101871,,,
54.7500000000,6,0.2817910016,,,
55.0000000000,6,0.2805101871,,,
55.2500000000,6,0.2817910016,,,
55.5000000000,6,0.2779484093,,,
55.7500000000,6,0.2805101871,,,
56.0000000000,7,0.2792293131,,,
56.2500000000,7,0.2792293131,,,
56.5000000000,7,0.2779484093,,,
56.7500000000,7,0.2805101871,,,
57.0000000000,7,0.2792293131,,,
57.2500000000,7,0.2805101871,,,
57.5000000000,7,0.2766675949,,,
57.7500000000,7,0.2792293131,,,
58.0000000000,7,0.2753866911,,,
58.2500000000,7,0.2741057873,,,
58.5000000000,7,0.2753866911,,,
58.7500000000,7,0.2766675949,,,
59.0000000000,7,0.2753866911,,,
59.2500000000,7,0.2753866911,,,
59.5000000000,7,0.2779484093,,,
59.7500000000,7,0.2766675949,,,
60.0000000000,7,0.2779484093,,,
60.2500000000,7,0.2945997119,,,
60.5000000000,7,0.2792293131,,,
60.7500000000,7,0.2766675949,,,
61.0000000000,7,0.2741057873,,,
61.2500000000,7,0.2741057873,,,
61.5000000000,7,0.2753866911,,,
61.7500000000,7,0.2728249133,,,
62.0000000000,7,0.2728249133,,,
62.2500000000,7,0.2715440989,,,
62.5000000000,7,0.2741057873,,,
62.7500000000,7,0.2702631950,,,
63.0000000000,7,0.2728249133,,,
63.2500000000,7,0.2689824104,,,
63.5000000000,7,0.2715440989,,,
63.7500000000,7,0.2651396990,,,
64.0000000000,8,0.2702631950,,,
64.2500000000,8,0.2677015066,,,
64.5000000000,8,0.2664206028,,,
64.7500000000,8,0.2651396990,,,
65.0000000000,8,0.2664206028,,,
65.2500000000,8,0.2689824104,,,
65.5000000000,8,0.2689824104,,,
65.7500000000,8,0.2715440989,,,
66.0000000000,8,0.2715440989,,,
66.2500000000,8,0.2728249133,,,
66.5000000000,8,0.2702631950,,,
66.7500000000,8,0.2753866911,,,
67.0000000000,8,0.2728249133,,,
67.2500000000,8,0.2728249133,,,
67.5000000000,8,0.2728249133,,,
67.7500000000,8,0.2741057873,,,
68.0000000000,8,0.2715440989,,,
68.2500000000,8,0.2728249133,,,
68.5000000000,8,0.2715440989,,,
68.7500000000,8,0.2728249133,,,
69.0000000000,8,0.2715440989,,,
69.2500000000,8,0.2728249133,,,
69.5000000000,8,0.2728249133,,,
69.7500000000,8,0.2766675949,,,
70.0000000000,8,0.2741057873,,,
70.2500000000,8,0.2766675949,,,
70.5000000000,8,0.2741057873,,,
70.7500000000,8,0.2753866911,,,
71.0000000000,8,0.2728249133,,,
71.2500000000,8,0.2741057873,,,
71.5000000000,8,0.2702631950,,,
71.7500000000,8,0.2715440989,,,
72.0000000000,9,0.2651396990,,,
72.2500000000,9,0.2689824104,,,
72.5000000000,9,0.2677015066,,,
72.7500000000,9,0.2677015066,,,
73.0000000000,9,0.2689824104,,,
73.2500000000,9,0.2664206028,,,
73.5000000000,9,0.2677015066,,,
73.7500000000,9,0.2651396990,,,
74.0000000000,9,0.2664206028,,,
74.2500000000,9,0.2651396990,,,
74.5000000000,9,0.2664206028,,,
74.7500000000,9,0.2625780106,,,
75.0000000000,9,0.2651396990,,,
75.2500000000,9,0.2638589144,,,
75.5000000000,9,0.2651396990,,,
75.7500000000,9,0.2625780106,,,
76.0000000000,9,0.2664206028,,,
76.2500000000,9,0.2638589144,,,
76.5000000000,9,0.2677015066,,,
76.7500000000,9,0.2664206028,,,
77.0000000000,9,0.2689824104,,,
77.2500000000,9,0.2664206028,,,
77.5000000000,9,0.2664206028,,,
77.7500000000,9,0.2651396990,,,
78.0000000000,9,0.2677015066,,,
78.2500000000,9,0.2651396990,,,
78.5000000000,9,0.2664206028,,,
78.7500000000,9,0.2638589144,,,
79.0000000000,9,0.2638589144,,,
79.2500000000,9,0.2664206028,,,
79.5000000000,9,0.2638589144,,,
79.7500000000,9,0.2664206028,,,
80.0000000000,10,0.2625780106,,,
80.2500000000,10,0.2612971067,,,
80.5000000000,10,0.2625780106,,,
80.7500000000,10,0.2638589144,,,
81.0000000000,10,0.2612971067,,,
81.2500000000,10,0.2625780106,,,
81.5000000000,10,0.2612971067,,,
81.7500000000,10,0.2612971067,,,
82.0000000000,10,0.2587353885,,,
82.2500000000,10,0.2612971067,,,
82.5000000000,10,0.2574545145,,,
82.7500000000,10,0.2600162923,,,
83.0000000000,10,0.2536118925,,,
83.2500000000,10,0.2587353885,,,
83.5000000000,10,0.2561737001,,,
83.7500000000,10,0.2561737001,,,
84.0000000000,10,0.2561737001,,,
84.2500000000,10,0.2561737001,,,
84.5000000000,10,0.2574545145,,,
84.7500000000,10,0.2536118925,,,
85.0000000000,10,0.2548927963,,,
85.2500000000,10,0.2536118925,,,
85.5000000000,10,0.2548927963,,,
85.7500000000,10,0.2510502040,,,
86.0000000000,10,0.2548927963,,,
86.2500000000,10,0.2523309886,,,
86.5000000000,10,0.2536118925,,,
86.7500000000,10,0.2510502040,,,
87.0000000000,10,0.2536118925,,,
87.2500000000,10,0.2497693002,,,
87.5000000000,10,0.2523309886,,,
87.7500000000,10,0.2497693002,,,
88.0000000000,11,0.2510502040,,,
88.2500000000,11,0.2484885007,,,
88.5000000000,11,0.2484885007,,,
88.7500000000,11,0.2472075969,,,
89.0000000000,11,0.2484885007,,,
89.2500000000,11,0.2472075969,,,
89.5000000000,11,0.2510502040,,,
89.7500000000,11,0.2484885007,,,
90.0000000000,11,0.2510502040,,,
90.2500000000,11,0.2484885007,,,
90.5000000000,11,0.2523309886,,,
90.7500000000,11,0.2497693002,,,
91.0000000000,11,0.2536118925,,,
91.2500000000,11,0.2472075969,,,
91.5000000000,11,0.2510502040,,,
91.7500000000,11,0.2497693002,,,
92.0000000000,11,0.2484885007,,,
92.2500000000,11,0.2459266931,,,
92.5000000000,11,0.2472075969,,,
92.7500000000,11,0.2484885007,,,
93.0000000000,11,0.2472075969,,,
93.2500000000,11,0.2484885007,,,
93.5000000000,11,0.2472075969,,,
93.7500000000,11,0.2484885007,,,
94.0000000000,11,0.2446458042,,,
94.2500000000,11,0.2484885007,,,
94.5000000000,11,0.2459266931,,,
94.7500000000,11,0.2472075969,,,
95.0000000000,11,0.2446458042,,,
95.2500000000,11,0.2459266931,,,
95.5000000000,11,0.2420841008,,,
95.7500000000,11,0.2446458042,,,
96.0000000000,12,0.2433650047,,,
96.2500000000,12,0.2446458042,,,
96.5000000000,12,0.2408031970,,,
96.7500000000,12,0.2459266931,,,
97.0000000000,12,0.2446458042,,,
97.2500000000,12,0.2510502040,,,
97.5000000000,12,0.2497693002,,,
97.7500000000,12,0.2536118925,,,
98.0000000000,12,0.2497693002,,,
98.2500000000,12,0.2523309886,,,
98.5000000000,12,0.2497693002,,,
98.7500000000,12,0.2510502040,,,
99.0000000000,12,0.2472075969,,,
99.2500000000,12,0.2459266931,,,
99.5000000000,12,0.2446458042,,,
99.7500000000,12,0.2433650047,,,
100.0000000000,12,0.2459266931,,,
100.2500000000,12,0.2433650047,,,
100.5000000000,12,0.2459266931,,,
100.7500000000,12,0.2433650047,,,
101.0000000000,12,0.2446458042,,,
101.2500000000,12,0.2420841008,,,
101.5000000000,12,0.2459266931,,,
101.7500000000,12,0.2420841008,,,
102.0000000000,12,0.2433650047,,,
102.2500000000,12,0.2395223975,,,
102.5000000000,12,0.2433650047,,,
102.7500000000,12,0.2395223975,,,
103.0000000000,12,0.2420841008,,,
103.2500000000,12,0.2395223975,,,
103.5000000000,12,0.2408031970,,,
103.7500000000,12,0.2382414937,,,
104.0000000000,13,0.2420841008,,,
104.2500000000,13,0.2574545145,,,
104.5000000000,13,0.2395223975,,,
104.7500000000,13,0.2382414937,,,
105.0000000000,13,0.2382414937,,,
105.2500000000,13,0.2433650047,,,
105.5000000000,13,0.2446458042,,,
105.7500000000,13,0.2510502040,,,
106.0000000000,13,0.2497693002,,,
106.2500000000,13,0.2536118925,,,
106.5000000000,13,0.2536118925,,,
106.7500000000,13,0.2561737001,,,
107.0000000000,13,0.2523309886,,,
107.2500000000,13,0.2523309886,,,
107.5000000000,13,0.2510502040,,,
107.7500000000,13,0.2510502040,,,
108.0000000000,13,0.2510502040,,,
108.2500000000,13,0.2600162923,,,
108.5000000000,13,0.2689824104,,,
108.7500000000,13,0.2792293131,,,
109.0000000000,13,0.2805101871,,,
109.2500000000,13,0.2817910016,,,
109.5000000000,13,0.2792293131,,,
109.7500000000,13,0.2779484093,,,
110.0000000000,13,0.2805101871,,,
110.2500000000,13,0.2805101871,,,
110.5000000000,13,0.2805101871,,,
110.7500000000,13,0.2805101871,,,
111.0000000000,13,0.2830719054,,,
111.2500000000,13,0.2779484093,,,
111.5000000000,13,0.2805101871,,,
111.7500000000,13,0.2779484093,,,
112.0000000000,14,0.2817910016,,,
112.2500000000,14,0.2792293131,33025,112.4687500000,0.0000000000
112.5000000000,14,0.2817910016,33024,112.6562500000,0.0000000000
112.7500000000,14,0.2792293131,33025,112.9062500000,0.0000000000
113.0000000000,14,0.2805101871,33024:33025,113.0312500000:113.1250000000,0.0000000000:0.0000000000
113.2500000000,14,0.2766675949,33024,113.2500000000,0.0000000000
113.5000000000,14,0.2805101871,,,
113.7500000000,14,0.2779484093,,,
114.0000000000,14,0.2805101871,,,
114.2500000000,14,0.2779484093,,,
114.5000000000,14,0.2792293131,,,
114.7500000000,14,0.2792293131,,,
115.0000000000,14,0.2779484093,,,
115.2500000000,14,0.2792293131,,,
115.5000000000,14,0.2766675949,,,
115.7500000000,14,0.2792293131,,,
116.0000000000,14,0.2753866911,,,
116.2500000000,14,0.2792293131,,,
116.5000000000,14,0.2766675949,,,
116.7500000000,14,0.2766675949,,,
117.0000000000,14,0.2753866911,,,
117.2500000000,14,0.2779484093,,,
117.5000000000,14,0.2753866911,,,
117.7500000000,14,0.2779484093,,,
118.0000000000,14,0.2766675949,,,
118.2500000000,14,0.2779484093,,,
118.5000000000,14,0.2741057873,,,
118.7500000000,14,0.2753866911,,,
119.0000000000,14,0.2741057873,,,
119.2500000000,14,0.2741057873,,,
119.5000000000,14,0.2766675949,,,
119.7500000000,14,0.2741057873,,,
120.0000000000,15,0.2753866911,,,
120.2500000000,15,0.2728249133,,,
120.5000000000,15,0.2728249133,,,
120.7500000000,15,0.2715440989,,,
121.0000000000,15,0.2728249133,,,
121.2500000000,15,0.2702631950,,,
121.5000000000,15,0.2715440989,,,
121.7500000000,15,0.2702631950,,,
122.0000000000,15,0.2728249133,,,
122.2500000000,15,0.2702631950,,,
122.5000000000,15,0.2715440989,,,
122.7500000000,15,0.2689824104,,,
123.0000000000,15,0.2689824104,,,
123.2500000000,15,0.2702631950,,,
123.5000000000,15,0.2677015066,,,
123.7500000000,15,0.2702631950,,,
124.0000000000,15,0.2677015066,,,
124.2500000000,15,0.2677015066,,,
124.5000000000,15,0.2664206028,,,
124.7500000000,15,0.2677015066,,,
125.0000000000,15,0.2651396990,33025,125.2187500000,0.0000000000
125.2500000000,15,0.2664206028,33024:33025,125.2812500000:125.4062500000,0.0000000000:0.0000000000
125.5000000000,15,0.2651396990,33024,125.5625000000,0.0000000000
125.7500000000,15,0.2664206028,,,
126.0000000000,15,0.2638589144,,,
126.2500000000,15,0.2664206028,,,
126.5000000000,15,0.2638589144,,,
126.7500000000,15,0.2664206028,,,
127.0000000000,15,0.2600162923,,,
127.2500000000,15,0.2664206028,,,
127.5000000000,15,0.2638589144,,,
127.7500000000,15,0.2651396990,,,
128.0000000000,16,0.2664206028,,,
128.2500000000,16,0.2625780106,,,
128.5000000000,16,0.2651396990,,,
128.7500000000,16,0.2625780106,,,
129.0000000000,16,0.2638589144,,,
129.2500000000,16,0.2638589144,,,
129.5000000000,16,0.2625780106,,,
129.7500000000,16,0.2587353885,,,
130.0000000000,16,0.2625780106,,,
130.2500000000,16,0.2574545145,,,
130.5000000000,16,0.2612971067,,,
130.7500000000,16,0.2587353885,,,
131.0000000000,16,0.2612971067,,,
131.2500000000,16,0.2587353885,,,
131.5000000000,16,0.2587353885,,,
131.7500000000,16,0.2587353885,,,
132.0000000000,16,0.2574545145,,,
132.2500000000,16,0.2587353885,,,
132.5000000000,16,0.2548927963,,,
132.7500000000,16,0.2574545145,,,
133.0000000000,16,0.2561737001,,,
133.2500000000,16,0.2561737001,,,
133.5000000000,16,0.2548927963,,,
133.7500000000,16,0.2574545145,,,
134.0000000000,16,0.2548927963,,,
134.2500000000,16,0.2574545145,,,
134.5000000000,16,0.2548927963,,,
134.7500000000,16,0.2561737001,,,
135.0000000000,16,0.2536118925,,,
135.2500000000,16,0.2548927963,,,
135.5000000000,16,0.2523309886,,,
135.7500000000,16,0.2523309886,,,
136.0000000000,17,0.2536118925,,,
136.2500000000,17,0.2523309886,,,
136.5000000000,17,0.2536118925,,,
136.7500000000,17,0.2510502040,,,
137.0000000000,17,0.2536118925,,,
137.2500000000,17,0.2510502040,,,
137.5000000000,17,0.2523309886,,,
137.7500000000,17,0.2497693002,,,
138.0000000000,17,0.2497693002,,,
138.2500000000,17,0.2484885007,,,
138.5000000000,17,0.2510502040,,,
138.7500000000,17,0.2472075969,,,
139.0000000000,17,0.2497693002,,,
139.2500000000,17,0.2472075969,,,
139.5000000000,17,0.2484885007,,,
139.7500000000,17,0.2459266931,,,
140.0000000000,17,0.2459266931,,,
140.2500000000,17,0.2472075969,,,
140.5000000000,17,0.2446458042,,,
140.7500000000,17,0.2446458042,,,
141.0000000000,17,0.2433650047,,,
141.2500000000,17,0.2459266931,,,
141.5000000000,17,0.2433650047,,,
141.7500000000,17,0.2446458042,,,
142.0000000000,17,0.2420841008,,,
142.2500000000,17,0.2433650047,,,
142.5000000000,17,0.2408031970,,,
142.7500000000,17,0.2446458042,,,
143.0000000000,17,0.2408031970,,,
143.2500000000,17,0.2433650047,,,
143.5000000000,17,0.2356798053,,,
143.7500000000,17,0.2420841008,,,
144.0000000000,18,0.2395223975,,,
144.2500000000,18,0.2408031970,,,
144.5000000000,18,0.2369606048,,,
144.7500000000,18,0.2382414937,,,
145.0000000000,18,0.2395223975,,,
145.2500000000,18,0.2369606048,,,
145.5000000000,18,0.2574545145,,,
145.7500000000,18,0.2369606048,,,
146.0000000000,18,0.2395223975,,,
146.2500000000,18,0.2343989015,,,
146.5000000000,18,0.2369606048,,,
146.7500000000,18,0.2356798053,,,
147.0000000000,18,0.2356798053,,,
147.2500000000,18,0.2331179976,,,
147.5000000000,18,0.2331179976,,,
147.7500000000,18,0.2331179976,,,
148.0000000000,18,0.2343989015,,,
148.2500000000,18,0.2318371981,,,
148.5000000000,18,0.2356798053,,,
148.7500000000,18,0.2318371981,,,
149.0000000000,18,0.2318371981,,,
149.2500000000,18,0.2318371981,,,
149.5000000000,18,0.2343989015,,,
149.7500000000,18,0.2305562943,,,
150.0000000000,18,0.2331179976,,,
150.2500000000,18,0.2292754054,,,
150.5000000000,18,0.2292754054,,,
150.7500000000,18,0.2292754054,,,
151.0000000000,18,0.2279946059,,,
151.2500000000,18,0.2292754054,,,
151.5000000000,18,0.2279946059,,,
151.7500000000,18,0.2279946059,,,
152.0000000000,19,0.2267137021,,,
152.2500000000,19,0.2292754054,,,
152.5000000000,19,0.2267137021,,,
152.7500000000,19,0.2292754054,,,
153.0000000000,19,0.2267137021,,,
153.2500000000,19,0.2305562943,,,
153.5000000000,19,0.2267137021,,,
153.7500000000,19,0.2292754054,,,
154.0000000000,19,0.2267137021,,,
154.2500000000,19,0.2254327983,,,
154.5000000000,19,0.2254327983,,,
154.7500000000,19,0.2241519988,,,
155.0000000000,19,0.2279946059,,,
155.2500000000,19,0.2241519988,,,
155.5000000000,19,0.2254327983,,,
155.7500000000,19,0.2241519988,,,
156.0000000000,19,0.2254327983,,,
156.2500000000,19,0.2228710949,,,
156.5000000000,19,0.2241519988,,,
156.7500000000,19,0.2215902060,,,
157.0000000000,19,0.2241519988,,,
157.2500000000,19,0.2190285027,,,
157.5000000000,19,0.2228710949,,,
157.7500000000,19,0.2190285027,,,
158.0000000000,19,0.2215902060,,,
158.2500000000,19,0.2190285027,,,
158.5000000000,19,0.2190285027,,,
158.7500000000,19,0.2215902060,,,
159.0000000000,19,0.2190285027,,,
159.2500000000,19,0.2228710949,,,
159.5000000000,19,0.2203093022,,,
159.7500000000,19,0.2215902060,,,
160.0000000000,20,0.2164666951,,,
160.2500000000,20,0.2190285027,,,
160.5000000000,20,0.2164666951,,,
160.7500000000,20,0.2190285027,,,
161.0000000000,20,0.2164666951,,,
161.2500000000,20,0.2190285027,,,
161.5000000000,20,0.2164666951,,,
161.7500000000,20,0.2190285027,,,
162.0000000000,20,0.2164666951,,,
162.2500000000,20,0.2190285027,,,
162.5000000000,20,0.2151858956,,,
162.7500000000,20,0.2151858956,,,
163.0000000000,20,0.2151858956,,,
163.2500000000,20,0.2151858956,,,
163.5000000000,20,0.2164666951,,,
163.7500000000,20,0.2139050066,,,
164.0000000000,20,0.2164666951,,,
164.2500000000,20,0.2126241028,,,
164.5000000000,20,0.2164666951,,,
164.7500000000,20,0.2139050066,,,
165.0000000000,20,0.2151858956,,,
165.2500000000,20,0.2126241028,,,
165.5000000000,20,0.2139050066,,,
165.7500000000,20,0.2113433033,,,
166.0000000000,20,0.2151858956,,,
166.2500000000,20,0.2100623995,,,
166.5000000000,20,0.2139050066,,,
166.7500000000,20,0.2100623995,,,
167.0000000000,20,0.2126241028,,,
167.2500000000,20,0.2087814957,,,
167.5000000000,20,0.2100623995,,,
167.7500000000,20,0.2113433033,,,
168.0000000000,21,0.2100623995,,,
168.2500000000,21,0.2087814957,,,
168.5000000000,21,0.2087814957,,,
168.7500000000,21,0.2113433033,,,
169.0000000000,21,0.2087814957,,,
169.2500000000,21,0.2113433033,,,
169.5000000000,21,0.2075006962,,,
169.7500000000,21,0.2087814957,,,
170.0000000000,21,0.2075006962,,,
170.2500000000,21,0.2100623995,,,
170.5000000000,21,0.2062198073,,,
170.7500000000,21,0.2062198073,,,
171.0000000000,21,0.2049389035,,,
171.2500000000,21,0.2062198073,,,
171.5000000000,21,0.2087814957,,,
171.7500000000,21,0.2049389035,,,
172.0000000000,21,0.2075006962,,,
172.2500000000,21,0.2049389035,,,
172.5000000000,21,0.2075006962,,,
172.7500000000,21,0.2049389035,,,
173.0000000000,21,0.2062198073,,,
173.2500000000,21,0.2036581039,,,
173.5000000000,21,0.2062198073,,,
173.7500000000,21,0.2036581039,,,
174.0000000000,21,0.2075006962,,,
174.2500000000,21,0.2036581039,,,
174.5000000000,21,0.2062198073,,,
174.7500000000,21,0.2023772001,,,
175.0000000000,21,0.2062198073,,,
175.2500000000,21,0.2023772001,,,
175.5000000000,21,0.2036581039,,,
175.7500000000,21,0.2023772001,,,
176.0000000000,22,0.2023772001,,,
176.2500000000,22,0.2023772001,,,
176.5000000000,22,0.1985345930,,,
176.7500000000,22,0.2036581039,,,
177.0000000000,22,0.1985345930,,,
177.2500000000,22,0.2010962963,,,
177.5000000000,22,0.1985345930,,,
177.7500000000,22,0.2010962963,,,
178.0000000000,22,0.1985345930,,,
178.2500000000,22,0.2010962963,,,
178.5000000000,22,0.1985345930,,,
178.7500000000,22,0.2010962963,,,
179.0000000000,22,0.1985345930,,,
179.2500000000,22,0.1985345930,,,
179.5000000000,22,0.1985345930,,,
179.7500000000,22,0.2010962963,,,
180.0000000000,22,0.1972537041,,,
180.2500000000,22,0.1985345930,,,
180.5000000000,22,0.2010962963,,,
180.7500000000,22,0.1972537041,,,
181.0000000000,22,0.2010962963,,,
181.2500000000,22,0.2177475989,,,
181.5000000000,22,0.1998154968,,,
181.7500000000,22,0.1985345930,,,
182.0000000000,22,0.1959728003,,,
182.2500000000,22,0.1972537041,,,
182.5000000000,22,0.1985345930,,,
182.7500000000,22,0.1959728003,,,
183.0000000000,22,0.1985345930,,,
183.2500000000,22,0.1946920007,,,
183.5000000000,22,0.1985345930,,,
183.7500000000,22,0.1946920007,,,
184.0000000000,23,0.1959728003,,,
184.2500000000,23,0.1946920007,,,
184.5000000000,23,0.1972537041,,,
184.7500000000,23,0.1908493936,,,
185.0000000000,23,0.1959728003,,,
185.2500000000,23,0.1934110969,,,
185.5000000000,23,0.1959728003,,,
185.7500000000,23,0.1921301931,,,
186.0000000000,23,0.1946920007,,,
186.2500000000,23,0.1921301931,,,
186.5000000000,23,0.1946920007,,,
186.7500000000,23,0.1921301931,,,
187.0000000000,23,0.1921301931,,,
187.2500000000,23,0.1934110969,,,
187.5000000000,23,0.1870068014,,,
187.7500000000,23,0.1921301931,,,
188.0000000000,23,0.1908493936,,,
188.2500000000,23,0.1921301931,,,
188.5000000000,23,0.1895685047,,,
188.7500000000,23,0.1908493936,,,
189.0000000000,23,0.1908493936,,,
189.2500000000,23,0.1934110969,,,
189.5000000000,23,0.1908493936,,,
189.7500000000,23,0.1934110969,,,
190.0000000000,23,0.1895685047,,,
190.2500000000,23,0.1908493936,,,
190.5000000000,23,0.1895685047,,,
190.7500000000,23,0.1934110969,,,
191.0000000000,23,0.1895685047,,,
191.2500000000,23,0.1908493936,,,
191.5000000000,23,0.1882876009,,,
191.7500000000,23,0.1895685047,,,
192.0000000000,24,0.1921301931,,,
192.2500000000,24,0.1895685047,,,
192.5000000000,24,0.1908493936,,,
192.7500000000,24,0.1895685047,,,
193.0000000000,24,0.1895685047,,,
193.2500000000,24,0.1908493936,,,
193.5000000000,24,0.1921301931,,,
193.7500000000,24,0.1882876009,,,
194.0000000000,24,0.1921301931,,,
194.2500000000,24,0.1882876009,,,
194.5000000000,24,0.1895685047,,,
194.7500000000,24,0.1870068014,,,
195.0000000000,24,0.1908493936,,,
195.2500000000,24,0.1870068014,,,
195.5000000000,24,0.1882876009,,,
195.7500000000,24,0.1895685047,,,
196.0000000000,24,0.1882876009,,,
196.2500000000,24,0.1895685047,,,
196.5000000000,24,0.1870068014,,,
196.7500000000,24,0.1908493936,,,
197.0000000000,24,0.1870068014,,,
197.2500000000,24,0.1895685047,,,
197.5000000000,24,0.1870068014,,,
197.7500000000,24,0.1882876009,,,
198.0000000000,24,0.1857258976,,,
198.2500000000,24,0.1857258976,,,
198.5000000000,24,0.1857258976,,,
198.7500000000,24,0.1857258976,,,
199.0000000000,24,0.1882876009,,,
199.2500000000,24,0.1857258976,,,
199.5000000000,24,0.1882876009,,,
199.7500000000,24,0.1844449937,,,
200.0000000000,25,0.1870068014,,,
200.2500000000,25,0.1844449937,,,
200.5000000000,25,0.1857258976,,,
200.7500000000,25,0.1844449937,,,
201.0000000000,25,0.1870068014,,,
201.2500000000,25,0.1818833053,,,
201.5000000000,25,0.1831641942,,,
201.7500000000,25,0.1831641942,,,
202.0000000000,25,0.1831641942,,,
202.2500000000,25,0.1844449937,,,
202.5000000000,25,0.1818833053,,,
202.7500000000,25,0.1844449937,,,
203.0000000000,25,0.1818833053,,,
203.2500000000,25,0.1844449937,,,
203.5000000000,25,0.1818833053,,,
203.7500000000,25,0.1831641942,,,
204.0000000000,25,0.1806024015,,,
204.2500000000,25,0.1844449937,,,
204.5000000000,25,0.1818833053,,,
204.7500000000,25,0.1831641942,,,
205.0000000000,25,0.1806024015,,,
205.2500000000,25,0.1831641942,,,
205.5000000000,25,0.1818833053,,,
205.7500000000,25,0.1831641942,,,
206.0000000000,25,0.1806024015,,,
206.2500000000,25,0.1806024015,,,
206.5000000000,25,0.1844449937,,,
206.7500000000,25,0.1793216020,,,
207.0000000000,25,0.1818833053,,,
207.2500000000,25,0.1806024015,,,
207.5000000000,25,0.1831641942,,,
207.7500000000,25,0.1793216020,,,
208.0000000000,26,0.1818833053,,,
208.2500000000,26,0.1793216020,,,
208.5000000000,26,0.1806024015,,,
208.7500000000,26,0.1780406982,,,
209.0000000000,26,0.1818833053,,,
209.2500000000,26,0.1818833053,,,
209.5000000000,26,0.1754789948,,,
209.7500000000,26,0.1818833053,,,
210.0000000000,26,0.1780406982,,,
210.2500000000,26,0.1806024015,,,
210.5000000000,26,0.1780406982,,,
210.7500000000,26,0.1806024015,,,
211.0000000000,26,0.1780406982,,,
211.2500000000,26,0.1806024015,,,
211.5000000000,26,0.1780406982,,,
211.7500000000,26,0.1806024015,,,
212.0000000000,26,0.1780406982,,,
212.2500000000,26,0.1793216020,,,
212.5000000000,26,0.1767597944,,,
212.7500000000,26,0.1806024015,,,
213.0000000000,26,0.1767597944,,,
213.2500000000,26,0.1780406982,,,
213.5000000000,26,0.1806024015,,,
213.7500000000,26,0.1793216020,,,
214.0000000000,26,0.1818833053,,,
214.2500000000,26,0.1793216020,,,
214.5000000000,26,0.1831641942,,,
214.7500000000,26,0.1806024015,,,
215.0000000000,26,0.1806024015,,,
215.2500000000,26,0.1806024015,,,
215.5000000000,26,0.1831641942,,,
215.7500000000,26,0.1806024015,,,
216.0000000000,27,0.1831641942,,,
216.2500000000,27,0.1793216020,,,
216.5000000000,27,0.1831641942,,,
216.7500000000,27,0.1806024015,,,
217.0000000000,27,0.1818833053,,,
217.2500000000,27,0.1793216020,,,
217.5000000000,27,0.1806024015,,,
217.7500000000,27,0.1780406982,,,
218.0000000000,27,0.1793216020,,,
218.2500000000,27,0.1818833053,,,
218.5000000000,27,0.1780406982,,,
218.7500000000,27,0.1806024015,,,
219.0000000000,27,0.1780406982,,,
219.2500000000,27,0.1806024015,,,
219.5000000000,27,0.1780406982,,,
219.7500000000,27,0.1806024015,,,
220.0000000000,27,0.1793216020,,,
220.2500000000,27,0.1806024015,,,
220.5000000000,27,0.1767597944,,,
220.7500000000,27,0.1806024015,,,
221.0000000000,27,0.1741981059,,,
221.2500000000,27,0.1793216020,,,
221.5000000000,27,0.1767597944,,,
221.7500000000,27,0.1780406982,,,
222.0000000000,27,0.1767597944,,,
222.2500000000,27,0.1767597944,,,
222.5000000000,27,0.1793216020,,,
222.7500000000,27,0.1767597944,,,
223.0000000000,27,0.1806024015,,,
223.2500000000,27,0.1754789948,,,
223.5000000000,27,0.1767597944,,,
223.7500000000,27,0.1754789948,,,
224.0000000000,28,0.1767597944,,,
224.2500000000,28,0.1754789948,,,
224.5000000000,28,0.1780406982,,,
224.7500000000,28,0.1767597944,,,
225.0000000000,28,0.1780406982,,,
225.2500000000,28,0.1959728003,,,
225.5000000000,28,0.1780406982,,,
225.7500000000,28,0.1754789948,,,
226.0000000000,28,0.1754789948,,,
226.2500000000,28,0.1780406982,,,
226.5000000000,28,0.1754789948,,,
226.7500000000,28,0.1767597944,,,
227.0000000000,28,0.1741981059,,,
227.2500000000,28,0.1754789948,,,
227.5000000000,28,0.1729172021,,,
227.7500000000,28,0.1754789948,,,
228.0000000000,28,0.1741981059,,,
228.2500000000,28,0.1767597944,,,
228.5000000000,28,0.1729172021,,,
228.7500000000,28,0.1741981059,,,
229.0000000000,28,0.1729172021,,,
229.2500000000,28,0.1754789948,,,
229.5000000000,28,0.1729172021,,,
229.7500000000,28,0.1729172021,,,
230.0000000000,28,0.1754789948,,,
230.2500000000,28,0.1716364026,,,
230.5000000000,28,0.1741981059,,,
230.7500000000,28,0.1716364026,,,
231.0000000000,28,0.1741981059,,,
231.2500000000,28,0.1716364026,,,
231.5000000000,28,0.1729172021,,,
231.7500000000,28,0.1716364026,,,
232.0000000000,29,0.1716364026,,,
232.2500000000,29,0.1716364026,,,
232.5000000000,29,0.1703554988,,,
232.7500000000,29,0.1716364026,,,
233.0000000000,29,0.1703554988,,,
233.2500000000,29,0.1741981059,,,
233.5000000000,29,0.1716364026,,,
233.7500000000,29,0.1741981059,,,
234.0000000000,29,0.1703554988,,,
234.2500000000,29,0.1716364026,,,
234.5000000000,29,0.1703554988,,,
234.7500000000,29,0.1729172021,,,
235.0000000000,29,0.1716364026,,,
235.2500000000,29,0.1703554988,,,
235.5000000000,29,0.1729172021,,,
235.7500000000,29,0.1703554988,,,
236.0000000000,29,0.1716364026,,,
236.2500000000,29,0.1690745950,,,
236.5000000000,29,0.1690745950,,,
236.7500000000,29,0.1690745950,,,
237.0000000000,29,0.1665129066,,,
237.2500000000,29,0.1677937955,,,
237.5000000000,29,0.1677937955,,,
237.7500000000,29,0.1677937955,,,
238.0000000000,29,0.1716364026,,,
238.2500000000,29,0.1677937955,,,
238.5000000000,29,0.1703554988,,,
238.7500000000,29,0.1690745950,,,
239.0000000000,29,0.1677937955,,,
239.2500000000,29,0.1703554988,,,
239.5000000000,29,0.1677937955,,,
239.7500000000,29,0.1677937955,,,
240.0000000000,30,0.1677937955,,,
240.2500000000,30,0.1703554988,,,
240.5000000000,30,0.1677937955,,,
240.7500000000,30,0.1703554988,,,
241.0000000000,30,0.1677937955,,,
241.2500000000,30,0.1703554988,,,
241.5000000000,30,0.1665129066,,,
241.7500000000,30,0.1703554988,,,
242.0000000000,30,0.1677937955,,,
242.2500000000,30,0.1665129066,,,
242.5000000000,30,0.1665129066,,,
242.7500000000,30,0.1665129066,,,
243.0000000000,30,0.1690745950,,,
243.2500000000,30,0.1665129066,,,
243.5000000000,30,0.1690745950,,,
243.7500000000,30,0.1652320027,,,
244.0000000000,30,0.1690745950,,,
244.2500000000,30,0.1652320027,,,
244.5000000000,30,0.1690745950,,,
244.7500000000,30,0.1652320027,,,
245.0000000000,30,0.1665129066,,,
245.2500000000,30,0.1626702994,,,
245.5000000000,30,0.1652320027,,,
245.7500000000,30,0.1690745950,,,
246.0000000000,30,0.1652320027,,,
246.2500000000,30,0.1677937955,,,
246.5000000000,30,0.1652320027,,,
246.7500000000,30,0.1652320027,,,
247.0000000000,30,0.1639510989,,,
247.2500000000,30,0.1677937955,,,
247.5000000000,30,0.1652320027,,,
247.7500000000,30,0.1665129066,,,
248.0000000000,31,0.1613893956,,,
248.2500000000,31,0.1665129066,,,
248.5000000000,31,0.1639510989,,,
248.7500000000,31,0.1665129066,,,
249.0000000000,31,0.1626702994,,,
249.2500000000,31,0.1626702994,,,
249.5000000000,31,0.1626702994,,,
249.7500000000,31,0.1639510989,,,
250.0000000000,31,0.1665129066,,,
250.2500000000,31,0.1639510989,,,
250.5000000000,31,0.1652320027,,,
250.7500000000,31,0.1588277072,,,
251.0000000000,31,0.1652320027,,,
251.2500000000,31,0.1626702994,,,
251.5000000000,31,0.1652320027,,,
251.7500000000,31,0.1613893956,,,
252.0000000000,31,0.1639510989,,,
252.2500000000,31,0.1613893956,,,
252.5000000000,31,0.1652320027,,,
252.7500000000,31,0.1613893956,,,
253.0000000000,31,0.1639510989,,,
253.2500000000,31,0.1613893956,,,
253.5000000000,31,0.1613893956,,,
253.7500000000,31,0.1613893956,,,
254.0000000000,31,0.1601085067,,,
254.2500000000,31,0.1639510989,,,
254.5000000000,31,0.1613893956,,,
254.7500000000,31,0.1639510989,,,
255.0000000000,31,0.1601085067,,,
255.2500000000,31,0.1626702994,,,
255.5000000000,31,0.1613893956,,,
255.7500000000,31,0.1639510989,,,
256.0000000000,32,0.1613893956,,,
256.2500000000,32,0.1626702994,,,
256.5000000000,32,0.1613893956,,,
256.7500000000,32,0.1626702994,,,
257.0000000000,32,0.1601085067,,,
257.2500000000,32,0.1639510989,,,
257.5000000000,32,0.1601085067,,,
257.7500000000,32,0.1601085067,,,
258.0000000000,32,0.1639510989,,,
258.2500000000,32,0.1601085067,,,
258.5000000000,32,0.1626702994,,,
258.7500000000,32,0.1588277072,,,
259.0000000000,32,0.1601085067,,,
259.2500000000,32,0.1588277072,,,
259.5000000000,32,0.1613893956,,,
259.7500000000,32,0.1588277072,,,
260.0000000000,32,0.1626702994,,,
260.2500000000,32,0.1601085067,,,
260.5000000000,32,0.1639510989,,,
260.7500000000,32,0.1601085067,,,
261.0000000000,32,0.1626702994,,,
261.2500000000,32,0.1588277072,,,
261.5000000000,32,0.1601085067,,,
261.7500000000,32,0.1601085067,,,
262.0000000000,32,0.1588277072,,,
262.2500000000,32,0.1626702994,,,
262.5000000000,32,0.1588277072,,,
262.7500000000,32,0.1613893956,,,
263.0000000000,32,0.1588277072,,,
263.2500000000,32,0.1613893956,,,
263.5000000000,32,0.1588277072,,,
263.7500000000,32,0.1613893956,,,
264.0000000000,33,0.1588277072,,,
264.2500000000,33,0.1601085067,,,
264.5000000000,33,0.1562658995,,,
264.7500000000,33,0.1588277072,,,
265.0000000000,33,0.1613893956,,,
265.2500000000,33,0.1575468034,,,
265.5000000000,33,0.1601085067,,,
265.7500000000,33,0.1575468034,,,
266.0000000000,33,0.1601085067,,,
266.2500000000,33,0.1575468034,,,
266.5000000000,33,0.1613893956,,,
266.7500000000,33,0.1601085067,,,
267.0000000000,33,0.1639510989,,,
267.2500000000,33,0.1613893956,,,
267.5000000000,33,0.1665129066,,,
267.7500000000,33,0.1652320027,,,
268.0000000000,33,0.1677937955,,,
268.2500000000,33,0.1652320027,,,
268.5000000000,33,0.1652320027,,,
268.7500000000,33,0.1677937955,,,
269.0000000000,33,0.1639510989,,,
269.2500000000,33,0.1652320027,,,
269.5000000000,33,0.1626702994,,,
269.7500000000,33,0.1613893956,,,
270.0000000000,33,0.1588277072,,,
270.2500000000,33,0.1639510989,,,
270.5000000000,33,0.1613893956,,,
270.7500000000,33,0.1626702994,,,
271.0000000000,33,0.1601085067,,,
271.2500000000,33,0.1639510989,,,
271.5000000000,33,0.1601085067,,,
271.7500000000,33,0.1601085067,,,
272.0000000000,34,0.1639510989,,,
272.2500000000,34,0.1601085067,,,
272.5000000000,34,0.1639510989,,,
272.7500000000,34,0.1601085067,,,
273.0000000000,34,0.1639510989,,,
273.2500000000,34,0.1626702994,,,
273.5000000000,34,0.1665129066,,,
273.7500000000,34,0.1626702994,,,
274.0000000000,34,0.1665129066,,,
274.2500000000,34,0.1626702994,,,
274.5000000000,34,0.1652320027,,,
274.7500000000,34,0.1613893956,,,
275.0000000000,34,0.1626702994,,,
275.2500000000,34,0.1626702994,,,
275.5000000000,34,0.1562658995,,,
275.7500000000,34,0.1639510989,,,
276.0000000000,34,0.1613893956,,,
276.2500000000,34,0.1613893956,,,
276.5000000000,34,0.1601085067,,,
276.7500000000,34,0.1626702994,,,
277.0000000000,34,0.1588277072,,,
277.2500000000,34,0.1613893956,,,
277.5000000000,34,0.1588277072,,,
277.7500000000,34,0.1588277072,,,
278.0000000000,34,0.1613893956,,,
278.2500000000,34,0.1575468034,,,
278.5000000000,34,0.1626702994,,,
278.7500000000,34,0.1562658995,,,
279.0000000000,34,0.1613893956,,,
279.2500000000,34,0.1588277072,,,
279.5000000000,34,0.1613893956,,,
279.7500000000,34,0.1575468034,,,
280.0000000000,35,0.1601085067,,,
280.2500000000,35,0.1601085067,,,
280.5000000000,35,0.1575468034,,,
280.7500000000,35,0.1601085067,,,
281.0000000000,35,0.1562658995,,,
281.2500000000,35,0.1601085067,,,
281.5000000000,35,0.1588277072,,,
281.7500000000,35,0.1575468034,,,
282.0000000000,35,0.1575468034,,,
282.2500000000,35,0.1601085067,,,
282.5000000000,35,0.1562658995,,,
282.7500000000,35,0.1601085067,,,
283.0000000000,35,0.1575468034,,,
283.2500000000,35,0.1601085067,,,
283.5000000000,35,0.1562658995,,,
283.7500000000,35,0.1562658995,,,
284.0000000000,35,0.1562658995,,,
284.2500000000,35,0.1562658995,,,
284.5000000000,35,0.1575468034,,,
284.7500000000,35,0.1562658995,,,
285.0000000000,35,0.1575468034,,,
285.2500000000,35,0.1549851000,,,
285.5000000000,35,0.1575468034,,,
285.7500000000,35,0.1549851000,,,
286.0000000000,35,0.1575468034,,,
286.2500000000,35,0.1549851000,,,
286.5000000000,35,0.1537041962,,,
286.7500000000,35,0.1549851000,,,
287.0000000000,35,0.1588277072,,,
287.2500000000,35,0.1549851000,,,
287.5000000000,35,0.1549851000,,,
287.7500000000,35,0.1575468034,,,
288.0000000000,36,0.1549851000,,,
288.2500000000,36,0.1562658995,,,
288.5000000000,36,0.1562658995,,,
288.7500000000,36,0.1562658995,,,
289.0000000000,36,0.1537041962,,,
289.2500000000,36,0.1562658995,,,
289.5000000000,36,0.1549851000,,,
289.7500000000,36,0.1575468034,,,
290.0000000000,36,0.1537041962,,,
290.2500000000,36,0.1562658995,,,
290.5000000000,36,0.1537041962,,,
290.7500000000,36,0.1537041962,,,
291.0000000000,36,0.1562658995,,,
291.2500000000,36,0.1537041962,,,
291.5000000000,36,0.1562658995,,,
291.7500000000,36,0.1537041962,,,
292.0000000000,36,0.1524233073,,,
292.2500000000,36,0.1524233073,,,
292.5000000000,36,0.1562658995,,,
292.7500000000,36,0.1524233073,,,
293.0000000000,36,0.1549851000,,,
293.2500000000,36,0.1524233073,,,
293.5000000000,36,0.1537041962,,,
293.7500000000,36,0.1524233073,,,
294.0000000000,36,0.1549851000,,,
294.2500000000,36,0.1524233073,,,
294.5000000000,36,0.1524233073,,,
294.7500000000,36,0.1524233073,,,
295.0000000000,36,0.1524233073,,,
295.2500000000,36,0.1549851000,,,
295.5000000000,36,0.1537041962,,,
295.7500000000,36,0.1549851000,,,
296.0000000000,37,0.1524233073,,,
296.2500000000,37,0.1537041962,,,
296.5000000000,37,0.1524233073,,,
296.7500000000,37,0.1549851000,,,
297.0000000000,37,0.1537041962,,,
297.2500000000,37,0.1549851000,,,
297.5000000000,37,0.1511424929,,,
297.7500000000,37,0.1549851000,,,
298.0000000000,37,0.1511424929,,,
298.2500000000,37,0.1537041962,,,
298.5000000000,37,0.1511424929,,,
298.7500000000,37,0.1511424929,,,
299.0000000000,37,0.1524233073,,,
299.2500000000,37,0.1511424929,,,
299.5000000000,37,0.1537041962,,,
299.7500000000,37,0.1511424929,,,
300.0000000000,37,0.1524233073,,,
300.2500000000,37,0.1485807002,,,
300.5000000000,37,0.1524233073,,,
300.7500000000,37,0.1498616040,,,
301.0000000000,37,0.1537041962,,,
301.2500000000,37,0.1498616040,,,
301.5000000000,37,0.1524233073,,,
301.7500000000,37,0.1498616040,,,
302.0000000000,37,0.1537041962,,,
302.2500000000,37,0.1498616040,,,
302.5000000000,37,0.1524233073,,,
302.7500000000,37,0.1498616040,,,
303.0000000000,37,0.1485807002,,,
303.2500000000,37,0.1485807002,,,
303.5000000000,37,0.1485807002,,,
303.7500000000,37,0.1524233073,,,
304.0000000000,38,0.1498616040,,,
304.2500000000,38,0.1524233073,,,
304.5000000000,38,0.1485807002,,,
304.7500000000,38,0.1511424929,,,
305.0000000000,38,0.1485807002,,,
305.2500000000,38,0.1498616040,,,
305.5000000000,38,0.1485807002,,,
305.7500000000,38,0.1511424929,,,
306.0000000000,38,0.1485807002,,,
306.2500000000,38,0.1511424929,,,
306.5000000000,38,0.1485807002,,,
306.7500000000,38,0.1511424929,,,
307.0000000000,38,0.1485807002,,,
307.2500000000,38,0.1511424929,,,
307.5000000000,38,0.1485807002,,,
307.7500000000,38,0.1485807002,,,
308.0000000000,38,0.1511424929,,,
308.2500000000,38,0.1485807002,,,
308.5000000000,38,0.1472999007,,,
308.7500000000,38,0.1472999007,,,
309.0000000000,38,0.1485807002,,,
309.2500000000,38,0.1485807002,,,
309.5000000000,38,0.1498616040,,,
309.7500000000,38,0.1472999007,,,
310.0000000000,38,0.1511424929,,,
310.2500000000,38,0.1485807002,,,
310.5000000000,38,0.1498616040,,,
310.7500000000,38,0.1472999007,,,
311.0000000000,38,0.1511424929,,,
311.2500000000,38,0.1485807002,,,
311.5000000000,38,0.1472999007,,,
311.7500000000,38,0.1511424929,,,
