Time:4Hz,Epoch,Channel 1,Event Id,Event Date,Event Duration
0.0000000000,0,0.5395488739,,,
0.2500000000,0,0.5331450105,,,
0.5000000000,0,0.5357065201,,,
0.7500000000,0,0.5280218124,,,
1.0000000000,0,0.5331450105,,,
1.2500000000,0,0.5357065201,,,
1.5000000000,0,0.5318642259,,,
1.7500000000,0,0.5369873047,,,
2.0000000000,0,0.5293025970,,,
2.2500000000,0,0.5344256759,,,
2.5000000000,0,0.5280218124,,,
2.7500000000,0,0.5331450105,,,
3.0000000000,0,0.5280218124,,,
3.2500000000,0,0.5331450105,,,
3.5000000000,0,0.5241793990,,,
3.7500000000,0,0.5293025970,,,
4.0000000000,0,0.5241793990,,,
4.2500000000,0,0.5241793990,,,
4.5000000000,0,0.5216178298,,,
4.7500000000,0,0.5228986144,,,
5.0000000000,0,0.5228986144,,,
5.2500000000,0,0.5203369856,,,
5.5000000000,0,0.5241793990,,,
5.7500000000,0,0.5177754760,,,
6.0000000000,0,0.5216178298,,,
6.2500000000,0,0.5113714933,,,
6.5000000000,0,0.5216178298,,,
6.7500000000,0,0.5126522779,,,
7.0000000000,0,0.5190563202,,,
7.2500000000,0,0.5139331222,,,
7.5000000000,0,0.5203369856,,,
7.7500000000,0,0.5126522779,,,
8.0000000000,1,0.5190563202,,,
8.2500000000,1,0.5126522779,,,
8.5000000000,1,0.5139331222,,,
8.7500000000,1,0.5164946914,,,
9.0000000000,1,0.5075290799,,,
9.2500000000,1,0.5126522779,,,
9.5000000000,1,0.5062484145,,,
9.7500000000,1,0.5152139068,,,
10.0000000000,1,0.5062484145,,,
10.2500000000,1,0.5088099241,,,
10.5000000000,1,0.5062484145,,,
10.7500000000,1,0.5113714933,,,
11.0000000000,1,0.5062484145,,,
11.2500000000,1,0.5113714933,,,
11.5000000000,1,0.5024058819,,,
11.7500000000,1,0.5036867857,,,
12.0000000000,1,0.5049675703,,,
12.2500000000,1,0.5011252165,,,
12.5000000000,1,0.5024058819,,,
12.7500000000,1,0.4985635877,,,
13.0000000000,1,0.5049675703,,,
13.2500000000,1,0.4985635877,,,
13.5000000000,1,0.5011252165,,,
13.7500000000,1,0.5139331222,,,
14.0000000000,1,0.4985635877,,,
14.2500000000,1,0.4960019886,,,
14.5000000000,1,0.4960019886,,,
14.7500000000,1,0.4947212040,,,
15.0000000000,1,0.4998444021,,,
15.2500000000,1,0.4960019886,,,
15.5000000000,1,0.4998444021,,,
15.7500000000,1,0.4921596050,,,
16.0000000000,2,0.4972828031,,,
16.2500000000,2,0.4908789098,,,
16.5000000000,2,0.4921596050,,,
16.7500000000,2,0.4870364964,,,
17.0000000000,2,0.4921596050,,,
17.2500000000,2,0.4831941128,,,
17.5000000000,2,0.4947212040,,,
17.7500000000,2,0.4844748974,,,
18.0000000000,2,0.4895980954,,,
18.2500000000,2,0.4831941128,,,
18.5000000000,2,0.4831941128,,,
18.7500000000,2,0.4857557118,,,
19.0000000000,2,0.4819132984,,,
19.2500000000,2,0.4831941128,,,
19.5000000000,2,0.4793516994,,,
19.7500000000,2,0.4831941128,,,
20.0000000000,2,0.4678246081,,,
20.2500000000,2,0.5522878170,,,
20.5000000000,2,0.5510069728,,,
20.7500000000,2,0.5471646190,,,
21.0000000000,2,0.5497261882,,,
21.2500000000,2,0.5497261882,,,
21.5000000000,2,0.5458837748,,,
21.7500000000,2,0.5497261882,,,
22.0000000000,2,0.5612533092,,,
22.2500000000,2,0.5458837748,,,
22.5000000000,2,0.5407605767,,,
22.7500000000,2,0.5446029902,,,
23.0000000000,2,0.5407605767,,,
23.2500000000,2,0.5433222055,,,
23.5000000000,2,0.5394799113,,,
23.7500000000,2,0.5420414209,,,
24.0000000000,3,0.5381991267,,,
24.2500000000,3,0.5394799113,,,
24.5000000000,3,0.5356374979,,,
24.7500000000,3,0.5381991267,,,
25.0000000000,3,0.5343567133,,,
25.2500000000,3,0.5330759287,,,
25.5000000000,3,0.5317950845,,,
25.7500000000,3,0.5317950845,,,
26.0000000000,3,0.5343567133,,,
26.2500000000,3,0.5305142999,,,
26.5000000000,3,0.5317950845,,,
26.7500000000,3,0.5305142999,,,
27.0000000000,3,0.5292335153,,,
27.2500000000,3,0.5279526711,,,
27.5000000000,3,0.5266718864,,,
27.7500000000,3,0.5253912210,,,
28.0000000000,3,0.5279526711,,,
28.2500000000,3,0.5202680230,,,
28.5000000000,3,0.5266718864,,,
28.7500000000,3,0.5253912210,,,
29.0000000000,3,0.5266718864,,,
29.2500000000,3,0.5215486884,,,
29.5000000000,3,0.5266718864,,,
29.7500000000,3,0.5215486884,,,
30.0000000000,3,0.5266718864,,,
30.2500000000,3,0.5202680230,,,
30.5000000000,3,0.5266718864,,,
30.7500000000,3,0.5202680230,,,
31.0000000000,3,0.5177063942,,,
31.2500000000,3,0.5215486884,,,
31.5000000000,3,0.5189871788,,,
31.7500000000,3,0.5241103768,,,
32.0000000000,4,0.5189871788,,,
32.2500000000,4,0.5215486884,,,
32.5000000000,4,0.5202680230,,,
32.7500000000,4,0.5177063942,,,
33.0000000000,4,0.5164256096,,,
33.2500000000,4,0.5164256096,,,
33.5000000000,4,0.5138639808,,,
33.7500000000,4,0.5151448250,,,
34.0000000000,4,0.5125833154,,,
34.2500000000,4,0.5151448250,,,
34.5000000000,4,0.5113024116,,,
34.7500000000,4,0.5151448250,,,
35.0000000000,4,0.5087407827,,,
35.2500000000,4,0.5138639808,,,
35.5000000000,4,0.5100216269,,,
35.7500000000,4,0.5100216269,,,
36.0000000000,4,0.5125833154,,,
36.2500000000,4,0.5087407827,,,
36.5000000000,4,0.5048984885,,,
36.7500000000,4,0.5074601173,,,
37.0000000000,4,0.5087407827,,,
37.2500000000,4,0.5048984885,,,
37.5000000000,4,0.5074601173,,,
37.7500000000,4,0.5048984885,,,
38.0000000000,4,0.5074601173,,,
38.2500000000,4,0.5036177039,,,
38.5000000000,4,0.5061792731,,,
38.7500000000,4,0.4997752905,,,
39.0000000000,4,0.5036177039,,,
39.2500000000,4,0.4959329069,,,
39.5000000000,4,0.4984945059,,,
39.7500000000,4,0.4997752905,,,
40.0000000000,5,0.4984945059,,,
40.2500000000,5,0.4972136915,,,
40.5000000000,5,0.4959329069,,,
40.7500000000,5,0.4997752905,,,
41.0000000000,5,0.4972136915,,,
41.2500000000,5,0.4972136915,,,
41.5000000000,5,0.4933713973,,,
41.7500000000,5,0.4946522117,,,
42.0000000000,5,0.4908097982,,,
42.2500000000,5,0.4959329069,,,
42.5000000000,5,0.4920906126,,,
42.7500000000,5,0.4959329069,,,
43.0000000000,5,0.4933713973,,,
43.2500000000,5,0.4933713973,,,
43.5000000000,5,0.4908097982,,,
43.7500000000,5,0.4933713973,,,
44.0000000000,5,0.4882481992,,,
44.2500000000,5,0.4920906126,,,
44.5000000000,5,0.4882481992,,,
44.7500000000,5,0.4856866002,,,
45.0000000000,5,0.4869674146,,,
45.2500000000,5,0.4920906126,,,
45.5000000000,5,0.4869674146,,,
45.7500000000,5,0.4856866002,,,
46.0000000000,5,0.4856866002,,,
46.2500000000,5,0.4856866002,,,
46.5000000000,5,0.4869674146,,,
46.7500000000,5,0.4831250012,,,
47.0000000000,5,0.4844057858,,,
47.2500000000,5,0.4805634916,,,
47.5000000000,5,0.4818441868,,,
47.7500000000,5,0.4805634916,,,
48.0000000000,6,0.4818441868,,,
48.2500000000,6,0.4792825878,,,
48.5000000000,6,0.4805634916,,,
48.7500000000,6,0.4805634916,,,
49.0000000000,6,0.4805634916,,,
49.2500000000,6,0.4767211080,,,
49.5000000000,6,0.4805634916,,,
49.7500000000,6,0.4754402936,,,
50.0000000000,6,0.4792825878,,,
50.2500000000,6,0.4728786945,,,
50.5000000000,6,0.4792825878,,,
50.7500000000,6,0.4728786945,,,
51.0000000000,6,0.4741595089,,,
51.2500000000,6,0.4741595089,,,
51.5000000000,6,0.4767211080,,,
51.7500000000,6,0.4741595089,,,
52.0000000000,6,0.4728786945,,,
52.2500000000,6,0.4754402936,,,
52.5000000000,6,0.4728786945,,,
52.7500000000,6,0.4767211080,,,
53.0000000000,6,0.4703170955,,,
53.2500000000,6,0.4754402936,,,
53.5000000000,6,0.4677554965,,,
53.7500000000,6,0.4728786945,,,
54.0000000000,6,0.4690363109,,,
54.2500000000,6,0.4741595089,,,
54.5000000000,6,0.4690363109,,,
54.7500000000,6,0.4703170955,,,
55.0000000000,6,0.4690363109,,,
55.2500000000,6,0.4728786945,,,
55.5000000000,6,0.4664747119,,,
55.7500000000,6,0.4690363109,,,
56.0000000000,7,0.4664747119,,,
56.2500000000,7,0.4677554965,,,
56.5000000000,7,0.4664747119,,,
56.7500000000,7,0.4715979099,,,
57.0000000000,7,0.4741595089,,,
57.2500000000,7,0.4805634916,,,
57.5000000000,7,0.4741595089,,,
57.7500000000,7,0.4728786945,,,
58.0000000000,7,0.4792825878,,,
58.2500000000,7,0.4818441868,,,
58.5000000000,7,0.4780018926,,,
58.7500000000,7,0.4767211080,,,
59.0000000000,7,0.4831250012,,,
59.2500000000,7,0.4856866002,,,
59.5000000000,7,0.5023369193,,,
59.7500000000,7,0.5048984885,,,
60.0000000000,7,0.5100216269,,,
60.2500000000,7,0.5087407827,,,
60.5000000000,7,0.5164256096,,,
60.7500000000,7,0.5164256096,,,
61.0000000000,7,0.5253912210,,,
61.2500000000,7,0.5228294730,,,
61.5000000000,7,0.5305142999,,,
61.7500000000,7,0.5292335153,,,
62.0000000000,7,0.5305142999,,,
62.2500000000,7,0.5266718864,,,
62.5000000000,7,0.5292335153,,,
62.7500000000,7,0.5253912210,,,
63.0000000000,7,0.5215486884,,,
63.2500000000,7,0.5241103768,,,
63.5000000000,7,0.5189871788,,,
63.7500000000,7,0.5202680230,,,
64.0000000000,8,0.5151448250,,,
64.2500000000,8,0.5202680230,,,
64.5000000000,8,0.5164256096,,,
64.7500000000,8,0.5177063942,,,
65.0000000000,8,0.5164256096,,,
65.2500000000,8,0.5164256096,,,
65.5000000000,8,0.5151448250,,,
65.7500000000,8,0.5164256096,,,
66.0000000000,8,0.5113024116,,,
66.2500000000,8,0.5125833154,,,
66.5000000000,8,0.5048984885,,,
66.7500000000,8,0.5048984885,,,
67.0000000000,8,0.5023369193,,,
67.2500000000,8,0.5061792731,,,
67.5000000000,8,0.4984945059,,,
67.7500000000,8,0.5010560751,,,
68.0000000000,8,0.4972136915,,,
68.2500000000,8,0.4972136915,,,
68.5000000000,8,0.4984945059,,,
68.7500000000,8,0.4933713973,,,
69.0000000000,8,0.4972136915,,,
69.2500000000,8,0.4920906126,,,
69.5000000000,8,0.4920906126,,,
69.7500000000,8,0.4895290136,,,
70.0000000000,8,0.4933713973,,,
70.2500000000,8,0.4869674146,,,
70.5000000000,8,0.4869674146,,,
70.7500000000,8,0.4856866002,,,
71.0000000000,8,0.4869674146,,,
71.2500000000,8,0.4856866002,,,
71.5000000000,8,0.4869674146,,,
71.7500000000,8,0.4844057858,,,
72.0000000000,9,0.4844057858,,,
72.2500000000,9,0.4792825878,,,
72.5000000000,9,0.4856866002,,,
72.7500000000,9,0.4805634916,,,
73.0000000000,9,0.4818441868,,,
73.2500000000,9,0.4780018926,,,
73.5000000000,9,0.4818441868,,,
73.7500000000,9,0.4767211080,,,
74.0000000000,9,0.4780018926,,,
74.2500000000,9,0.4767211080,,,
74.5000000000,9,0.4754402936,,,
74.7500000000,9,0.4767211080,,,
75.0000000000,9,0.4715979099,,,
75.2500000000,9,0.4767211080,,,
75.5000000000,9,0.4715979099,,,
75.7500000000,9,0.4741595089,,,
76.0000000000,9,0.4703170955,,,
76.2500000000,9,0.4728786945,,,
76.5000000000,9,0.4703170955,,,
76.7500000000,9,0.4715979099,,,
77.0000000000,9,0.4715979099,,,
77.2500000000,9,0.4767211080,,,
77.5000000000,9,0.4728786945,,,
77.7500000000,9,0.4728786945,,,
78.0000000000,9,0.4741595089,,,
78.2500000000,9,0.4741595089,,,
78.5000000000,9,0.4715979099,,,
78.7500000000,9,0.4754402936,,,
79.0000000000,9,0.4715979099,,,
79.2500000000,9,0.4703170955,,,
79.5000000000,9,0.4703170955,,,
79.7500000000,9,0.4690363109,,,
80.0000000000,10,0.4664747119,,,
80.2500000000,10,0.4703170955,,,
80.5000000000,10,0.4639132023,,,
80.7500000000,10,0.4664747119,,,
81.0000000000,10,0.4639132023,,,
81.2500000000,10,0.4651939869,,,
81.5000000000,10,0.4613516033,,,
81.7500000000,10,0.4651939869,,,
82.0000000000,10,0.4613516033,,,
82.2500000000,10,0.4664747119,,,
82.5000000000,10,0.4600707889,,,
82.7500000000,10,0.4651939869,,,
83.0000000000,10,0.4600707889,,,
83.2500000000,10,0.4600707889,,,
83.5000000000,10,0.4600707889,,,
83.7500000000,10,0.4600707889,,,
84.0000000000,10,0.4575091898,,,
84.2500000000,10,0.4613516033,,,
84.5000000000,10,0.4562284052,,,
84.7500000000,10,0.4575091898,,,
85.0000000000,10,0.4575091898,,,
85.2500000000,10,0.4575091898,,,
85.5000000000,10,0.4536668062,,,
85.7500000000,10,0.4549475908,,,
86.0000000000,10,0.4498245120,,,
86.2500000000,10,0.4562284052,,,
86.5000000000,10,0.4511052966,,,
86.7500000000,10,0.4536668062,,,
87.0000000000,10,0.4498245120,,,
87.2500000000,10,0.4536668062,,,
87.5000000000,10,0.4511052966,,,
87.7500000000,10,0.4536668062,,,
88.0000000000,11,0.4485436976,,,
88.2500000000,11,0.4498245120,,,
88.5000000000,11,0.4472629130,,,
88.7500000000,11,0.4485436976,,,
89.0000000000,11,0.4459820986,,,
89.2500000000,11,0.4447013140,,,
89.5000000000,11,0.4459820986,,,
89.7500000000,11,0.4511052966,,,
90.0000000000,11,0.4459820986,,,
90.2500000000,11,0.4472629130,,,
90.5000000000,11,0.4447013140,,,
90.7500000000,11,0.4485436976,,,
91.0000000000,11,0.4472629130,,,
91.2500000000,11,0.4523861110,,,
91.5000000000,11,0.4472629130,,,
91.7500000000,11,0.4536668062,,,
92.0000000000,11,0.4498245120,,,
92.2500000000,11,0.4536668062,,,
92.5000000000,11,0.4511052966,,,
92.7500000000,11,0.4536668062,,,
93.0000000000,11,0.4485436976,,,
93.2500000000,11,0.4511052966,,,
93.5000000000,11,0.4459820986,,,
93.7500000000,11,0.4472629130,,,
94.0000000000,11,0.4447013140,,,
94.2500000000,11,0.4421396852,,,
94.5000000000,11,0.4421396852,,,
94.7500000000,11,0.4447013140,,,
95.0000000000,11,0.4408589005,,,
95.2500000000,11,0.4447013140,,,
95.5000000000,11,0.4408589005,,,
95.7500000000,11,0.4447013140,,,
96.0000000000,12,0.4382973015,,,
96.2500000000,12,0.4434204996,,,
96.5000000000,12,0.4382973015,,,
96.7500000000,12,0.4434204996,,,
97.0000000000,12,0.4344550073,,,
97.2500000000,12,0.4421396852,,,
97.5000000000,12,0.4344550073,,,
97.7500000000,12,0.4395780861,,,
98.0000000000,12,0.4344550073,,,
98.2500000000,12,0.4370164871,,,
98.5000000000,12,0.4331741929,,,
98.7500000000,12,0.4331741929,,,
99.0000000000,12,0.4344550073,,,
99.2500000000,12,0.4318934083,,,
99.5000000000,12,0.4306125939,,,
99.7500000000,12,0.4293318093,,,
100.0000000000,12,0.4331741929,,,
100.2500000000,12,0.4267702103,,,
100.5000000000,12,0.4331741929,,,
100.7500000000,12,0.4293318093,,,
101.0000000000,12,0.4318934083,,,
101.2500000000,12,0.4267702103,,,
101.5000000000,12,0.4293318093,,,
101.7500000000,12,0.4267702103,,,
102.0000000000,12,0.4293318093,,,
102.2500000000,12,0.4254893959,,,
102.5000000000,12,0.4267702103,,,
102.7500000000,12,0.4242086112,,,
103.0000000000,12,0.4293318093,,,
103.2500000000,12,0.4254893959,,,
103.5000000000,12,0.4267702103,,,
103.7500000000,12,0.4242086112,,,
104.0000000000,13,0.4280509949,,,
104.2500000000,13,0.4242086112,,,
104.5000000000,13,0.4254893959,,,
104.7500000000,13,0.4229278862,,,
105.0000000000,13,0.4254893959,,,
105.2500000000,13,0.4229278862,,,
105.5000000000,13,0.4242086112,,,
105.7500000000,13,0.4229278862,,,
106.0000000000,13,0.4242086112,,,
106.2500000000,13,0.4216470122,,,
106.5000000000,13,0.4229278862,,,
106.7500000000,13,0.4229278862,,,
107.0000000000,13,0.4229278862,,,
107.2500000000,13,0.4190855026,,,
107.5000000000,13,0.4229278862,,,
107.7500000000,13,0.4216470122,,,
108.0000000000,13,0.4190855026,,,
108.2500000000,13,0.4216470122,,,
108.5000000000,13,0.4242086112,,,
108.7500000000,13,0.4190855026,,,
109.0000000000,13,0.4216470122,,,
109.2500000000,13,0.4203662872,,,
109.5000000000,13,0.4216470122,,,
109.7500000000,13,0.4190855026,,,
110.0000000000,13,0.4216470122,,,
110.2500000000,13,0.4190855026,,,
110.5000000000,13,0.4229278862,,,
110.7500000000,13,0.4178046882,33025,110.8437500000,0.0000000000
111.0000000000,13,0.4242086112,33024,111.1562500000,0.0000000000
111.2500000000,13,0.4203662872,33025:33024,111.2812500000:111.4687500000,0.0000000000:0.0000000000
111.5000000000,13,0.4242086112,,,
111.7500000000,13,0.4203662872,,,
112.0000000000,14,0.4242086112,,,
112.2500000000,14,0.4190855026,,,
112.5000000000,14,0.4216470122,,,
112.7500000000,14,0.4178046882,,,
113.0000000000,14,0.4216470122,,,
113.2500000000,14,0.4178046882,,,
113.5000000000,14,0.4229278862,,,
113.7500000000,14,0.4254893959,,,
114.0000000000,14,0.4293318093,,,
114.2500000000,14,0.4254893959,,,
114.5000000000,14,0.4267702103,,,
114.7500000000,14,0.4344550073,,,
115.0000000000,14,0.4293318093,,,
115.2500000000,14,0.4318934083,,,
115.5000000000,14,0.4280509949,,,
115.7500000000,14,0.4293318093,,,
116.0000000000,14,0.4280509949,,,
116.2500000000,14,0.4242086112,,,
116.5000000000,14,0.4254893959,,,
116.7500000000,14,0.4280509949,,,
117.0000000000,14,0.4242086112,,,
117.2500000000,14,0.4229278862,,,
117.5000000000,14,0.4242086112,,,
117.7500000000,14,0.4254893959,,,
118.0000000000,14,0.4216470122,,,
118.2500000000,14,0.4229278862,,,
118.5000000000,14,0.4229278862,,,
118.7500000000,14,0.4242086112,,,
119.0000000000,14,0.4203662872,,,
119.2500000000,14,0.4242086112,,,
119.5000000000,14,0.4178046882,,,
119.7500000000,14,0.4216470122,,,
120.0000000000,15,0.4178046882,,,
120.2500000000,15,0.4229278862,,,
120.5000000000,15,0.4178046882,,,
120.7500000000,15,0.4242086112,,,
121.0000000000,15,0.4165239036,,,
121.2500000000,15,0.4216470122,,,
121.5000000000,15,0.4165239036,,,
121.7500000000,15,0.4126814902,,,
122.0000000000,15,0.4139623046,,,
122.2500000000,15,0.4152430892,,,
122.5000000000,15,0.4165239036,,,
122.7500000000,15,0.4165239036,,,
123.0000000000,15,0.4178046882,,,
123.2500000000,15,0.4139623046,,,
123.5000000000,15,0.4165239036,,,
123.7500000000,15,0.4114007056,,,
124.0000000000,15,0.4139623046,,,
124.2500000000,15,0.4126814902,,,
124.5000000000,15,0.4126814902,,,
124.7500000000,15,0.4139623046,,,
125.0000000000,15,0.4165239036,,,
125.2500000000,15,0.4139623046,,,
125.5000000000,15,0.4165239036,,,
125.7500000000,15,0.4114007056,,,
126.0000000000,15,0.4165239036,,,
126.2500000000,15,0.4114007056,,,
126.5000000000,15,0.4126814902,,,
126.7500000000,15,0.4139623046,,,
127.0000000000,15,0.4152430892,,,
127.2500000000,15,0.4088391066,,,
127.5000000000,15,0.4126814902,,,
127.7500000000,15,0.4101198912,,,
128.0000000000,16,0.4101198912,,,
128.2500000000,16,0.4075584114,,,
128.5000000000,16,0.4126814902,,,
128.7500000000,16,0.4062775970,,,
129.0000000000,16,0.4114007056,,,
129.2500000000,16,0.4049968123,,,
129.5000000000,16,0.4114007056,,,
129.7500000000,16,0.4037159979,,,
130.0000000000,16,0.4037159979,,,
130.2500000000,16,0.4037159979,,,
130.5000000000,16,0.4075584114,,,
130.7500000000,16,0.4037159979,,,
131.0000000000,16,0.4049968123,,,
131.2500000000,16,0.4011543989,,,
131.5000000000,16,0.4049968123,,,
131.7500000000,16,0.4011543989,,,
132.0000000000,16,0.4011543989,,,
132.2500000000,16,0.3998736143,,,
132.5000000000,16,0.3998736143,,,
132.7500000000,16,0.3960312009,,,
133.0000000000,16,0.4049968123,,,
133.2500000000,16,0.3998736143,,,
133.5000000000,16,0.4011543989,,,
133.7500000000,16,0.3998736143,,,
134.0000000000,16,0.4037159979,,,
134.2500000000,16,0.3985927999,,,
134.5000000000,16,0.4024352133,,,
134.7500000000,16,0.3985927999,,,
135.0000000000,16,0.4011543989,,,
135.2500000000,16,0.3947503865,,,
135.5000000000,16,0.3998736143,,,
135.7500000000,16,0.3985927999,,,
136.0000000000,17,0.3998736143,,,
136.2500000000,17,0.3973119855,,,
136.5000000000,17,0.3985927999,,,
136.7500000000,17,0.3947503865,,,
137.0000000000,17,0.4011543989,,,
137.2500000000,17,0.3960312009,,,
137.5000000000,17,0.4011543989,,,
137.7500000000,17,0.3947503865,,,
138.0000000000,17,0.3973119855,,,
138.2500000000,17,0.3896273077,,,
138.5000000000,17,0.3998736143,,,
138.7500000000,17,0.3909080923,,,
139.0000000000,17,0.3985927999,,,
139.2500000000,17,0.3921887875,,,
139.5000000000,17,0.3960312009,,,
139.7500000000,17,0.3921887875,,,
140.0000000000,17,0.3985927999,,,
140.2500000000,17,0.3909080923,,,
140.5000000000,17,0.3985927999,,,
140.7500000000,17,0.3909080923,,,
141.0000000000,17,0.3909080923,,,
141.2500000000,17,0.3896273077,,,
141.5000000000,17,0.3960312009,,,
141.7500000000,17,0.3896273077,,,
142.0000000000,17,0.3934696913,,,
142.2500000000,17,0.3909080923,,,
142.5000000000,17,0.3934696913,,,
142.7500000000,17,0.3896273077,,,
143.0000000000,17,0.3921887875,,,
143.2500000000,17,0.3896273077,,,
143.5000000000,17,0.3909080923,,,
143.7500000000,17,0.3845041096,,,
144.0000000000,18,0.3909080923,,,
144.2500000000,18,0.3883464932,,,
144.5000000000,18,0.3909080923,,,
144.7500000000,18,0.3870657086,,,
145.0000000000,18,0.3909080923,,,
145.2500000000,18,0.3883464932,,,
145.5000000000,18,0.3909080923,,,
145.7500000000,18,0.3870657086,,,
146.0000000000,18,0.3883464932,,,
146.2500000000,18,0.3845041096,,,
146.5000000000,18,0.3857848942,,,
146.7500000000,18,0.3845041096,,,
147.0000000000,18,0.3883464932,,,
147.2500000000,18,0.3845041096,,,
147.5000000000,18,0.3845041096,,,
147.7500000000,18,0.3819425106,,,
148.0000000000,18,0.3819425106,,,
148.2500000000,18,0.3870657086,,,
148.5000000000,18,0.3998736143,,,
148.7500000000,18,0.3857848942,,,
149.0000000000,18,0.3819425106,,,
149.2500000000,18,0.3819425106,,,
149.5000000000,18,0.3819425106,,,
149.7500000000,18,0.3845041096,,,
150.0000000000,18,0.3806616962,,,
150.2500000000,18,0.3832232952,,,
150.5000000000,18,0.3806616962,,,
150.7500000000,18,0.3832232952,,,
151.0000000000,18,0.3806616962,,,
151.2500000000,18,0.3819425106,,,
151.5000000000,18,0.3793809116,,,
151.7500000000,18,0.3819425106,,,
152.0000000000,19,0.3755385876,,,
152.2500000000,19,0.3819425106,,,
152.5000000000,19,0.3793809116,,,
152.7500000000,19,0.3793809116,,,
153.0000000000,19,0.3781001866,,,
153.2500000000,19,0.3793809116,,,
153.5000000000,19,0.3755385876,,,
153.7500000000,19,0.3793809116,,,
154.0000000000,19,0.3755385876,,,
154.2500000000,19,0.3793809116,,,
154.5000000000,19,0.3755385876,,,
154.7500000000,19,0.3768194020,,,
155.0000000000,19,0.3742578030,,,
155.2500000000,19,0.3781001866,,,
155.5000000000,19,0.3742578030,,,
155.7500000000,19,0.3781001866,,,
156.0000000000,19,0.3755385876,,,
156.2500000000,19,0.3742578030,,,
156.5000000000,19,0.3716962039,,,
156.7500000000,19,0.3729769886,,,
157.0000000000,19,0.3768194020,,,
157.2500000000,19,0.3716962039,,,
157.5000000000,19,0.3716962039,,,
157.7500000000,19,0.3716962039,,,
158.0000000000,19,0.3755385876,,,
158.2500000000,19,0.3716962039,,,
158.5000000000,19,0.3742578030,,,
158.7500000000,19,0.3691346049,,,
159.0000000000,19,0.3729769886,,,
159.2500000000,19,0.3691346049,,,
159.5000000000,19,0.3704153895,,,
159.7500000000,19,0.3691346049,,,
160.0000000000,20,0.3729769886,,,
160.2500000000,20,0.3652923107,,,
160.5000000000,20,0.3716962039,,,
160.7500000000,20,0.3691346049,,,
161.0000000000,20,0.3716962039,,,
161.2500000000,20,0.3691346049,,,
161.5000000000,20,0.3729769886,,,
161.7500000000,20,0.3652923107,,,
162.0000000000,20,0.3691346049,,,
162.2500000000,20,0.3652923107,,,
162.5000000000,20,0.3640114069,,,
162.7500000000,20,0.3691346049,,,
163.0000000000,20,0.3627307117,,,
163.2500000000,20,0.3678537905,,,
163.5000000000,20,0.3640114069,,,
163.7500000000,20,0.3678537905,,,
164.0000000000,20,0.3627307117,,,
164.2500000000,20,0.3665730059,,,
164.5000000000,20,0.3627307117,,,
164.7500000000,20,0.3652923107,,,
165.0000000000,20,0.3627307117,,,
165.2500000000,20,0.3652923107,,,
165.5000000000,20,0.3614498973,,,
165.7500000000,20,0.3640114069,,,
166.0000000000,20,0.3601691127,,,
166.2500000000,20,0.3665730059,,,
166.5000000000,20,0.3601691127,,,
166.7500000000,20,0.3627307117,,,
167.0000000000,20,0.3601691127,,,
167.2500000000,20,0.3640114069,,,
167.5000000000,20,0.3588882983,,,
167.7500000000,20,0.3640114069,,,
168.0000000000,21,0.3601691127,,,
168.2500000000,21,0.3640114069,,,
168.5000000000,21,0.3537651002,,,
168.7500000000,21,0.3614498973,,,
169.0000000000,21,0.3588882983,,,
169.2500000000,21,0.3576075137,,,
169.5000000000,21,0.3588882983,,,
169.7500000000,21,0.3576075137,,,
170.0000000000,21,0.3601691127,,,
170.2500000000,21,0.3563266993,,,
170.5000000000,21,0.3601691127,,,
170.7500000000,21,0.3563266993,,,
171.0000000000,21,0.3601691127,,,
171.2500000000,21,0.3563266993,,,
171.5000000000,21,0.3588882983,,,
171.7500000000,21,0.3563266993,,,
172.0000000000,21,0.3601691127,,,
172.2500000000,21,0.3550459146,,,
172.5000000000,21,0.3563266993,,,
172.7500000000,21,0.3563266993,,,
173.0000000000,21,0.3576075137,,,
173.2500000000,21,0.3537651002,,,
173.5000000000,21,0.3588882983,,,
173.7500000000,21,0.3537651002,,,
174.0000000000,21,0.3563266993,,,
174.2500000000,21,0.3512035012,,,
174.5000000000,21,0.3576075137,,,
174.7500000000,21,0.3512035012,,,
175.0000000000,21,0.3550459146,,,
175.2500000000,21,0.3524842858,,,
175.5000000000,21,0.3537651002,,,
175.7500000000,21,0.3499226868,,,
176.0000000000,22,0.3550459146,,,
176.2500000000,22,0.3512035012,,,
176.5000000000,22,0.3550459146,,,
176.7500000000,22,0.3447996080,,,
177.0000000000,22,0.3550459146,,,
177.2500000000,22,0.3499226868,,,
177.5000000000,22,0.3499226868,,,
177.7500000000,22,0.3524842858,,,
178.0000000000,22,0.3486419916,,,
178.2500000000,22,0.3524842858,,,
178.5000000000,22,0.3499226868,,,
178.7500000000,22,0.3512035012,,,
179.0000000000,22,0.3473612070,,,
179.2500000000,22,0.3499226868,,,
179.5000000000,22,0.3435187936,,,
179.7500000000,22,0.3512035012,,,
180.0000000000,22,0.3486419916,,,
180.2500000000,22,0.3499226868,,,
180.5000000000,22,0.3460803926,,,
180.7500000000,22,0.3473612070,,,
181.0000000000,22,0.3447996080,,,
181.2500000000,22,0.3473612070,,,
181.5000000000,22,0.3473612070,,,
181.7500000000,22,0.3473612070,,,
182.0000000000,22,0.3435187936,,,
182.2500000000,22,0.3422380090,,,
182.5000000000,22,0.3435187936,,,
182.7500000000,22,0.3447996080,,,
183.0000000000,22,0.3422380090,,,
183.2500000000,22,0.3435187936,,,
183.5000000000,22,0.3409571946,,,
183.7500000000,22,0.3435187936,,,
184.0000000000,23,0.3409571946,,,
184.2500000000,23,0.3447996080,,,
184.5000000000,23,0.3409571946,,,
184.7500000000,23,0.3435187936,,,
185.0000000000,23,0.3383955956,,,
185.2500000000,23,0.3422380090,,,
185.5000000000,23,0.3371148109,,,
185.7500000000,23,0.3422380090,,,
186.0000000000,23,0.3371148109,,,
186.2500000000,23,0.3422380090,,,
186.5000000000,23,0.3371148109,,,
186.7500000000,23,0.3422380090,,,
187.0000000000,23,0.3396764100,,,
187.2500000000,23,0.3409571946,,,
187.5000000000,23,0.3358340859,,,
187.7500000000,23,0.3396764100,,,
188.0000000000,23,0.3371148109,,,
188.2500000000,23,0.3409571946,,,
188.5000000000,23,0.3358340859,,,
188.7500000000,23,0.3396764100,,,
189.0000000000,23,0.3332724869,,,
189.2500000000,23,0.3396764100,,,
189.5000000000,23,0.3345532119,,,
189.7500000000,23,0.3383955956,,,
190.0000000000,23,0.3332724869,,,
190.2500000000,23,0.3383955956,,,
190.5000000000,23,0.3307108879,,,
190.7500000000,23,0.3358340859,,,
191.0000000000,23,0.3319917023,,,
191.2500000000,23,0.3358340859,,,
191.5000000000,23,0.3319917023,,,
191.7500000000,23,0.3371148109,,,
192.0000000000,24,0.3319917023,,,
192.2500000000,24,0.3345532119,,,
192.5000000000,24,0.3307108879,,,
192.7500000000,24,0.3332724869,,,
193.0000000000,24,0.3294301033,,,
193.2500000000,24,0.3294301033,,,
193.5000000000,24,0.3307108879,,,
193.7500000000,24,0.3319917023,,,
194.0000000000,24,0.3307108879,,,
194.2500000000,24,0.3294301033,,,
194.5000000000,24,0.3307108879,,,
194.7500000000,24,0.3281492889,,,
195.0000000000,24,0.3307108879,,,
195.2500000000,24,0.3281492889,,,
195.5000000000,24,0.3307108879,,,
195.7500000000,24,0.3281492889,,,
196.0000000000,24,0.3255876899,,,
196.2500000000,24,0.3255876899,,,
196.5000000000,24,0.3307108879,,,
196.7500000000,24,0.3255876899,,,
197.0000000000,24,0.3307108879,,,
197.2500000000,24,0.3255876899,,,
197.5000000000,24,0.3294301033,,,
197.7500000000,24,0.3255876899,,,
198.0000000000,24,0.3294301033,,,
198.2500000000,24,0.3268685043,,,
198.5000000000,24,0.3255876899,,,
198.7500000000,24,0.3204646111,,,
199.0000000000,24,0.3268685043,,,
199.2500000000,24,0.3204646111,,,
199.5000000000,24,0.3281492889,,,
199.7500000000,24,0.3230260909,,,
200.0000000000,25,0.3268685043,,,
200.2500000000,25,0.3230260909,,,
200.5000000000,25,0.3255876899,,,
200.7500000000,25,0.3230260909,,,
201.0000000000,25,0.3294301033,,,
201.2500000000,25,0.3217453063,,,
201.5000000000,25,0.3204646111,,,
201.7500000000,25,0.3243069053,,,
202.0000000000,25,0.3268685043,,,
202.2500000000,25,0.3217453063,,,
202.5000000000,25,0.3255876899,,,
202.7500000000,25,0.3191837966,,,
203.0000000000,25,0.3217453063,,,
203.2500000000,25,0.3204646111,,,
203.5000000000,25,0.3422380090,,,
203.7500000000,25,0.3191837966,,,
204.0000000000,25,0.3243069053,,,
204.2500000000,25,0.3179030120,,,
204.5000000000,25,0.3230260909,,,
204.7500000000,25,0.3204646111,,,
205.0000000000,25,0.3191837966,,,
205.2500000000,25,0.3191837966,,,
205.5000000000,25,0.3179030120,,,
205.7500000000,25,0.3217453063,,,
206.0000000000,25,0.3179030120,,,
206.2500000000,25,0.3204646111,,,
206.5000000000,25,0.3179030120,,,
206.7500000000,25,0.3191837966,,,
207.0000000000,25,0.3127798140,,,
207.2500000000,25,0.3217453063,,,
207.5000000000,25,0.3153414130,,,
207.7500000000,25,0.3191837966,,,
208.0000000000,26,0.3153414130,,,
208.2500000000,26,0.3191837966,,,
208.5000000000,26,0.3153414130,,,
208.7500000000,26,0.3191837966,,,
209.0000000000,26,0.3127798140,,,
209.2500000000,26,0.3191837966,,,
209.5000000000,26,0.3127798140,,,
209.7500000000,26,0.3089374006,,,
210.0000000000,26,0.3127798140,,,
210.2500000000,26,0.3153414130,,,
210.5000000000,26,0.3127798140,,,
210.7500000000,26,0.3153414130,,,
211.0000000000,26,0.3140605986,,,
211.2500000000,26,0.3140605986,,,
211.5000000000,26,0.3114989996,,,
211.7500000000,26,0.3153414130,,,
212.0000000000,26,0.3114989996,,,
212.2500000000,26,0.3153414130,,,
212.5000000000,26,0.3102181852,,,
212.7500000000,26,0.3179030120,,,
213.0000000000,26,0.3153414130,,,
213.2500000000,26,0.3191837966,,,
213.5000000000,26,0.3179030120,,,
213.7500000000,26,0.3230260909,,,
214.0000000000,26,0.3179030120,,,
214.2500000000,26,0.3217453063,,,
214.5000000000,26,0.3153414130,,,
214.7500000000,26,0.3255876899,,,
215.0000000000,26,0.3217453063,,,
215.2500000000,26,0.3204646111,,,
215.5000000000,26,0.3204646111,,,
215.7500000000,26,0.3281492889,,,
216.0000000000,27,0.3243069053,,,
216.2500000000,27,0.3268685043,,,
216.5000000000,27,0.3243069053,,,
216.7500000000,27,0.3268685043,,,
217.0000000000,27,0.3255876899,,,
217.2500000000,27,0.3294301033,,,
217.5000000000,27,0.3243069053,,,
217.7500000000,27,0.3281492889,,,
218.0000000000,27,0.3191837966,,,
218.2500000000,27,0.3255876899,,,
218.5000000000,27,0.3243069053,,,
218.7500000000,27,0.3281492889,,,
219.0000000000,27,0.3243069053,,,
219.2500000000,27,0.3281492889,,,
219.5000000000,27,0.3243069053,,,
219.7500000000,27,0.3281492889,,,
220.0000000000,27,0.3243069053,,,
220.2500000000,27,0.3294301033,,,
220.5000000000,27,0.3243069053,,,
220.7500000000,27,0.3243069053,,,
221.0000000000,27,0.3243069053,,,
221.2500000000,27,0.3294301033,,,
221.5000000000,27,0.3243069053,,,
221.7500000000,27,0.3268685043,,,
222.0000000000,27,0.3217453063,,,
222.2500000000,27,0.3268685043,,,
222.5000000000,27,0.3204646111,,,
222.7500000000,27,0.3230260909,,,
223.0000000000,27,0.3166221976,,,
223.2500000000,27,0.3191837966,,,
223.5000000000,27,0.3153414130,,,
223.7500000000,27,0.3179030120,,,
224.0000000000,28,0.3204646111,,,
224.2500000000,28,0.3191837966,,,
224.5000000000,28,0.3191837966,,,
224.7500000000,28,0.3179030120,,,
225.0000000000,28,0.3204646111,,,
225.2500000000,28,0.3153414130,,,
225.5000000000,28,0.3191837966,,,
225.7500000000,28,0.3153414130,,,
226.0000000000,28,0.3166221976,,,
226.2500000000,28,0.3114989996,,,
226.5000000000,28,0.3140605986,,,
226.7500000000,28,0.3102181852,,,
227.0000000000,28,0.3153414130,,,
227.2500000000,28,0.3114989996,,,
227.5000000000,28,0.3153414130,,,
227.7500000000,28,0.3114989996,,,
228.0000000000,28,0.3114989996,,,
228.2500000000,28,0.3089374006,,,
228.5000000000,28,0.3102181852,,,
228.7500000000,28,0.3089374006,,,
229.0000000000,28,0.3050949872,,,
229.2500000000,28,0.3076565862,,,
229.5000000000,28,0.3102181852,,,
229.7500000000,28,0.3089374006,,,
230.0000000000,28,0.3127798140,,,
230.2500000000,28,0.3063758016,,,
230.5000000000,28,0.3089374006,,,
230.7500000000,28,0.3050949872,,,
231.0000000000,28,0.3089374006,,,
231.2500000000,28,0.3050949872,,,
231.5000000000,28,0.3076565862,,,
231.7500000000,28,0.2999719083,,,
232.0000000000,29,0.3063758016,,,
232.2500000000,29,0.3050949872,,,
232.5000000000,29,0.3076565862,,,
232.7500000000,29,0.3063758016,,,
233.0000000000,29,0.3038142920,,,
233.2500000000,29,0.3076565862,,,
233.5000000000,29,0.3038142920,,,
233.7500000000,29,0.3038142920,,,
234.0000000000,29,0.3038142920,,,
234.2500000000,29,0.3063758016,,,
234.5000000000,29,0.2999719083,,,
234.7500000000,29,0.3050949872,,,
235.0000000000,29,0.3012526929,,,
235.2500000000,29,0.3038142920,,,
235.5000000000,29,0.3012526929,,,
235.7500000000,29,0.3038142920,,,
236.0000000000,29,0.2999719083,,,
236.2500000000,29,0.3025335073,,,
236.5000000000,29,0.3025335073,,,
236.7500000000,29,0.3025335073,,,
237.0000000000,29,0.2986910939,,,
237.2500000000,29,0.3012526929,,,
237.5000000000,29,0.2999719083,,,
237.7500000000,29,0.2986910939,,,
238.0000000000,29,0.2986910939,,,
238.2500000000,29,0.3012526929,,,
238.5000000000,29,0.2974103093,,,
238.7500000000,29,0.3012526929,,,
239.0000000000,29,0.2986910939,,,
239.2500000000,29,0.2999719083,,,
239.5000000000,29,0.2974103093,,,
239.7500000000,29,0.2986910939,,,
240.0000000000,30,0.2935678959,,,
240.2500000000,30,0.2999719083,,,
240.5000000000,30,0.2961294949,,,
240.7500000000,30,0.2986910939,,,
241.0000000000,30,0.2961294949,,,
241.2500000000,30,0.2999719083,,,
241.5000000000,30,0.2948487103,,,
241.7500000000,30,0.2986910939,,,
242.0000000000,30,0.2935678959,,,
242.2500000000,30,0.3012526929,,,
242.5000000000,30,0.2961294949,,,
242.7500000000,30,0.2961294949,,,
243.0000000000,30,0.2974103093,,,
243.2500000000,30,0.3025335073,,,
243.5000000000,30,0.2974103093,,,
243.7500000000,30,0.3025335073,,,
244.0000000000,30,0.2974103093,,,
244.2500000000,30,0.3025335073,,,
244.5000000000,30,0.2961294949,,,
244.7500000000,30,0.3012526929,,,
245.0000000000,30,0.2961294949,,,
245.2500000000,30,0.3025335073,,,
245.5000000000,30,0.2935678959,,,
245.7500000000,30,0.2974103093,,,
246.0000000000,30,0.2935678959,,,
246.2500000000,30,0.3012526929,,,
246.5000000000,30,0.2986910939,,,
246.7500000000,30,0.2986910939,,,
247.0000000000,30,0.2948487103,,,
247.2500000000,30,0.2986910939,,,
247.5000000000,30,0.2935678959,,,
247.7500000000,30,0.2961294949,,,
248.0000000000,31,0.2935678959,,,
248.2500000000,31,0.2897256017,,,
248.5000000000,31,0.2935678959,,,
248.7500000000,31,0.2974103093,,,
249.0000000000,31,0.2935678959,,,
249.2500000000,31,0.2871640027,,,
249.5000000000,31,0.2846024036,,,
249.7500000000,31,0.2884447873,,,
250.0000000000,31,0.2846024036,,,
250.2500000000,31,0.2910063863,,,
250.5000000000,31,0.2833215892,,,
250.7500000000,31,0.2884447873,,,
251.0000000000,31,0.2858831882,,,
251.2500000000,31,0.2935678959,,,
251.5000000000,31,0.2897256017,,,
251.7500000000,31,0.2948487103,,,
252.0000000000,31,0.2948487103,,,
252.2500000000,31,0.2974103093,,,
252.5000000000,31,0.2948487103,,,
252.7500000000,31,0.2974103093,,,
253.0000000000,31,0.2961294949,,,
253.2500000000,31,0.2974103093,,,
253.5000000000,31,0.2948487103,,,
253.7500000000,31,0.2948487103,,,
254.0000000000,31,0.2974103093,,,
254.2500000000,31,0.2999719083,,,
254.5000000000,31,0.2974103093,,,
254.7500000000,31,0.3025335073,,,
255.0000000000,31,0.2974103093,,,
255.2500000000,31,0.2999719083,,,
255.5000000000,31,0.2974103093,,,
255.7500000000,31,0.3012526929,,,
256.0000000000,32,0.2974103093,,,
256.2500000000,32,0.2986910939,,,
256.5000000000,32,0.2910063863,,,
256.7500000000,32,0.3012526929,,,
257.0000000000,32,0.2948487103,,,
257.2500000000,32,0.2986910939,,,
257.5000000000,32,0.2961294949,,,
257.7500000000,32,0.2961294949,,,
258.0000000000,32,0.2935678959,,,
258.2500000000,32,0.2948487103,,,
258.5000000000,32,0.3102181852,,,
258.7500000000,32,0.2948487103,,,
259.0000000000,32,0.2897256017,,,
259.2500000000,32,0.2884447873,,,
259.5000000000,32,0.2922871113,,,
259.7500000000,32,0.2910063863,,,
260.0000000000,32,0.2884447873,,,
260.2500000000,32,0.2910063863,,,
260.5000000000,32,0.2897256017,,,
260.7500000000,32,0.2897256017,,,
261.0000000000,32,0.2884447873,,,
261.2500000000,32,0.2922871113,,,
261.5000000000,32,0.2884447873,,,
261.7500000000,32,0.2910063863,,,
262.0000000000,32,0.2846024036,,,
262.2500000000,32,0.2935678959,,,
262.5000000000,32,0.2897256017,,,
262.7500000000,32,0.2871640027,,,
263.0000000000,32,0.2884447873,,,
263.2500000000,32,0.2935678959,,,
263.5000000000,32,0.2910063863,,,
263.7500000000,32,0.2922871113,,,
264.0000000000,33,0.2884447873,,,
264.2500000000,33,0.2935678959,,,
264.5000000000,33,0.2884447873,,,
264.7500000000,33,0.2846024036,,,
265.0000000000,33,0.2884447873,,,
265.2500000000,33,0.2935678959,,,
265.5000000000,33,0.2897256017,,,
265.7500000000,33,0.2922871113,,,
266.0000000000,33,0.2858831882,,,
266.2500000000,33,0.2922871113,,,
266.5000000000,33,0.2884447873,,,
266.7500000000,33,0.2922871113,,,
267.0000000000,33,0.2884447873,,,
267.2500000000,33,0.2897256017,,,
267.5000000000,33,0.2794792056,,,
267.7500000000,33,0.2935678959,,,
268.0000000000,33,0.2846024036,,,
268.2500000000,33,0.2897256017,,,
268.5000000000,33,0.2858831882,,,
268.7500000000,33,0.2910063863,,,
269.0000000000,33,0.2884447873,,,
269.2500000000,33,0.2884447873,,,
269.5000000000,33,0.2871640027,,,
269.7500000000,33,0.2897256017,,,
270.0000000000,33,0.2871640027,,,
270.2500000000,33,0.2871640027,,,
270.5000000000,33,0.2846024036,,,
270.7500000000,33,0.2833215892,,,
271.0000000000,33,0.2833215892,,,
271.2500000000,33,0.2833215892,,,
271.5000000000,33,0.2833215892,,,
271.7500000000,33,0.2858831882,,,
272.0000000000,34,0.2846024036,,,
272.2500000000,34,0.2858831882,,,
272.5000000000,34,0.2820408046,,,
272.7500000000,34,0.2846024036,,,
273.0000000000,34,0.2794792056,,,
273.2500000000,34,0.2846024036,,,
273.5000000000,34,0.2833215892,,,
273.7500000000,34,0.2858831882,,,
274.0000000000,34,0.2820408046,,,
274.2500000000,34,0.2858831882,,,
274.5000000000,34,0.2807599902,,,
274.7500000000,34,0.2833215892,,,
275.0000000000,34,0.2820408046,,,
275.2500000000,34,0.2833215892,,,
275.5000000000,34,0.2807599902,,,
275.7500000000,34,0.2807599902,,,
276.0000000000,34,0.2794792056,,,
276.2500000000,34,0.2846024036,,,
276.5000000000,34,0.2794792056,,,
276.7500000000,34,0.2846024036,,,
277.0000000000,34,0.2807599902,,,
277.2500000000,34,0.2858831882,,,
277.5000000000,34,0.2794792056,,,
277.7500000000,34,0.2807599902,,,
278.0000000000,34,0.2794792056,,,
278.2500000000,34,0.2781985104,,,
278.5000000000,34,0.2769176066,,,
278.7500000000,34,0.2781985104,,,
279.0000000000,34,0.2769176066,,,
279.2500000000,34,0.2807599902,,,
279.5000000000,34,0.2769176066,,,
279.7500000000,34,0.2820408046,,,
280.0000000000,35,0.2769176066,,,
280.2500000000,35,0.2820408046,,,
280.5000000000,35,0.2756369114,,,
280.7500000000,35,0.2807599902,,,
281.0000000000,35,0.2769176066,,,
281.2500000000,35,0.2769176066,,,
281.5000000000,35,0.2743560970,,,
281.7500000000,35,0.2807599902,,,
282.0000000000,35,0.2769176066,,,
282.2500000000,35,0.2807599902,,,
282.5000000000,35,0.2756369114,,,
282.7500000000,35,0.2820408046,,,
283.0000000000,35,0.2743560970,,,
283.2500000000,35,0.2781985104,,,
283.5000000000,35,0.2781985104,,,
283.7500000000,35,0.2769176066,,,
284.0000000000,35,0.2769176066,,,
284.2500000000,35,0.2717944980,,,
284.5000000000,35,0.2781985104,,,
284.7500000000,35,0.2743560970,,,
285.0000000000,35,0.2743560970,,,
285.2500000000,35,0.2743560970,,,
285.5000000000,35,0.2756369114,,,
285.7500000000,35,0.2743560970,,,
286.0000000000,35,0.2756369114,,,
286.2500000000,35,0.2717944980,,,
286.5000000000,35,0.2743560970,,,
286.7500000000,35,0.2692328990,,,
287.0000000000,35,0.2769176066,,,
287.2500000000,35,0.2679521143,,,
287.5000000000,35,0.2743560970,,,
287.7500000000,35,0.2743560970,,,
288.0000000000,36,0.2730753124,,,
288.2500000000,36,0.2717944980,,,
288.5000000000,36,0.2717944980,,,
288.7500000000,36,0.2705137134,,,
289.0000000000,36,0.2717944980,,,
289.2500000000,36,0.2717944980,,,
289.5000000000,36,0.2679521143,,,
289.7500000000,36,0.2705137134,,,
290.0000000000,36,0.2705137134,,,
290.2500000000,36,0.2705137134,,,
290.5000000000,36,0.2717944980,,,
290.7500000000,36,0.2717944980,,,
291.0000000000,36,0.2743560970,,,
291.2500000000,36,0.2705137134,,,
291.5000000000,36,0.2756369114,,,
291.7500000000,36,0.2730753124,,,
292.0000000000,36,0.2769176066,,,
292.2500000000,36,0.2717944980,,,
292.5000000000,36,0.2730753124,,,
292.7500000000,36,0.2730753124,,,
293.0000000000,36,0.2717944980,,,
293.2500000000,36,0.2705137134,,,
293.5000000000,36,0.2730753124,,,
293.7500000000,36,0.2756369114,,,
294.0000000000,36,0.2717944980,,,
294.2500000000,36,0.2730753124,,,
294.5000000000,36,0.2705137134,,,
294.7500000000,36,0.2756369114,,,
295.0000000000,36,0.2666712999,,,
295.2500000000,36,0.2717944980,,,
295.5000000000,36,0.2692328990,,,
295.7500000000,36,0.2743560970,,,
296.0000000000,37,0.2692328990,,,
296.2500000000,37,0.2730753124,,,
296.5000000000,37,0.2679521143,,,
296.7500000000,37,0.2730753124,,,
297.0000000000,37,0.2679521143,,,
297.2500000000,37,0.2679521143,,,
297.5000000000,37,0.2679521143,,,
297.7500000000,37,0.2666712999,,,
298.0000000000,37,0.2679521143,,,
298.2500000000,37,0.2730753124,,,
298.5000000000,37,0.2653904855,,,
298.7500000000,37,0.2717944980,,,
299.0000000000,37,0.2653904855,,,
299.2500000000,37,0.2666712999,,,
299.5000000000,37,0.2653904855,,,
299.7500000000,37,0.2717944980,,,
300.0000000000,37,0.2666712999,,,
300.2500000000,37,0.2717944980,,,
300.5000000000,37,0.2602672875,,,
300.7500000000,37,0.2666712999,,,
301.0000000000,37,0.2653904855,,,
301.2500000000,37,0.2705137134,,,
301.5000000000,37,0.2641097009,,,
301.7500000000,37,0.2679521143,,,
302.0000000000,37,0.2641097009,,,
302.2500000000,37,0.2666712999,,,
302.5000000000,37,0.2628288865,,,
302.7500000000,37,0.2641097009,,,
303.0000000000,37,0.2653904855,,,
303.2500000000,37,0.2602672875,,,
303.5000000000,37,0.2615481913,,,
303.7500000000,37,0.2628288865,,,
304.0000000000,38,0.2679521143,,,
304.2500000000,38,0.2641097009,,,
304.5000000000,38,0.2653904855,,,
304.7500000000,38,0.2628288865,,,
305.0000000000,38,0.2641097009,,,
305.2500000000,38,0.2628288865,,,
305.5000000000,38,0.2666712999,,,
305.7500000000,38,0.2628288865,,,
306.0000000000,38,0.2628288865,,,
306.2500000000,38,0.2641097009,,,
306.5000000000,38,0.2615481913,,,
306.7500000000,38,0.2602672875,,,
307.0000000000,38,0.2628288865,,,
307.2500000000,38,0.2602672875,,,
307.5000000000,38,0.2666712999,,,
307.7500000000,38,0.2615481913,,,
308.0000000000,38,0.2653904855,,,
308.2500000000,38,0.2615481913,,,
308.5000000000,38,0.2615481913,,,
308.7500000000,38,0.2564249933,,,
309.0000000000,38,0.2628288865,,,
309.2500000000,38,0.2589865923,,,
309.5000000000,38,0.2615481913,,,
309.7500000000,38,0.2577058077,,,
310.0000000000,38,0.2628288865,,,
310.2500000000,38,0.2589865923,,,
310.5000000000,38,0.2589865923,,,
310.7500000000,38,0.2577058077,,,
311.0000000000,38,0.2577058077,,,
311.2500000000,38,0.2615481913,,,
311.5000000000,38,0.2615481913,,,
311.7500000000,38,0.2602672875,,,
312.0000000000,39,0.2589865923,,,
312.2500000000,39,0.2602672875,,,
312.5000000000,39,0.2564249933,,,
312.7500000000,39,0.2602672875,,,
313.0000000000,39,0.2577058077,,,
313.2500000000,39,0.2589865923,,,
313.5000000000,39,0.2564249933,,,
313.7500000000,39,0.2602672875,,,
314.0000000000,39,0.2577058077,,,
314.2500000000,39,0.2525826097,,,
314.5000000000,39,0.2564249933,,,
314.7500000000,39,0.2577058077,,,
315.0000000000,39,0.2538633943,,,
315.2500000000,39,0.2564249933,,,
315.5000000000,39,0.2551442087,,,
315.7500000000,39,0.2577058077,,,
316.0000000000,39,0.2551442087,,,
316.2500000000,39,0.2577058077,,,
316.5000000000,39,0.2525826097,,,
316.7500000000,39,0.2577058077,,,
317.0000000000,39,0.2500210106,,,
317.2500000000,39,0.2577058077,,,
317.5000000000,39,0.2513017952,,,
317.7500000000,39,0.2564249933,,,
318.0000000000,39,0.2525826097,,,
318.2500000000,39,0.2564249933,,,
318.5000000000,39,0.2513017952,,,
318.7500000000,39,0.2577058077,,,
319.0000000000,39,0.2525826097,,,
319.2500000000,39,0.2513017952,,,
319.5000000000,39,0.2538633943,,,
319.7500000000,39,0.2487401962,,,
