Time:4Hz,Epoch,Channel 1,Event Id,Event Date,Event Duration
0.0000000000,0,1.2748219967,,,
0.2500000000,0,1.2901920080,,,
0.5000000000,0,1.2863490582,,,
0.7500000000,0,1.2863490582,,,
1.0000000000,0,1.2837879658,,,
1.2500000000,0,1.2850680351,,,
1.5000000000,0,1.2773840427,,,
1.7500000000,0,1.2799450159,,,
2.0000000000,0,1.2965960503,,,
2.2500000000,0,1.2991570234,,,
2.5000000000,0,1.2991570234,,,
2.7500000000,0,1.3286149502,,,
3.0000000000,0,1.3286149502,,,
3.2500000000,0,1.3337390423,,,
3.5000000000,0,1.3324580193,,,
3.7500000000,0,1.3337390423,,,
4.0000000000,0,1.3311769962,,,
4.2500000000,0,1.3350189924,,,
4.5000000000,0,1.3260539770,,,
4.7500000000,0,1.3286149502,,,
5.0000000000,0,1.3363000154,,,
5.2500000000,0,1.3324580193,,,
5.5000000000,0,1.3273350000,,,
5.7500000000,0,1.3273350000,,,
6.0000000000,0,1.3222110271,,,
6.2500000000,0,1.3196500540,,,
6.5000000000,0,1.3234920502,,,
6.7500000000,0,1.3170880079,,,
7.0000000000,0,1.3081229925,,,
7.2500000000,0,1.3081229925,,,
7.5000000000,0,1.3029990196,,,
7.7500000000,0,1.2889109850,,,
8.0000000000,1,1.2837879658,,,
8.2500000000,1,1.2786639929,,,
8.5000000000,1,1.2850680351,,,
8.7500000000,1,1.2735409737,,,
9.0000000000,1,1.2748219967,,,
9.2500000000,1,1.2696989775,,,
9.5000000000,1,1.2645759583,,,
9.7500000000,1,1.2568910122,,,
10.0000000000,1,1.2594530582,,,
10.2500000000,1,1.2748219967,,,
10.5000000000,1,1.2543289661,,,
10.7500000000,1,1.2453639507,,,
11.0000000000,1,1.2440830469,,,
11.2500000000,1,1.2402410507,,,
11.5000000000,1,1.2210290432,,,
11.7500000000,1,1.2005360126,,,
12.0000000000,1,1.2095019817,,,
12.2500000000,1,1.2043789625,,,
12.5000000000,1,1.2069400549,,,
12.7500000000,1,1.2005360126,,,
13.0000000000,1,1.2056590319,,,
13.2500000000,1,1.1979750395,,,
13.5000000000,1,1.2005360126,,,
13.7500000000,1,1.1966940165,,,
14.0000000000,1,1.2005360126,,,
14.2500000000,1,1.1992549896,,,
14.5000000000,1,1.2005360126,,,
14.7500000000,1,1.1902899742,,,
15.0000000000,1,1.1877280474,,,
15.2500000000,1,1.1902899742,,,
15.5000000000,1,1.2056590319,,,
15.7500000000,1,1.2043789625,,,
16.0000000000,2,1.2120629549,,,
16.2500000000,2,1.2095019817,,,
16.5000000000,2,1.2095019817,,,
16.7500000000,2,1.2056590319,,,
17.0000000000,2,1.2095019817,,,
17.2500000000,2,1.2030980587,,,
17.5000000000,2,1.1954129934,,,
17.7500000000,2,1.1902899742,,,
18.0000000000,2,1.1979750395,,,
18.2500000000,2,1.1890089512,,,
18.5000000000,2,1.1826050282,,,
18.7500000000,2,1.1915709972,,,
19.0000000000,2,1.1800440550,,,
19.2500000000,2,1.1813240051,,,
19.5000000000,2,1.1787630320,,,
19.7500000000,2,1.1787630320,,,
20.0000000000,2,1.1697969437,,,
20.2500000000,2,1.1736400127,,,
20.5000000000,2,1.1672359705,,,
20.7500000000,2,1.1685160398,,,
21.0000000000,2,1.1595510244,,,
21.2500000000,2,1.1608320475,,,
21.5000000000,2,1.1531469822,,,
21.7500000000,2,1.1557090282,,,
22.0000000000,2,1.1467430592,,,
22.2500000000,2,1.1505850554,,,
22.5000000000,2,1.1467430592,,,
22.7500000000,2,1.1480239630,,,
23.0000000000,2,1.1505850554,,,
23.2500000000,2,1.1697969437,,,
23.5000000000,2,1.1697969437,,,
23.7500000000,2,1.1774820089,,,
24.0000000000,3,1.1749199629,,,
24.2500000000,3,1.1838860512,,,
24.5000000000,3,1.1800440550,,,
24.7500000000,3,1.1582700014,,,
25.0000000000,3,1.1531469822,,,
25.2500000000,3,1.1595510244,,,
25.5000000000,3,1.1595510244,,,
25.7500000000,3,1.1710779667,,,
26.0000000000,3,1.1736400127,,,
26.2500000000,3,1.1890089512,,,
26.5000000000,3,1.1902899742,,,
26.7500000000,3,1.1966940165,,,
27.0000000000,3,1.1928509474,,,
27.2500000000,3,1.1979750395,,,
27.5000000000,3,1.1877280474,,,
27.7500000000,3,1.1890089512,,,
28.0000000000,3,1.1774820089,,,
28.2500000000,3,1.1787630320,,,
28.5000000000,3,1.1685160398,,,
28.7500000000,3,1.1685160398,,,
29.0000000000,3,1.1633930206,,,
29.2500000000,3,1.1633930206,,,
29.5000000000,3,1.1582700014,,,
29.7500000000,3,1.1544280052,,,
30.0000000000,3,1.1505850554,,,
30.2500000000,3,1.1557090282,,,
30.5000000000,3,1.1467430592,,,
30.7500000000,3,1.1493049860,,,
31.0000000000,3,1.1429009438,,,
31.2500000000,3,1.1095999479,,,
31.5000000000,3,1.1095999479,,,
31.7500000000,3,1.1288119555,,,
32.0000000000,4,1.1224080324,,,
32.2500000000,4,1.1198459864,,,
32.5000000000,4,1.1185660362,,,
32.7500000000,4,1.1134419441,,,
33.0000000000,4,1.1160039902,,,
33.2500000000,4,1.1249699593,,,
33.5000000000,4,1.1262500286,,,
33.7500000000,4,1.1352159977,,,
34.0000000000,4,1.1249699593,,,
34.2500000000,4,1.1172850132,,,
34.5000000000,4,1.1134419441,,,
34.7500000000,4,1.1224080324,,,
35.0000000000,4,1.1121619940,,,
35.2500000000,4,1.1160039902,,,
35.5000000000,4,1.0993540287,,,
35.7500000000,4,1.1019150019,,,
36.0000000000,4,1.0916689634,,,
36.2500000000,4,1.0916689634,,,
36.5000000000,4,1.0942310095,,,
36.7500000000,4,1.0942310095,,,
37.0000000000,4,1.0750190020,,,
37.2500000000,4,1.0801420212,,,
37.5000000000,4,1.0852650404,,,
37.7500000000,4,1.0993540287,,,
38.0000000000,4,1.0801420212,,,
38.2500000000,4,1.0737379789,,,
38.5000000000,4,1.0762989521,,,
38.7500000000,4,1.0698959827,,,
39.0000000000,4,1.0724569559,,,
39.2500000000,4,1.0660530329,,,
39.5000000000,4,1.0750190020,,,
39.7500000000,4,1.0622110367,,,
40.0000000000,5,1.0711760521,,,
40.2500000000,5,1.0647720098,,,
40.5000000000,5,1.0852650404,,,
40.7500000000,5,1.0775799751,,,
41.0000000000,5,1.0801420212,,,
41.2500000000,5,1.0762989521,,,
41.5000000000,5,1.0788609982,,,
41.7500000000,5,1.0827029943,,,
42.0000000000,5,1.0762989521,,,
42.2500000000,5,1.0762989521,,,
42.5000000000,5,1.0673340559,,,
42.7500000000,5,1.0724569559,,,
43.0000000000,5,1.0686149597,,,
43.2500000000,5,1.0673340559,,,
43.5000000000,5,1.0634919405,,,
43.7500000000,5,1.0583679676,,,
44.0000000000,5,1.0519640446,,,
44.2500000000,5,1.0558069944,,,
44.5000000000,5,1.0583679676,,,
44.7500000000,5,1.0634919405,,,
45.0000000000,5,1.0570880175,,,
45.2500000000,5,1.0583679676,,,
45.5000000000,5,1.0506839752,,,
45.7500000000,5,1.0506839752,,,
46.0000000000,5,1.0417180061,,,
46.2500000000,5,1.0519640446,,,
46.5000000000,5,1.0353139639,,,
46.7500000000,5,1.0455600023,,,
47.0000000000,5,1.0404369831,,,
47.2500000000,5,1.0455600023,,,
47.5000000000,5,1.0404369831,,,
47.7500000000,5,1.0455600023,,,
48.0000000000,6,1.0391570330,,,
48.2500000000,6,1.0327529907,,,
48.5000000000,6,1.0263489485,,,
48.7500000000,6,1.0276290178,,,
49.0000000000,6,1.0237870216,,,
49.2500000000,6,1.0135409832,,,
49.5000000000,6,1.0225059986,,,
49.7500000000,6,1.0109790564,,,
50.0000000000,6,1.0109790564,,,
50.2500000000,6,1.0045750141,,,
50.5000000000,6,1.0045750141,,,
50.7500000000,6,0.9981712103,,,
51.0000000000,6,0.9904863834,,,
51.2500000000,6,0.9866440892,,,
51.5000000000,6,0.9879248738,,,
51.7500000000,6,0.9840825200,,,
52.0000000000,6,0.9828016758,,,
52.2500000000,6,0.9776784778,,,
52.5000000000,6,0.9815210104,,,
52.7500000000,6,0.9725553989,,,
53.0000000000,6,0.9776784778,,,
53.2500000000,6,0.9712746143,,,
53.5000000000,6,0.9815210104,,,
53.7500000000,6,0.9763978124,,,
54.0000000000,6,0.9815210104,,,
54.2500000000,6,0.9725553989,,,
54.5000000000,6,0.9776784778,,,
54.7500000000,6,0.9725553989,,,
55.0000000000,6,0.9802402258,,,
55.2500000000,6,0.9712746143,,,
55.5000000000,6,0.9699938297,,,
55.7500000000,6,0.9699938297,,,
56.0000000000,7,0.9674322009,,,
56.2500000000,7,0.9610282779,,,
56.5000000000,7,0.9674322009,,,
56.7500000000,7,0.9623091221,,,
57.0000000000,7,0.9648705721,,,
57.2500000000,7,0.9584667087,,,
57.5000000000,7,0.9610282779,,,
57.7500000000,7,0.9737371206,,,
58.0000000000,7,0.9724562764,,,
58.2500000000,7,0.9686139822,,,
58.5000000000,7,0.9673331976,,,
58.7500000000,7,0.9634907842,,,
59.0000000000,7,0.9596483707,,,
59.2500000000,7,0.9596483707,,,
59.5000000000,7,0.9583675861,,,
59.7500000000,7,0.9545252919,,,
60.0000000000,7,0.9545252919,,,
60.2500000000,7,0.9481213093,,,
60.5000000000,7,0.9570869207,,,
60.7500000000,7,0.9532443881,,,
61.0000000000,7,0.9558060765,,,
61.2500000000,7,0.9506828785,,,
61.5000000000,7,0.9532443881,,,
61.7500000000,7,0.9494020939,,,
62.0000000000,7,0.9494020939,,,
62.2500000000,7,0.9494020939,,,
62.5000000000,7,0.9494020939,,,
62.7500000000,7,0.9481213093,,,
63.0000000000,7,0.9494020939,,,
63.2500000000,7,0.9481213093,,,
63.5000000000,7,0.9506828785,,,
63.7500000000,7,0.9429981709,,,
64.0000000000,8,0.9429981709,,,
64.2500000000,8,0.9237862825,,,
64.5000000000,8,0.9289094210,,,
64.7500000000,8,0.9225054979,,,
65.0000000000,8,0.9225054979,,,
65.2500000000,8,0.9212247133,,,
65.5000000000,8,0.9135398865,,,
65.7500000000,8,0.9122592211,,,
66.0000000000,8,0.9084168077,,,
66.2500000000,8,0.9084168077,,,
66.5000000000,8,0.9032936096,,,
66.7500000000,8,0.9032936096,,,
67.0000000000,8,0.9007319808,,,
67.2500000000,8,0.9045743942,,,
67.5000000000,8,0.8879240751,,,
67.7500000000,8,0.8866434097,,,
68.0000000000,8,0.8840817213,,,
68.2500000000,8,0.8840817213,,,
68.5000000000,8,0.8776777983,,,
68.7500000000,8,0.8802394271,,,
69.0000000000,8,0.8776777983,,,
69.2500000000,8,0.8751162291,,,
69.5000000000,8,0.8763970137,,,
69.7500000000,8,0.8687121868,,,
70.0000000000,8,0.8725546002,,,
70.2500000000,8,0.8661506772,,,
70.5000000000,8,0.8687121868,,,
70.7500000000,8,0.8661506772,,,
71.0000000000,8,0.8571851254,,,
71.2500000000,8,0.8533427715,,,
71.5000000000,8,0.8546236157,,,
71.7500000000,8,0.8584659100,,,
72.0000000000,9,0.8495004177,,,
72.2500000000,9,0.8533427715,,,
72.5000000000,9,0.8520619869,,,
72.7500000000,9,0.8405349255,,,
73.0000000000,9,0.8341308832,,,
73.2500000000,9,0.8392540812,,,
73.5000000000,9,0.8302885294,,,
73.7500000000,9,0.8328500986,,,
74.0000000000,9,0.8315693140,,,
74.2500000000,9,0.8341308832,,,
74.5000000000,9,0.8264461160,,,
74.7500000000,9,0.8277270198,,,
75.0000000000,9,0.8277270198,,,
75.2500000000,9,0.8277270198,,,
75.5000000000,9,0.8341308832,,,
75.7500000000,9,0.8328500986,,,
76.0000000000,9,0.8379731774,,,
76.2500000000,9,0.8328500986,,,
76.5000000000,9,0.8328500986,,,
76.7500000000,9,0.8290076852,,,
77.0000000000,9,0.8366925120,,,
77.2500000000,9,0.8315693140,,,
77.5000000000,9,0.8302885294,,,
77.7500000000,9,0.8251652718,,,
78.0000000000,9,0.8213229775,,,
78.2500000000,9,0.8161997795,,,
78.5000000000,9,0.8213229775,,,
78.7500000000,9,0.8123574257,,,
79.0000000000,9,0.8174806237,,,
79.2500000000,9,0.8097959161,,,
79.5000000000,9,0.8136382103,,,
79.7500000000,9,0.8059535027,,,
80.0000000000,10,0.8097959161,,,
80.2500000000,10,0.8046727180,,,
80.5000000000,10,0.8033918738,,,
80.7500000000,10,0.7957072258,,,
81.0000000000,10,0.8033918738,,,
81.2500000000,10,0.7982686758,,,
81.5000000000,10,0.8008303046,,,
81.7500000000,10,0.7931455970,,,
82.0000000000,10,0.7982686758,,,
82.2500000000,10,0.7893031836,,,
82.5000000000,10,0.7969880104,,,
82.7500000000,10,0.7905840278,,,
83.0000000000,10,0.7905840278,,,
83.2500000000,10,0.7867416143,,,
83.5000000000,10,0.7841799855,,,
83.7500000000,10,0.7816184759,,,
84.0000000000,10,0.7816184759,,,
84.2500000000,10,0.7828993201,,,
84.5000000000,10,0.7636873722,,,
84.7500000000,10,0.7636873722,,,
85.0000000000,10,0.7611258030,,,
85.2500000000,10,0.7598450184,,,
85.5000000000,10,0.7572833896,,,
85.7500000000,10,0.7585641742,,,
86.0000000000,10,0.7534409761,,,
86.2500000000,10,0.7585641742,,,
86.5000000000,10,0.7534409761,,,
86.7500000000,10,0.7547218204,,,
87.0000000000,10,0.7508795261,,,
87.2500000000,10,0.7560026050,,,
87.5000000000,10,0.7508795261,,,
87.7500000000,10,0.7572833896,,,
88.0000000000,11,0.7585641742,,,
88.2500000000,11,0.7624065876,,,
88.5000000000,11,0.7585641742,,,
88.7500000000,11,0.7598450184,,,
89.0000000000,11,0.7534409761,,,
89.2500000000,11,0.7624065876,,,
89.5000000000,11,0.7636873722,,,
89.7500000000,11,0.7636873722,,,
90.0000000000,11,0.7611258030,,,
90.2500000000,11,0.7624065876,,,
90.5000000000,11,0.7636873722,,,
90.7500000000,11,0.7598450184,,,
91.0000000000,11,0.7572833896,,,
91.2500000000,11,0.7598450184,,,
91.5000000000,11,0.7534409761,,,
91.7500000000,11,0.7495986819,,,
92.0000000000,11,0.7521603107,,,
92.2500000000,11,0.7470371127,,,
92.5000000000,11,0.7470371127,,,
92.7500000000,11,0.7393522859,,,
93.0000000000,11,0.7406330705,,,
93.2500000000,11,0.7380716205,,,
93.5000000000,11,0.7393522859,,,
93.7500000000,11,0.7367907763,,,
94.0000000000,11,0.7380716205,,,
94.2500000000,11,0.7316675782,,,
94.5000000000,11,0.7367907763,,,
94.7500000000,11,0.7329484224,,,
95.0000000000,11,0.7367907763,,,
95.2500000000,11,0.7291060090,,,
95.5000000000,11,0.7303867936,,,
95.7500000000,11,0.7303867936,,,
96.0000000000,12,0.7316675782,,,
96.2500000000,12,0.7303867936,,,
96.5000000000,12,0.7291060090,,,
96.7500000000,12,0.7252637148,,,
97.0000000000,12,0.7316675782,,,
97.2500000000,12,0.7278252244,,,
97.5000000000,12,0.7303867936,,,
97.7500000000,12,0.7291060090,,,
98.0000000000,12,0.7239828706,,,
98.2500000000,12,0.7278252244,,,
98.5000000000,12,0.7214211822,,,
98.7500000000,12,0.7214211822,,,
99.0000000000,12,0.7175788879,,,
99.2500000000,12,0.7162981033,,,
99.5000000000,12,0.7124556899,,,
99.7500000000,12,0.7086132765,,,
100.0000000000,12,0.7111750245,,,
100.2500000000,12,0.7098941207,,,
100.5000000000,12,0.7201405168,,,
100.7500000000,12,0.7265443802,,,
101.0000000000,12,0.7560026050,,,
101.2500000000,12,0.7713720798,,,
101.5000000000,12,0.7893031836,,,
101.7500000000,12,0.7969880104,,,
102.0000000000,12,0.8072342873,,,
102.2500000000,12,0.7982686758,,,
102.5000000000,12,0.7969880104,,,
102.7500000000,12,0.8046727180,,,
103.0000000000,12,0.7828993201,,,
103.2500000000,12,0.7841799855,,,
103.5000000000,12,0.7790567875,,,
103.7500000000,12,0.7649682164,,,
104.0000000000,13,0.7534409761,,,
104.2500000000,13,0.7534409761,,,
104.5000000000,13,0.7585641742,,,
104.7500000000,13,0.7508795261,,,
105.0000000000,13,0.7534409761,,,
105.2500000000,13,0.7444754839,,,
105.5000000000,13,0.7508795261,,,
105.7500000000,13,0.7457563281,,,
106.0000000000,13,0.7444754839,,,
106.2500000000,13,0.7406330705,,,
106.5000000000,13,0.7470371127,,,
106.7500000000,13,0.7380716205,,,
107.0000000000,13,0.7419139147,,,
107.2500000000,13,0.7380716205,,,
107.5000000000,13,0.7316675782,,,
107.7500000000,13,0.7355099916,,,
108.0000000000,13,0.7252637148,,,
108.2500000000,13,0.7291060090,,,
108.5000000000,13,0.7214211822,,,
108.7500000000,13,0.7175788879,,,
109.0000000000,13,0.7201405168,,,
109.2500000000,13,0.7227020860,,,
109.5000000000,13,0.7162981033,,,
109.7500000000,13,0.7201405168,,,
110.0000000000,13,0.7175788879,,,
110.2500000000,13,0.7175788879,,,
110.5000000000,13,0.7098941207,,,
110.7500000000,13,0.7162981033,,,
111.0000000000,13,0.7111750245,,,
111.2500000000,13,0.7175788879,,,
111.5000000000,13,0.7086132765,,,
111.7500000000,13,0.7188596725,,,
112.0000000000,14,0.7073326111,33025:33024,112.1250000000:112.1875000000,0.0000000000:0.0000000000
112.2500000000,14,0.7162981033,33025:33024:33025,112.3125000000:112.3750000000:112.4687500000,0.0000000000:0.0000000000:0.0000000000
112.5000000000,14,0.7073326111,33024,112.5312500000,0.0000000000
112.7500000000,14,0.7073326111,,,
113.0000000000,14,0.7009286284,,,
113.2500000000,14,0.7047709823,,,
113.5000000000,14,0.6983669996,,,
113.7500000000,14,0.6996477842,,,
114.0000000000,14,0.6919630766,,,
114.2500000000,14,0.6919630766,,,
114.5000000000,14,0.6906822920,,,
114.7500000000,14,0.6919630766,,,
115.0000000000,14,0.6842783093,,,
115.2500000000,14,0.6881207228,,,
115.5000000000,14,0.6829975247,,,
115.7500000000,14,0.6855590940,,,
116.0000000000,14,0.6817166805,,,
116.2500000000,14,0.6817166805,,,
116.5000000000,14,0.6778743863,,,
116.7500000000,14,0.6791551709,,,
117.0000000000,14,0.6778743863,,,
117.2500000000,14,0.6778743863,,,
117.5000000000,14,0.6740319729,,,
117.7500000000,14,0.6727511883,,,
118.0000000000,14,0.6740319729,,,
118.2500000000,14,0.6701896191,,,
118.5000000000,14,0.6701896191,,,
118.7500000000,14,0.6650664806,,,
119.0000000000,14,0.6676279902,,,
119.2500000000,14,0.6586624980,,,
119.5000000000,14,0.6637855768,,,
119.7500000000,14,0.6599432826,,,
120.0000000000,15,0.6637855768,,,
120.2500000000,15,0.6586624980,,,
120.5000000000,15,0.6573817134,,,
120.7500000000,15,0.6535394192,,,
121.0000000000,15,0.6573817134,,,
121.2500000000,15,0.6509776711,,,
121.5000000000,15,0.6522585154,,,
121.7500000000,15,0.6509776711,,,
122.0000000000,15,0.6496968865,,,
122.2500000000,15,0.6458545923,,,
122.5000000000,15,0.6432930231,,,
122.7500000000,15,0.6407313943,,,
123.0000000000,15,0.6484162211,,,
123.2500000000,15,0.6407313943,,,
123.5000000000,15,0.6407313943,,,
123.7500000000,15,0.6356083155,,,
124.0000000000,15,0.6420121789,,,
124.2500000000,15,0.6330466866,,,
124.5000000000,15,0.6356083155,,,
124.7500000000,15,0.6343274713,,,
125.0000000000,15,0.6304851174,,,
125.2500000000,15,0.6253619194,,,
125.5000000000,15,0.6317659020,,,
125.7500000000,15,0.6266427040,,,
126.0000000000,15,0.6253619194,,,
126.2500000000,15,0.6228004098,,,
126.5000000000,15,0.6253619194,,,
126.7500000000,15,0.6202387810,,,
127.0000000000,15,0.6253619194,,,
127.2500000000,15,0.6176772118,,,
127.5000000000,15,0.6215196252,,,
127.7500000000,15,0.6151155829,,,
128.0000000000,16,0.6202387810,,,
128.2500000000,16,0.6151155829,,,
128.5000000000,16,0.6189579964,,,
128.7500000000,16,0.6112732291,,,
129.0000000000,16,0.6176772118,,,
129.2500000000,16,0.6087117195,,,
129.5000000000,16,0.6087117195,,,
129.7500000000,16,0.6010268927,,,
130.0000000000,16,0.6074308753,,,
130.2500000000,16,0.6010268927,,,
130.5000000000,16,0.6010268927,,,
130.7500000000,16,0.5959038138,,,
131.0000000000,16,0.6023076773,,,
131.2500000000,16,0.5933421254,,,
131.5000000000,16,0.5997461081,,,
131.7500000000,16,0.5933421254,,,
132.0000000000,16,0.5984653234,,,
132.2500000000,16,0.5933421254,,,
132.5000000000,16,0.5971844792,,,
132.7500000000,16,0.5920612812,,,
133.0000000000,16,0.5946229100,,,
133.2500000000,16,0.5894997716,,,
133.5000000000,16,0.5882189870,,,
133.7500000000,16,0.5856574178,,,
134.0000000000,16,0.5907806158,,,
134.2500000000,16,0.5805342197,,,
134.5000000000,16,0.5843765736,,,
134.7500000000,16,0.5843765736,,,
135.0000000000,16,0.5869382024,,,
135.2500000000,16,0.5869382024,,,
135.5000000000,16,0.6074308753,,,
135.7500000000,16,0.5830957890,,,
136.0000000000,17,0.5856574178,,,
136.2500000000,17,0.5818150043,,,
136.5000000000,17,0.5856574178,,,
136.7500000000,17,0.5830957890,,,
137.0000000000,17,0.5818150043,,,
137.2500000000,17,0.5754110813,,,
137.5000000000,17,0.5779727101,,,
137.7500000000,17,0.5805342197,,,
138.0000000000,17,0.5754110813,,,
138.2500000000,17,0.5779727101,,,
138.5000000000,17,0.5728495121,,,
138.7500000000,17,0.5779727101,,,
139.0000000000,17,0.5690070987,,,
139.2500000000,17,0.5741302967,,,
139.5000000000,17,0.5690070987,,,
139.7500000000,17,0.5651646852,,,
140.0000000000,17,0.5664455295,,,
140.2500000000,17,0.5690070987,,,
140.5000000000,17,0.5651646852,,,
140.7500000000,17,0.5677263141,,,
141.0000000000,17,0.5613223910,,,
141.2500000000,17,0.5677263141,,,
141.5000000000,17,0.5600414872,,,
141.7500000000,17,0.5626031756,,,
142.0000000000,17,0.5626031756,,,
142.2500000000,17,0.5638840199,,,
142.5000000000,17,0.5574799776,,,
142.7500000000,17,0.5600414872,,,
143.0000000000,17,0.5574799776,,,
143.2500000000,17,0.5587608218,,,
143.5000000000,17,0.5536376238,,,
143.7500000000,17,0.5587608218,,,
144.0000000000,18,0.5485144258,,,
144.2500000000,18,0.5485144258,,,
144.5000000000,18,0.5344256759,,,
144.7500000000,18,0.5510761142,,,
145.0000000000,18,0.5459529161,,,
145.2500000000,18,0.5485144258,,,
145.5000000000,18,0.5421105027,,,
145.7500000000,18,0.5472335815,,,
146.0000000000,18,0.5421105027,,,
146.2500000000,18,0.5459529161,,,
146.5000000000,18,0.5408297181,,,
146.7500000000,18,0.5485144258,,,
147.0000000000,18,0.5369873047,,,
147.2500000000,18,0.5382680893,,,
147.5000000000,18,0.5331450105,,,
147.7500000000,18,0.5408297181,,,
148.0000000000,18,0.5357065201,,,
148.2500000000,18,0.5369873047,,,
148.5000000000,18,0.5305833817,,,
148.7500000000,18,0.5357065201,,,
149.0000000000,18,0.5305833817,,,
149.2500000000,18,0.5344256759,,,
149.5000000000,18,0.5280218124,,,
149.7500000000,18,0.5331450105,,,
150.0000000000,18,0.5254601836,,,
150.2500000000,18,0.5305833817,,,
150.5000000000,18,0.5280218124,,,
150.7500000000,18,0.5280218124,,,
151.0000000000,18,0.5241793990,,,
151.2500000000,18,0.5241793990,,,
151.5000000000,18,0.5203369856,,,
151.7500000000,18,0.5254601836,,,
152.0000000000,19,0.5177754760,,,
152.2500000000,19,0.5203369856,,,
152.5000000000,19,0.5152139068,,,
152.7500000000,19,0.5164946914,,,
153.0000000000,19,0.5164946914,,,
153.2500000000,19,0.5216178298,,,
153.5000000000,19,0.5152139068,,,
153.7500000000,19,0.5203369856,,,
154.0000000000,19,0.5100907087,,,
154.2500000000,19,0.5164946914,,,
154.5000000000,19,0.5100907087,,,
154.7500000000,19,0.5139331222,,,
155.0000000000,19,0.5100907087,,,
155.2500000000,19,0.5088099241,,,
155.5000000000,19,0.5049675703,,,
155.7500000000,19,0.5113714933,,,
156.0000000000,19,0.5062484145,,,
156.2500000000,19,0.5100907087,,,
156.5000000000,19,0.5049675703,,,
156.7500000000,19,0.5062484145,,,
157.0000000000,19,0.5036867857,,,
157.2500000000,19,0.5075290799,,,
157.5000000000,19,0.4985635877,,,
157.7500000000,19,0.5075290799,,,
158.0000000000,19,0.4985635877,,,
158.2500000000,19,0.5036867857,,,
158.5000000000,19,0.4985635877,,,
158.7500000000,19,0.4998444021,,,
159.0000000000,19,0.4972828031,,,
159.2500000000,19,0.4998444021,,,
159.5000000000,19,0.4947212040,,,
159.7500000000,19,0.4985635877,,,
160.0000000000,20,0.4934403896,,,
160.2500000000,20,0.4985635877,,,
160.5000000000,20,0.4895980954,,,
160.7500000000,20,0.4947212040,,,
161.0000000000,20,0.4844748974,,,
161.2500000000,20,0.4895980954,,,
161.5000000000,20,0.4870364964,,,
161.7500000000,20,0.4870364964,,,
162.0000000000,20,0.4831941128,,,
162.2500000000,20,0.4857557118,,,
162.5000000000,20,0.4883173108,,,
162.7500000000,20,0.4806325138,,,
163.0000000000,20,0.4870364964,,,
163.2500000000,20,0.4793516994,,,
163.5000000000,20,0.4819132984,,,
163.7500000000,20,0.4755092859,,,
164.0000000000,20,0.5484454036,,,
164.2500000000,20,0.5458837748,,,
164.5000000000,20,0.5471646190,,,
164.7500000000,20,0.5420414209,,,
165.0000000000,20,0.5433222055,,,
165.2500000000,20,0.5394799113,,,
165.5000000000,20,0.5446029902,,,
165.7500000000,20,0.5381991267,,,
166.0000000000,20,0.5394799113,,,
166.2500000000,20,0.5369182825,,,
166.5000000000,20,0.5317950845,,,
166.7500000000,20,0.5330759287,,,
167.0000000000,20,0.5381991267,,,
167.2500000000,20,0.5356374979,,,
167.5000000000,20,0.5343567133,,,
167.7500000000,20,0.5317950845,,,
168.0000000000,21,0.5369182825,,,
168.2500000000,21,0.5292335153,,,
168.5000000000,21,0.5317950845,,,
168.7500000000,21,0.5305142999,,,
169.0000000000,21,0.5317950845,,,
169.2500000000,21,0.5266718864,,,
169.5000000000,21,0.5317950845,,,
169.7500000000,21,0.5279526711,,,
170.0000000000,21,0.5305142999,,,
170.2500000000,21,0.5253912210,,,
170.5000000000,21,0.5305142999,,,
170.7500000000,21,0.5228294730,,,
171.0000000000,21,0.5279526711,,,
171.2500000000,21,0.5215486884,,,
171.5000000000,21,0.5241103768,,,
171.7500000000,21,0.5202680230,,,
172.0000000000,21,0.5177063942,,,
172.2500000000,21,0.5164256096,,,
172.5000000000,21,0.5202680230,,,
172.7500000000,21,0.5164256096,,,
173.0000000000,21,0.5215486884,,,
173.2500000000,21,0.5177063942,,,
173.5000000000,21,0.5202680230,,,
173.7500000000,21,0.5164256096,,,
174.0000000000,21,0.5189871788,,,
174.2500000000,21,0.5138639808,,,
174.5000000000,21,0.5177063942,,,
174.7500000000,21,0.5113024116,,,
175.0000000000,21,0.5177063942,,,
175.2500000000,21,0.5113024116,,,
175.5000000000,21,0.5151448250,,,
175.7500000000,21,0.5100216269,,,
176.0000000000,22,0.5138639808,,,
176.2500000000,22,0.5100216269,,,
176.5000000000,22,0.5113024116,,,
176.7500000000,22,0.5048984885,,,
177.0000000000,22,0.5074601173,,,
177.2500000000,22,0.5048984885,,,
177.5000000000,22,0.5023369193,,,
177.7500000000,22,0.5023369193,,,
178.0000000000,22,0.5010560751,,,
178.2500000000,22,0.5036177039,,,
178.5000000000,22,0.5023369193,,,
178.7500000000,22,0.5010560751,,,
179.0000000000,22,0.5010560751,,,
179.2500000000,22,0.4959329069,,,
179.5000000000,22,0.4959329069,,,
179.7500000000,22,0.4946522117,,,
180.0000000000,22,0.4959329069,,,
180.2500000000,22,0.4946522117,,,
180.5000000000,22,0.4959329069,,,
180.7500000000,22,0.4984945059,,,
181.0000000000,22,0.4933713973,,,
181.2500000000,22,0.4972136915,,,
181.5000000000,22,0.4908097982,,,
181.7500000000,22,0.4933713973,,,
182.0000000000,22,0.4920906126,,,
182.2500000000,22,0.4946522117,,,
182.5000000000,22,0.4895290136,,,
182.7500000000,22,0.4933713973,,,
183.0000000000,22,0.4856866002,,,
183.2500000000,22,0.4856866002,,,
183.5000000000,22,0.4869674146,,,
183.7500000000,22,0.4882481992,,,
184.0000000000,23,0.4831250012,,,
184.2500000000,23,0.4856866002,,,
184.5000000000,23,0.4805634916,,,
184.7500000000,23,0.4844057858,,,
185.0000000000,23,0.4805634916,,,
185.2500000000,23,0.4805634916,,,
185.5000000000,23,0.4780018926,,,
185.7500000000,23,0.4767211080,,,
186.0000000000,23,0.4780018926,,,
186.2500000000,23,0.4831250012,,,
186.5000000000,23,0.4754402936,,,
186.7500000000,23,0.4767211080,,,
187.0000000000,23,0.4741595089,,,
187.2500000000,23,0.4780018926,,,
187.5000000000,23,0.4715979099,,,
187.7500000000,23,0.4754402936,,,
188.0000000000,23,0.4703170955,,,
188.2500000000,23,0.4741595089,,,
188.5000000000,23,0.4677554965,,,
188.7500000000,23,0.4728786945,,,
189.0000000000,23,0.4651939869,,,
189.2500000000,23,0.4690363109,,,
189.5000000000,23,0.4677554965,,,
189.7500000000,23,0.4703170955,,,
190.0000000000,23,0.4664747119,,,
190.2500000000,23,0.4677554965,,,
190.5000000000,23,0.4831250012,,,
190.7500000000,23,0.4664747119,,,
191.0000000000,23,0.4651939869,,,
191.2500000000,23,0.4639132023,,,
191.5000000000,23,0.4677554965,,,
191.7500000000,23,0.4664747119,,,
192.0000000000,24,0.4664747119,,,
192.2500000000,24,0.4613516033,,,
192.5000000000,24,0.4639132023,,,
192.7500000000,24,0.4613516033,,,
193.0000000000,24,0.4639132023,,,
193.2500000000,24,0.4613516033,,,
193.5000000000,24,0.4626323879,,,
193.7500000000,24,0.4587900043,,,
194.0000000000,24,0.4600707889,,,
194.2500000000,24,0.4562284052,,,
194.5000000000,24,0.4613516033,,,
194.7500000000,24,0.4562284052,,,
195.0000000000,24,0.4587900043,,,
195.2500000000,24,0.4549475908,,,
195.5000000000,24,0.4562284052,,,
195.7500000000,24,0.4536668062,,,
196.0000000000,24,0.4536668062,,,
196.2500000000,24,0.4498245120,,,
196.5000000000,24,0.4511052966,,,
196.7500000000,24,0.4472629130,,,
197.0000000000,24,0.4523861110,,,
197.2500000000,24,0.4472629130,,,
197.5000000000,24,0.4485436976,,,
197.7500000000,24,0.4485436976,,,
198.0000000000,24,0.4485436976,,,
198.2500000000,24,0.4447013140,,,
198.5000000000,24,0.4447013140,,,
198.7500000000,24,0.4434204996,,,
199.0000000000,24,0.4434204996,,,
199.2500000000,24,0.4408589005,,,
199.5000000000,24,0.4434204996,,,
199.7500000000,24,0.4408589005,,,
200.0000000000,25,0.4395780861,,,
200.2500000000,25,0.4421396852,,,
200.5000000000,25,0.4357357919,,,
200.7500000000,25,0.4382973015,,,
201.0000000000,25,0.4331741929,,,
201.2500000000,25,0.4357357919,,,
201.5000000000,25,0.4331741929,,,
201.7500000000,25,0.4370164871,,,
202.0000000000,25,0.4318934083,,,
202.2500000000,25,0.4280509949,,,
202.5000000000,25,0.4267702103,,,
202.7500000000,25,0.4165239036,,,
203.0000000000,25,0.4203662872,,,
203.2500000000,25,0.4280509949,,,
203.5000000000,25,0.4280509949,,,
203.7500000000,25,0.4293318093,,,
204.0000000000,25,0.4293318093,,,
204.2500000000,25,0.4344550073,,,
204.5000000000,25,0.4280509949,,,
204.7500000000,25,0.4293318093,,,
205.0000000000,25,0.4254893959,,,
205.2500000000,25,0.4293318093,,,
205.5000000000,25,0.4254893959,,,
205.7500000000,25,0.4293318093,,,
206.0000000000,25,0.4242086112,,,
206.2500000000,25,0.4254893959,,,
206.5000000000,25,0.4229278862,,,
206.7500000000,25,0.4267702103,,,
207.0000000000,25,0.4216470122,,,
207.2500000000,25,0.4267702103,,,
207.5000000000,25,0.4254893959,,,
207.7500000000,25,0.4293318093,,,
208.0000000000,26,0.4267702103,,,
208.2500000000,26,0.4306125939,,,
208.5000000000,26,0.4280509949,,,
208.7500000000,26,0.4242086112,,,
209.0000000000,26,0.4203662872,,,
209.2500000000,26,0.4114007056,,,
209.5000000000,26,0.4114007056,,,
209.7500000000,26,0.4229278862,,,
210.0000000000,26,0.4203662872,,,
210.2500000000,26,0.4216470122,,,
210.5000000000,26,0.4152430892,,,
210.7500000000,26,0.4216470122,,,
211.0000000000,26,0.4178046882,,,
211.2500000000,26,0.4190855026,,,
211.5000000000,26,0.4139623046,,,
211.7500000000,26,0.4178046882,,,
212.0000000000,26,0.4126814902,,,
212.2500000000,26,0.4152430892,,,
212.5000000000,26,0.4293318093,,,
212.7500000000,26,0.4139623046,,,
213.0000000000,26,0.4101198912,,,
213.2500000000,26,0.4075584114,,,
213.5000000000,26,0.4088391066,,,
213.7500000000,26,0.4126814902,,,
214.0000000000,26,0.4062775970,,,
214.2500000000,26,0.4101198912,,,
214.5000000000,26,0.4062775970,,,
214.7500000000,26,0.4101198912,,,
215.0000000000,26,0.4062775970,,,
215.2500000000,26,0.4101198912,,,
215.5000000000,26,0.4075584114,,,
215.7500000000,26,0.4101198912,,,
216.0000000000,27,0.4075584114,,,
216.2500000000,27,0.4114007056,,,
216.5000000000,27,0.4024352133,,,
216.7500000000,27,0.4049968123,,,
217.0000000000,27,0.4024352133,,,
217.2500000000,27,0.4049968123,,,
217.5000000000,27,0.4024352133,,,
217.7500000000,27,0.4062775970,,,
218.0000000000,27,0.4024352133,,,
218.2500000000,27,0.4024352133,,,
218.5000000000,27,0.4011543989,,,
218.7500000000,27,0.4024352133,,,
219.0000000000,27,0.3998736143,,,
219.2500000000,27,0.4049968123,,,
219.5000000000,27,0.3960312009,,,
219.7500000000,27,0.3998736143,,,
220.0000000000,27,0.3909080923,,,
220.2500000000,27,0.3921887875,,,
220.5000000000,27,0.3870657086,,,
220.7500000000,27,0.3883464932,,,
221.0000000000,27,0.3883464932,,,
221.2500000000,27,0.3896273077,,,
221.5000000000,27,0.3845041096,,,
221.7500000000,27,0.3883464932,,,
222.0000000000,27,0.3857848942,,,
222.2500000000,27,0.3870657086,,,
222.5000000000,27,0.3845041096,,,
222.7500000000,27,0.3896273077,,,
223.0000000000,27,0.3845041096,,,
223.2500000000,27,0.3896273077,,,
223.5000000000,27,0.3870657086,,,
223.7500000000,27,0.3909080923,,,
224.0000000000,28,0.3870657086,,,
224.2500000000,28,0.3832232952,,,
224.5000000000,28,0.3870657086,,,
224.7500000000,28,0.3896273077,,,
225.0000000000,28,0.3857848942,,,
225.2500000000,28,0.3870657086,,,
225.5000000000,28,0.3832232952,,,
225.7500000000,28,0.3832232952,,,
226.0000000000,28,0.3806616962,,,
226.2500000000,28,0.3845041096,,,
226.5000000000,28,0.3806616962,,,
226.7500000000,28,0.3806616962,,,
227.0000000000,28,0.3768194020,,,
227.2500000000,28,0.3755385876,,,
227.5000000000,28,0.3781001866,,,
227.7500000000,28,0.3793809116,,,
228.0000000000,28,0.3755385876,,,
228.2500000000,28,0.3755385876,,,
228.5000000000,28,0.3678537905,,,
228.7500000000,28,0.3716962039,,,
229.0000000000,28,0.3652923107,,,
229.2500000000,28,0.3691346049,,,
229.5000000000,28,0.3704153895,,,
229.7500000000,28,0.3665730059,,,
230.0000000000,28,0.3704153895,,,
230.2500000000,28,0.3755385876,,,
230.5000000000,28,0.3729769886,,,
230.7500000000,28,0.3742578030,,,
231.0000000000,28,0.3729769886,,,
231.2500000000,28,0.3755385876,,,
231.5000000000,28,0.3691346049,,,
231.7500000000,28,0.3934696913,,,
232.0000000000,29,0.3704153895,,,
232.2500000000,29,0.3755385876,,,
232.5000000000,29,0.3716962039,,,
232.7500000000,29,0.3768194020,,,
233.0000000000,29,0.3755385876,,,
233.2500000000,29,0.3793809116,,,
233.5000000000,29,0.3755385876,,,
233.7500000000,29,0.3768194020,,,
234.0000000000,29,0.3729769886,,,
234.2500000000,29,0.3716962039,,,
234.5000000000,29,0.3729769886,,,
234.7500000000,29,0.3691346049,,,
235.0000000000,29,0.3704153895,,,
235.2500000000,29,0.3640114069,,,
235.5000000000,29,0.3678537905,,,
235.7500000000,29,0.3627307117,,,
236.0000000000,29,0.3716962039,,,
236.2500000000,29,0.3665730059,,,
236.5000000000,29,0.3691346049,,,
236.7500000000,29,0.3627307117,,,
237.0000000000,29,0.3678537905,,,
237.2500000000,29,0.3640114069,,,
237.5000000000,29,0.3652923107,,,
237.7500000000,29,0.3614498973,,,
238.0000000000,29,0.3588882983,,,
238.2500000000,29,0.3601691127,,,
238.5000000000,29,0.3601691127,,,
238.7500000000,29,0.3550459146,,,
239.0000000000,29,0.3550459146,,,
239.2500000000,29,0.3524842858,,,
239.5000000000,29,0.3563266993,,,
239.7500000000,29,0.3550459146,,,
240.0000000000,30,0.3614498973,,,
240.2500000000,30,0.3537651002,,,
240.5000000000,30,0.3550459146,,,
240.7500000000,30,0.3422380090,,,
241.0000000000,30,0.3563266993,,,
241.2500000000,30,0.3499226868,,,
241.5000000000,30,0.3537651002,,,
241.7500000000,30,0.3486419916,,,
242.0000000000,30,0.3524842858,,,
242.2500000000,30,0.3601691127,,,
242.5000000000,30,0.3640114069,,,
242.7500000000,30,0.3601691127,,,
243.0000000000,30,0.3614498973,,,
243.2500000000,30,0.3576075137,,,
243.5000000000,30,0.3550459146,,,
243.7500000000,30,0.3512035012,,,
244.0000000000,30,0.3512035012,,,
244.2500000000,30,0.3473612070,,,
244.5000000000,30,0.3524842858,,,
244.7500000000,30,0.3486419916,,,
245.0000000000,30,0.3512035012,,,
245.2500000000,30,0.3460803926,,,
245.5000000000,30,0.3499226868,,,
245.7500000000,30,0.3499226868,,,
246.0000000000,30,0.3537651002,,,
246.2500000000,30,0.3383955956,,,
246.5000000000,30,0.3435187936,,,
246.7500000000,30,0.3396764100,,,
247.0000000000,30,0.3499226868,,,
247.2500000000,30,0.3447996080,,,
247.5000000000,30,0.3473612070,,,
247.7500000000,30,0.3435187936,,,
248.0000000000,31,0.3486419916,,,
248.2500000000,31,0.3627307117,,,
248.5000000000,31,0.3435187936,,,
248.7500000000,31,0.3473612070,,,
249.0000000000,31,0.3371148109,,,
249.2500000000,31,0.3460803926,,,
249.5000000000,31,0.3422380090,,,
249.7500000000,31,0.3447996080,,,
250.0000000000,31,0.3332724869,,,
250.2500000000,31,0.3332724869,,,
250.5000000000,31,0.3307108879,,,
250.7500000000,31,0.3371148109,,,
251.0000000000,31,0.3332724869,,,
251.2500000000,31,0.3409571946,,,
251.5000000000,31,0.3383955956,,,
251.7500000000,31,0.3358340859,,,
252.0000000000,31,0.3358340859,,,
252.2500000000,31,0.3383955956,,,
252.5000000000,31,0.3345532119,,,
252.7500000000,31,0.3371148109,,,
253.0000000000,31,0.3307108879,,,
253.2500000000,31,0.3358340859,,,
253.5000000000,31,0.3332724869,,,
253.7500000000,31,0.3345532119,,,
254.0000000000,31,0.3319917023,,,
254.2500000000,31,0.3332724869,,,
254.5000000000,31,0.3281492889,,,
254.7500000000,31,0.3319917023,,,
255.0000000000,31,0.3294301033,,,
255.2500000000,31,0.3294301033,,,
255.5000000000,31,0.3268685043,,,
255.7500000000,31,0.3294301033,,,
256.0000000000,32,0.3255876899,,,
256.2500000000,32,0.3319917023,,,
256.5000000000,32,0.3255876899,,,
256.7500000000,32,0.3281492889,,,
257.0000000000,32,0.3243069053,,,
257.2500000000,32,0.3179030120,,,
257.5000000000,32,0.3255876899,,,
257.7500000000,32,0.3217453063,,,
258.0000000000,32,0.3191837966,,,
258.2500000000,32,0.3166221976,,,
258.5000000000,32,0.3179030120,,,
258.7500000000,32,0.3166221976,,,
259.0000000000,32,0.3204646111,,,
259.2500000000,32,0.3204646111,,,
259.5000000000,32,0.3230260909,,,
259.7500000000,32,0.3217453063,,,
260.0000000000,32,0.3179030120,,,
260.2500000000,32,0.3127798140,,,
260.5000000000,32,0.3153414130,,,
260.7500000000,32,0.3127798140,,,
261.0000000000,32,0.3179030120,,,
261.2500000000,32,0.3127798140,,,
261.5000000000,32,0.3140605986,,,
261.7500000000,32,0.3140605986,,,
262.0000000000,32,0.3166221976,,,
262.2500000000,32,0.3166221976,,,
262.5000000000,32,0.3191837966,,,
262.7500000000,32,0.3076565862,,,
263.0000000000,32,0.3114989996,,,
263.2500000000,32,0.3089374006,,,
263.5000000000,32,0.3127798140,,,
263.7500000000,32,0.3114989996,,,
264.0000000000,33,0.3166221976,,,
264.2500000000,33,0.3127798140,,,
264.5000000000,33,0.3127798140,,,
264.7500000000,33,0.3127798140,,,
265.0000000000,33,0.3153414130,,,
265.2500000000,33,0.3063758016,,,
265.5000000000,33,0.3050949872,,,
265.7500000000,33,0.3076565862,,,
266.0000000000,33,0.3102181852,,,
266.2500000000,33,0.3089374006,,,
266.5000000000,33,0.3102181852,,,
266.7500000000,33,0.3076565862,,,
267.0000000000,33,0.3102181852,,,
267.2500000000,33,0.3063758016,,,
267.5000000000,33,0.3076565862,,,
267.7500000000,33,0.3063758016,,,
268.0000000000,33,0.3050949872,,,
268.2500000000,33,0.3038142920,,,
268.5000000000,33,0.3076565862,,,
268.7500000000,33,0.3012526929,,,
269.0000000000,33,0.3063758016,,,
269.2500000000,33,0.3050949872,,,
269.5000000000,33,0.3102181852,,,
269.7500000000,33,0.3076565862,,,
270.0000000000,33,0.3102181852,,,
270.2500000000,33,0.3076565862,,,
270.5000000000,33,0.3102181852,,,
270.7500000000,33,0.3063758016,,,
271.0000000000,33,0.3063758016,,,
271.2500000000,33,0.3025335073,,,
271.5000000000,33,0.3063758016,,,
271.7500000000,33,0.3038142920,,,
272.0000000000,34,0.3012526929,,,
272.2500000000,34,0.3012526929,,,
272.5000000000,34,0.3012526929,,,
272.7500000000,34,0.2974103093,,,
273.0000000000,34,0.3012526929,,,
273.2500000000,34,0.2961294949,,,
273.5000000000,34,0.2999719083,,,
273.7500000000,34,0.2897256017,,,
274.0000000000,34,0.2974103093,,,
274.2500000000,34,0.2974103093,,,
274.5000000000,34,0.3012526929,,,
274.7500000000,34,0.2974103093,,,
275.0000000000,34,0.2986910939,,,
275.2500000000,34,0.2935678959,,,
275.5000000000,34,0.2948487103,,,
275.7500000000,34,0.2935678959,,,
276.0000000000,34,0.2935678959,,,
276.2500000000,34,0.2961294949,,,
276.5000000000,34,0.2910063863,,,
276.7500000000,34,0.2961294949,,,
277.0000000000,34,0.2948487103,,,
277.2500000000,34,0.2961294949,,,
277.5000000000,34,0.2897256017,,,
277.7500000000,34,0.2910063863,,,
278.0000000000,34,0.2910063863,,,
278.2500000000,34,0.2884447873,,,
278.5000000000,34,0.2884447873,,,
278.7500000000,34,0.2922871113,,,
279.0000000000,34,0.2858831882,,,
279.2500000000,34,0.2858831882,,,
279.5000000000,34,0.2858831882,,,
279.7500000000,34,0.2884447873,,,
280.0000000000,35,0.2871640027,,,
280.2500000000,35,0.2910063863,,,
280.5000000000,35,0.2833215892,,,
280.7500000000,35,0.2858831882,,,
281.0000000000,35,0.2833215892,,,
281.2500000000,35,0.2858831882,,,
281.5000000000,35,0.2833215892,,,
281.7500000000,35,0.2833215892,,,
282.0000000000,35,0.2781985104,,,
282.2500000000,35,0.2858831882,,,
282.5000000000,35,0.2794792056,,,
282.7500000000,35,0.2858831882,,,
283.0000000000,35,0.2794792056,,,
283.2500000000,35,0.2833215892,,,
283.5000000000,35,0.2807599902,,,
283.7500000000,35,0.2846024036,,,
284.0000000000,35,0.2820408046,,,
284.2500000000,35,0.2833215892,,,
284.5000000000,35,0.2820408046,,,
284.7500000000,35,0.2833215892,,,
285.0000000000,35,0.2846024036,,,
285.2500000000,35,0.2846024036,,,
285.5000000000,35,0.2846024036,,,
285.7500000000,35,0.2871640027,,,
286.0000000000,35,0.2820408046,,,
286.2500000000,35,0.2846024036,,,
286.5000000000,35,0.2807599902,,,
286.7500000000,35,0.2858831882,,,
287.0000000000,35,0.2794792056,,,
287.2500000000,35,0.2833215892,,,
287.5000000000,35,0.2769176066,,,
287.7500000000,35,0.2833215892,,,
288.0000000000,36,0.2781985104,,,
288.2500000000,36,0.2807599902,,,
288.5000000000,36,0.2769176066,,,
288.7500000000,36,0.2781985104,,,
289.0000000000,36,0.2769176066,,,
289.2500000000,36,0.2794792056,,,
289.5000000000,36,0.2743560970,,,
289.7500000000,36,0.2807599902,,,
290.0000000000,36,0.2756369114,,,
290.2500000000,36,0.2781985104,,,
290.5000000000,36,0.2781985104,,,
290.7500000000,36,0.2794792056,,,
291.0000000000,36,0.2769176066,,,
291.2500000000,36,0.2781985104,,,
291.5000000000,36,0.2743560970,,,
291.7500000000,36,0.2781985104,,,
292.0000000000,36,0.2730753124,,,
292.2500000000,36,0.2769176066,,,
292.5000000000,36,0.2717944980,,,
292.7500000000,36,0.2743560970,,,
293.0000000000,36,0.2679521143,,,
293.2500000000,36,0.2743560970,,,
293.5000000000,36,0.2705137134,,,
293.7500000000,36,0.2730753124,,,
294.0000000000,36,0.2705137134,,,
294.2500000000,36,0.2692328990,,,
294.5000000000,36,0.2717944980,,,
294.7500000000,36,0.2679521143,,,
295.0000000000,36,0.2730753124,,,
295.2500000000,36,0.2679521143,,,
295.5000000000,36,0.2705137134,,,
295.7500000000,36,0.2641097009,,,
296.0000000000,37,0.2679521143,,,
296.2500000000,37,0.2666712999,,,
296.5000000000,37,0.2705137134,,,
296.7500000000,37,0.2653904855,,,
297.0000000000,37,0.2705137134,,,
297.2500000000,37,0.2679521143,,,
297.5000000000,37,0.2679521143,,,
297.7500000000,37,0.2846024036,,,
298.0000000000,37,0.2705137134,,,
298.2500000000,37,0.2653904855,,,
298.5000000000,37,0.2615481913,,,
298.7500000000,37,0.2641097009,,,
299.0000000000,37,0.2692328990,,,
299.2500000000,37,0.2641097009,,,
299.5000000000,37,0.2679521143,,,
299.7500000000,37,0.2641097009,,,
300.0000000000,37,0.2679521143,,,
300.2500000000,37,0.2628288865,,,
300.5000000000,37,0.2666712999,,,
300.7500000000,37,0.2628288865,,,
301.0000000000,37,0.2653904855,,,
301.2500000000,37,0.2589865923,,,
301.5000000000,37,0.2628288865,,,
301.7500000000,37,0.2551442087,,,
302.0000000000,37,0.2628288865,,,
302.2500000000,37,0.2589865923,,,
302.5000000000,37,0.2641097009,,,
302.7500000000,37,0.2602672875,,,
303.0000000000,37,0.2615481913,,,
303.2500000000,37,0.2577058077,,,
303.5000000000,37,0.2615481913,,,
303.7500000000,37,0.2564249933,,,
304.0000000000,38,0.2564249933,,,
304.2500000000,38,0.2551442087,,,
304.5000000000,38,0.2577058077,,,
304.7500000000,38,0.2551442087,,,
305.0000000000,38,0.2577058077,,,
305.2500000000,38,0.2551442087,,,
305.5000000000,38,0.2564249933,,,
305.7500000000,38,0.2564249933,,,
306.0000000000,38,0.2564249933,,,
306.2500000000,38,0.2538633943,,,
306.5000000000,38,0.2577058077,,,
306.7500000000,38,0.2513017952,,,
307.0000000000,38,0.2577058077,,,
307.2500000000,38,0.2525826097,,,
307.5000000000,38,0.2551442087,,,
307.7500000000,38,0.2525826097,,,
308.0000000000,38,0.2551442087,,,
308.2500000000,38,0.2500210106,,,
308.5000000000,38,0.2564249933,,,
308.7500000000,38,0.2513017952,,,
309.0000000000,38,0.2564249933,,,
309.2500000000,38,0.2538633943,,,
309.5000000000,38,0.2538633943,,,
309.7500000000,38,0.2538633943,,,
310.0000000000,38,0.2564249933,,,
310.2500000000,38,0.2500210106,,,
310.5000000000,38,0.2538633943,,,
310.7500000000,38,0.2487401962,,,
311.0000000000,38,0.2525826097,,,
311.2500000000,38,0.2500210106,,,
311.5000000000,38,0.2513017952,,,
311.7500000000,38,0.2500210106,,,
