Time:4Hz,Epoch,Channel 1,Event Id,Event Date,Event Duration
0.0000000000,0,1.1199810505,,,
0.2500000000,0,1.1187000275,,,
0.5000000000,0,1.1122959852,,,
0.7500000000,0,1.1122959852,,,
1.0000000000,0,1.1097340584,,,
1.2500000000,0,1.1097340584,,,
1.5000000000,0,1.1097340584,,,
1.7500000000,0,1.1033289433,,,
2.0000000000,0,1.1110149622,,,
2.2500000000,0,1.1058909893,,,
2.5000000000,0,1.1020480394,,,
2.7500000000,0,1.1071720123,,,
3.0000000000,0,1.1020480394,,,
3.2500000000,0,1.1046099663,,,
3.5000000000,0,1.0994859934,,,
3.7500000000,0,1.1020480394,,,
4.0000000000,0,1.0982049704,,,
4.2500000000,0,1.1097340584,,,
4.5000000000,0,1.1148569584,,,
4.7500000000,0,1.1110149622,,,
5.0000000000,0,1.1084530354,,,
5.2500000000,0,1.1071720123,,,
5.5000000000,0,1.1071720123,,,
5.7500000000,0,1.1046099663,,,
6.0000000000,0,1.1020480394,,,
6.2500000000,0,1.1033289433,,,
6.5000000000,0,1.0956430435,,,
6.7500000000,0,1.1020480394,,,
7.0000000000,0,1.0956430435,,,
7.2500000000,0,1.1033289433,,,
7.5000000000,0,1.0969239473,,,
7.7500000000,0,1.0982049704,,,
8.0000000000,1,1.0930809975,,,
8.2500000000,1,1.0917999744,,,
8.5000000000,1,1.0956430435,,,
8.7500000000,1,1.0917999744,,,
9.0000000000,1,1.0930809975,,,
9.2500000000,1,1.0853960514,,,
9.5000000000,1,1.0828340054,,,
9.7500000000,1,1.0853960514,,,
10.0000000000,1,1.0841150284,,,
10.2500000000,1,1.0866769552,,,
10.5000000000,1,1.0802719593,,,
10.7500000000,1,1.0828340054,,,
11.0000000000,1,1.0815529823,,,
11.2500000000,1,1.0751479864,,,
11.5000000000,1,1.0738669634,,,
11.7500000000,1,1.0738669634,,,
12.0000000000,1,1.0713050365,,,
12.2500000000,1,1.0700240135,,,
12.5000000000,1,1.0764290094,,,
12.7500000000,1,1.0725860596,,,
13.0000000000,1,1.0687429905,,,
13.2500000000,1,1.0674619675,,,
13.5000000000,1,1.0649009943,,,
13.7500000000,1,1.0661809444,,,
14.0000000000,1,1.0649009943,,,
14.2500000000,1,1.0700240135,,,
14.5000000000,1,1.0623389482,,,
14.7500000000,1,1.0584959984,,,
15.0000000000,1,1.0636199713,,,
15.2500000000,1,1.0584959984,,,
15.5000000000,1,1.0649009943,,,
15.7500000000,1,1.0559339523,,,
16.0000000000,2,1.0610580444,,,
16.2500000000,2,1.0559339523,,,
16.5000000000,2,1.0559339523,,,
16.7500000000,2,1.0584959984,,,
17.0000000000,2,1.0520910025,,,
17.2500000000,2,1.0546530485,,,
17.5000000000,2,1.0456860065,,,
17.7500000000,2,1.0533720255,,,
18.0000000000,2,1.0482480526,,,
18.2500000000,2,1.0508099794,,,
18.5000000000,2,1.0520910025,,,
18.7500000000,2,1.0495289564,,,
19.0000000000,2,1.0508099794,,,
19.2500000000,2,1.0469670296,,,
19.5000000000,2,1.0495289564,,,
19.7500000000,2,1.0431239605,,,
20.0000000000,2,1.0469670296,,,
20.2500000000,2,1.0392819643,,,
20.5000000000,2,1.0392819643,,,
20.7500000000,2,1.0444049835,,,
21.0000000000,2,1.0405629873,,,
21.2500000000,2,1.0405629873,,,
21.5000000000,2,1.0367200375,,,
21.7500000000,2,1.0405629873,,,
22.0000000000,2,1.0341579914,,,
22.2500000000,2,1.0341579914,,,
22.5000000000,2,1.0380009413,,,
22.7500000000,2,1.0341579914,,,
23.0000000000,2,1.0341579914,,,
23.2500000000,2,1.0290340185,,,
23.5000000000,2,1.0354390144,,,
23.7500000000,2,1.0303150415,,,
24.0000000000,3,1.0354390144,,,
24.2500000000,3,1.0303150415,,,
24.5000000000,3,1.0277529955,,,
24.7500000000,3,1.0303150415,,,
25.0000000000,3,1.0290340185,,,
25.2500000000,3,1.0328769684,,,
25.5000000000,3,1.0239100456,,,
25.7500000000,3,1.0213479996,,,
26.0000000000,3,1.0290340185,,,
26.2500000000,3,1.0213479996,,,
26.5000000000,3,1.0239100456,,,
26.7500000000,3,1.0187859535,,,
27.0000000000,3,1.0251909494,,,
27.2500000000,3,1.0187859535,,,
27.5000000000,3,1.0175060034,,,
27.7500000000,3,1.0213479996,,,
28.0000000000,3,1.0149439573,,,
28.2500000000,3,1.0175060034,,,
28.5000000000,3,1.0111010075,,,
28.7500000000,3,1.0162249804,,,
29.0000000000,3,1.0098199844,,,
29.2500000000,3,1.0149439573,,,
29.5000000000,3,1.0162249804,,,
29.7500000000,3,1.0098199844,,,
30.0000000000,3,1.0111010075,,,
30.2500000000,3,1.0059770346,,,
30.5000000000,3,1.0111010075,,,
30.7500000000,3,1.0072580576,,,
31.0000000000,3,1.0098199844,,,
31.2500000000,3,1.0008529425,,,
31.5000000000,3,1.0072580576,,,
31.7500000000,3,1.0111010075,,,
32.0000000000,4,1.0008529425,,,
32.2500000000,4,1.0046960115,,,
32.5000000000,4,1.0021339655,,,
32.7500000000,4,1.0059770346,,,
33.0000000000,4,0.9995722771,,,
33.2500000000,4,1.0046960115,,,
33.5000000000,4,1.0046960115,,,
33.7500000000,4,0.9982913733,,,
34.0000000000,4,0.9970104098,,,
34.2500000000,4,0.9982913733,,,
34.5000000000,4,1.0008529425,,,
34.7500000000,4,0.9957293868,,,
35.0000000000,4,0.9944484830,,,
35.2500000000,4,0.9893246889,,,
35.5000000000,4,0.9931675792,,,
35.7500000000,4,0.9982913733,,,
36.0000000000,4,0.9918866158,,,
36.2500000000,4,0.9944484830,,,
36.5000000000,4,0.9893246889,,,
36.7500000000,4,0.9880437851,,,
37.0000000000,4,0.9880437851,,,
37.2500000000,4,0.9880437851,,,
37.5000000000,4,0.9944484830,,,
37.7500000000,4,0.9880437851,,,
38.0000000000,4,0.9918866158,,,
38.2500000000,4,0.9842010140,,,
38.5000000000,4,0.9842010140,,,
38.7500000000,4,0.9854819179,,,
39.0000000000,4,0.9880437851,,,
39.2500000000,4,0.9854819179,,,
39.5000000000,4,0.9816390872,,,
39.7500000000,4,0.9842010140,,,
40.0000000000,5,0.9816390872,,,
40.2500000000,5,0.9816390872,,,
40.5000000000,5,0.9867628813,,,
40.7500000000,5,0.9790772200,,,
41.0000000000,5,0.9803581238,,,
41.2500000000,5,0.9765152931,,,
41.5000000000,5,0.9777963161,,,
41.7500000000,5,0.9803581238,,,
42.0000000000,5,0.9739534259,,,
42.2500000000,5,0.9752343297,,,
42.5000000000,5,0.9752343297,,,
42.7500000000,5,0.9765152931,,,
43.0000000000,5,0.9701104760,,,
43.2500000000,5,0.9726725221,,,
43.5000000000,5,0.9777963161,,,
43.7500000000,5,0.9752343297,,,
44.0000000000,5,0.9752343297,,,
44.2500000000,5,0.9688295722,,,
44.5000000000,5,0.9726725221,,,
44.7500000000,5,0.9739534259,,,
45.0000000000,5,0.9649868011,,,
45.2500000000,5,0.9688295722,,,
45.5000000000,5,0.9611439705,,,
45.7500000000,5,0.9688295722,,,
46.0000000000,5,0.9649868011,,,
46.2500000000,5,0.9624248743,,,
46.5000000000,5,0.9688295722,,,
46.7500000000,5,0.9624248743,,,
47.0000000000,5,0.9675487280,,,
47.2500000000,5,0.9624248743,,,
47.5000000000,5,0.9637057781,,,
47.7500000000,5,0.9611439705,,,
48.0000000000,6,0.9598630071,,,
48.2500000000,6,0.9649868011,,,
48.5000000000,6,0.9573010802,,,
48.7500000000,6,0.9637057781,,,
49.0000000000,6,0.9585819840,,,
49.2500000000,6,0.9624248743,,,
49.5000000000,6,0.9547392130,,,
49.7500000000,6,0.9573010802,,,
50.0000000000,6,0.9585819840,,,
50.2500000000,6,0.9547392130,,,
50.5000000000,6,0.9547392130,,,
50.7500000000,6,0.9521772861,,,
51.0000000000,6,0.9560201764,,,
51.2500000000,6,0.9496154189,,,
51.5000000000,6,0.9879447222,,,
51.7500000000,6,0.9917876124,,,
52.0000000000,6,0.9853829145,,,
52.2500000000,6,0.9879447222,,,
52.5000000000,6,0.9853829145,,,
52.7500000000,6,0.9879447222,,,
53.0000000000,6,0.9841018915,,,
53.2500000000,6,0.9789780974,,,
53.5000000000,6,0.9815400243,,,
53.7500000000,6,0.9789780974,,,
54.0000000000,6,0.9828209877,,,
54.2500000000,6,0.9789780974,,,
54.5000000000,6,0.9789780974,,,
54.7500000000,6,0.9751353264,,,
55.0000000000,6,0.9776971936,,,
55.2500000000,6,0.9751353264,,,
55.5000000000,6,0.9725733995,,,
55.7500000000,6,0.9725733995,,,
56.0000000000,7,0.9725733995,,,
56.2500000000,7,0.9776971936,,,
56.5000000000,7,0.9687306285,,,
56.7500000000,7,0.9712923765,,,
57.0000000000,7,0.9712923765,,,
57.2500000000,7,0.9687306285,,,
57.5000000000,7,0.9700114727,,,
57.7500000000,7,0.9674496055,,,
58.0000000000,7,0.9687306285,,,
58.2500000000,7,0.9623258114,,,
58.5000000000,7,0.9636067748,,,
58.7500000000,7,0.9648876786,,,
59.0000000000,7,0.9597638845,,,
59.2500000000,7,0.9636067748,,,
59.5000000000,7,0.9623258114,,,
59.7500000000,7,0.9636067748,,,
60.0000000000,7,0.9572020769,,,
60.2500000000,7,0.9623258114,,,
60.5000000000,7,0.9610449076,,,
60.7500000000,7,0.9584829807,,,
61.0000000000,7,0.9597638845,,,
61.2500000000,7,0.9559211135,,,
61.5000000000,7,0.9584829807,,,
61.7500000000,7,0.9572020769,,,
62.0000000000,7,0.9597638845,,,
62.2500000000,7,0.9520782828,,,
62.5000000000,7,0.9546402097,,,
62.7500000000,7,0.9533591866,,,
63.0000000000,7,0.9507973194,,,
63.2500000000,7,0.9520782828,,,
63.5000000000,7,0.9507973194,,,
63.7500000000,7,0.9533591866,,,
64.0000000000,8,0.9482355118,,,
64.2500000000,8,0.9495164156,,,
64.5000000000,8,0.9482355118,,,
64.7500000000,8,0.9431117177,,,
65.0000000000,8,0.9456735253,,,
65.2500000000,8,0.9418306947,,,
65.5000000000,8,0.9469544888,,,
65.7500000000,8,0.9405496716,,,
66.0000000000,8,0.9431117177,,,
66.2500000000,8,0.9443926215,,,
66.5000000000,8,0.9405496716,,,
66.7500000000,8,0.9418306947,,,
67.0000000000,8,0.9354259968,,,
67.2500000000,8,0.9418306947,,,
67.5000000000,8,0.9379879236,,,
67.7500000000,8,0.9367069006,,,
68.0000000000,8,0.9379879236,,,
68.2500000000,8,0.9341449738,,,
68.5000000000,8,0.9405496716,,,
68.7500000000,8,0.9354259968,,,
69.0000000000,8,0.9379879236,,,
69.2500000000,8,0.9341449738,,,
69.5000000000,8,0.9341449738,,,
69.7500000000,8,0.9367069006,,,
70.0000000000,8,0.9341449738,,,
70.2500000000,8,0.9354259968,,,
70.5000000000,8,0.9303022027,,,
70.7500000000,8,0.9341449738,,,
71.0000000000,8,0.9315832257,,,
71.2500000000,8,0.9315832257,,,
71.5000000000,8,0.9328641295,,,
71.7500000000,8,0.9303022027,,,
72.0000000000,9,0.9328641295,,,
72.2500000000,9,0.9251784086,,,
72.5000000000,9,0.9251784086,,,
72.7500000000,9,0.9290211797,,,
73.0000000000,9,0.9264593720,,,
73.2500000000,9,0.9264593720,,,
73.5000000000,9,0.9264593720,,,
73.7500000000,9,0.9277402759,,,
74.0000000000,9,0.9238973856,,,
74.2500000000,9,0.9251784086,,,
74.5000000000,9,0.9251784086,,,
74.7500000000,9,0.9226164818,,,
75.0000000000,9,0.9251784086,,,
75.2500000000,9,0.9174926877,,,
75.5000000000,9,0.9303022027,,,
75.7500000000,9,0.9328641295,,,
76.0000000000,9,0.9303022027,,,
76.2500000000,9,0.9303022027,,,
76.5000000000,9,0.9290211797,,,
76.7500000000,9,0.9303022027,,,
77.0000000000,9,0.9303022027,,,
77.2500000000,9,0.9303022027,,,
77.5000000000,9,0.9226164818,,,
77.7500000000,9,0.9200546145,,,
78.0000000000,9,0.9213355780,,,
78.2500000000,9,0.9200546145,,,
78.5000000000,9,0.9200546145,,,
78.7500000000,9,0.9213355780,,,
79.0000000000,9,0.9251784086,,,
79.2500000000,9,0.9174926877,,,
79.5000000000,9,0.9187737107,,,
79.7500000000,9,0.9213355780,,,
80.0000000000,10,0.9149308801,,,
80.2500000000,10,0.9162117839,,,
80.5000000000,10,0.9136499166,,,
80.7500000000,10,0.9136499166,,,
81.0000000000,10,0.9110879898,,,
81.2500000000,10,0.9123690128,,,
81.5000000000,10,0.9149308801,,,
81.7500000000,10,0.9123690128,,,
82.0000000000,10,0.9149308801,,,
82.2500000000,10,0.9123690128,,,
82.5000000000,10,0.9149308801,,,
82.7500000000,10,0.9085261226,,,
83.0000000000,10,0.9123690128,,,
83.2500000000,10,0.9072452188,,,
83.5000000000,10,0.9085261226,,,
83.7500000000,10,0.9098070860,,,
84.0000000000,10,0.9059643149,,,
84.2500000000,10,0.9046832919,,,
84.5000000000,10,0.9021214247,,,
84.7500000000,10,0.9072452188,,,
85.0000000000,10,0.9034023285,,,
85.2500000000,10,0.9046832919,,,
85.5000000000,10,0.9008405209,,,
85.7500000000,10,0.8995594978,,,
86.0000000000,10,0.9008405209,,,
86.2500000000,10,0.8969975710,,,
86.5000000000,10,0.8969975710,,,
86.7500000000,10,0.8969975710,,,
87.0000000000,10,0.8995594978,,,
87.2500000000,10,0.8931547999,,,
87.5000000000,10,0.8931547999,,,
87.7500000000,10,0.8944357038,,,
88.0000000000,11,0.8918737769,,,
88.2500000000,11,0.8931547999,,,
88.5000000000,11,0.8893120289,,,
88.7500000000,11,0.8944357038,,,
89.0000000000,11,0.8867499828,,,
89.2500000000,11,0.8944357038,,,
89.5000000000,11,0.8918737769,,,
89.7500000000,11,0.8867499828,,,
90.0000000000,11,0.8880310059,,,
90.2500000000,11,0.8854690790,,,
90.5000000000,11,0.8880310059,,,
90.7500000000,11,0.8854690790,,,
91.0000000000,11,0.8854690790,,,
91.2500000000,11,0.8829072118,,,
91.5000000000,11,0.8829072118,,,
91.7500000000,11,0.8765025139,,,
92.0000000000,11,0.8829072118,,,
92.2500000000,11,0.8803452849,,,
92.5000000000,11,0.8790643811,,,
92.7500000000,11,0.8816261888,,,
93.0000000000,11,0.8790643811,,,
93.2500000000,11,0.8829072118,,,
93.5000000000,11,0.8829072118,,,
93.7500000000,11,0.8765025139,,,
94.0000000000,11,0.8777834177,,,
94.2500000000,11,0.8752216101,,,
94.5000000000,11,0.8777834177,,,
94.7500000000,11,0.8765025139,,,
95.0000000000,11,0.8726596832,,,
95.2500000000,11,0.8765025139,,,
95.5000000000,11,0.8752216101,,,
95.7500000000,11,0.8816261888,,,
96.0000000000,12,0.8854690790,,,
96.2500000000,12,0.8969975710,,,
96.5000000000,12,0.9008405209,,,
96.7500000000,12,0.9123690128,,,
97.0000000000,12,0.9098070860,,,
97.2500000000,12,0.9059643149,,,
97.5000000000,12,0.9072452188,,,
97.7500000000,12,0.8982784748,,,
98.0000000000,12,0.9034023285,,,
98.2500000000,12,0.8957167268,,,
98.5000000000,12,0.8944357038,,,
98.7500000000,12,0.8918737769,,,
99.0000000000,12,0.8893120289,,,
99.2500000000,12,0.8905928731,,,
99.5000000000,12,0.8893120289,,,
99.7500000000,12,0.8867499828,,,
100.0000000000,12,0.8841881752,,,
100.2500000000,12,0.8918737769,,,
100.5000000000,12,0.8816261888,,,
100.7500000000,12,0.8841881752,,,
101.0000000000,12,0.8841881752,,,
101.2500000000,12,0.8816261888,,,
101.5000000000,12,0.8841881752,,,
101.7500000000,12,0.8790643811,,,
102.0000000000,12,0.8841881752,,,
102.2500000000,12,0.8790643811,,,
102.5000000000,12,0.8803452849,,,
102.7500000000,12,0.8803452849,,,
103.0000000000,12,0.8803452849,,,
103.2500000000,12,0.8803452849,,,
103.5000000000,12,0.8777834177,,,
103.7500000000,12,0.8829072118,,,
104.0000000000,13,0.8752216101,,,
104.2500000000,13,0.8752216101,,,
104.5000000000,13,0.8765025139,,,
104.7500000000,13,0.8752216101,,,
105.0000000000,13,0.8752216101,,,
105.2500000000,13,0.8713787198,,,
105.5000000000,13,0.8752216101,,,
105.7500000000,13,0.8739405870,,,
106.0000000000,13,0.8726596832,,,
106.2500000000,13,0.8752216101,,,
106.5000000000,13,0.8765025139,,,
106.7500000000,13,0.8803452849,,,
107.0000000000,13,0.8777834177,,,
107.2500000000,13,0.8841881752,,,
107.5000000000,13,0.8829072118,,,
107.7500000000,13,0.8777834177,,,
108.0000000000,13,0.8713787198,,,
108.2500000000,13,0.8765025139,,,
108.5000000000,13,0.8752216101,,,
108.7500000000,13,0.8726596832,,,
109.0000000000,13,0.8688167930,,,
109.2500000000,13,0.8688167930,,,
109.5000000000,13,0.8726596832,,,
109.7500000000,13,0.8726596832,,,
110.0000000000,13,0.8726596832,,,
110.2500000000,13,0.8713787198,,,
110.5000000000,13,0.8752216101,,,
110.7500000000,13,0.8675358891,,,
111.0000000000,13,0.8739405870,,,
111.2500000000,13,0.8700978160,,,
111.5000000000,13,0.8662549257,,,
111.7500000000,13,0.8700978160,,,
112.0000000000,14,0.8649740219,33025:33024,112.0937500000:112.1875000000,0.0000000000:0.0000000000
112.2500000000,14,0.8675358891,33025:33024,112.3125000000:112.4375000000,0.0000000000:0.0000000000
112.5000000000,14,0.8624120951,33025:33024,112.5312500000:112.6250000000,0.0000000000:0.0000000000
112.7500000000,14,0.8700978160,,,
113.0000000000,14,0.8649740219,,,
113.2500000000,14,0.8675358891,,,
113.5000000000,14,0.8611310720,,,
113.7500000000,14,0.8611310720,,,
114.0000000000,14,0.8662549257,,,
114.2500000000,14,0.8649740219,,,
114.5000000000,14,0.8700978160,,,
114.7500000000,14,0.8662549257,,,
115.0000000000,14,0.8726596832,,,
115.2500000000,14,0.8662549257,,,
115.5000000000,14,0.8649740219,,,
115.7500000000,14,0.8649740219,,,
116.0000000000,14,0.8624120951,,,
116.2500000000,14,0.8521645069,,,
116.5000000000,14,0.8585693240,,,
116.7500000000,14,0.8598502278,,,
117.0000000000,14,0.8572883010,,,
117.2500000000,14,0.8598502278,,,
117.5000000000,14,0.8547263741,,,
117.7500000000,14,0.8534454703,,,
118.0000000000,14,0.8560072780,,,
118.2500000000,14,0.8521645069,,,
118.5000000000,14,0.8534454703,,,
118.7500000000,14,0.8496025801,,,
119.0000000000,14,0.8508836031,,,
119.2500000000,14,0.8496025801,,,
119.5000000000,14,0.8483216763,,,
119.7500000000,14,0.8534454703,,,
120.0000000000,15,0.8457598090,,,
120.2500000000,15,0.8483216763,,,
120.5000000000,15,0.8457598090,,,
120.7500000000,15,0.8483216763,,,
121.0000000000,15,0.8444787860,,,
121.2500000000,15,0.8457598090,,,
121.5000000000,15,0.8470407724,,,
121.7500000000,15,0.8406360149,,,
122.0000000000,15,0.8419169784,,,
122.2500000000,15,0.8419169784,,,
122.5000000000,15,0.8431978822,,,
122.7500000000,15,0.8380740881,,,
123.0000000000,15,0.8393551111,,,
123.2500000000,15,0.8406360149,,,
123.5000000000,15,0.8367931843,,,
123.7500000000,15,0.8393551111,,,
124.0000000000,15,0.8380740881,,,
124.2500000000,15,0.8444787860,,,
124.5000000000,15,0.8419169784,,,
124.7500000000,15,0.8483216763,,,
125.0000000000,15,0.8483216763,,,
125.2500000000,15,0.8496025801,,,
125.5000000000,15,0.8508836031,,,
125.7500000000,15,0.8496025801,,,
126.0000000000,15,0.8496025801,,,
126.2500000000,15,0.8431978822,,,
126.5000000000,15,0.8431978822,,,
126.7500000000,15,0.8431978822,,,
127.0000000000,15,0.8431978822,,,
127.2500000000,15,0.8380740881,,,
127.5000000000,15,0.8367931843,,,
127.7500000000,15,0.8431978822,,,
128.0000000000,16,0.8380740881,,,
128.2500000000,16,0.8380740881,,,
128.5000000000,16,0.8367931843,,,
128.7500000000,16,0.8355122209,,,
129.0000000000,16,0.8355122209,,,
129.2500000000,16,0.8329504132,,,
129.5000000000,16,0.8342313170,,,
129.7500000000,16,0.8329504132,,,
130.0000000000,16,0.8278266191,,,
130.2500000000,16,0.8342313170,,,
130.5000000000,16,0.8278266191,,,
130.7500000000,16,0.8303884864,,,
131.0000000000,16,0.8303884864,,,
131.2500000000,16,0.8316693902,,,
131.5000000000,16,0.8265455961,,,
131.7500000000,16,0.8278266191,,,
132.0000000000,16,0.8457598090,,,
132.2500000000,16,0.8291075230,,,
132.5000000000,16,0.8303884864,,,
132.7500000000,16,0.8239837289,,,
133.0000000000,16,0.8303884864,,,
133.2500000000,16,0.8239837289,,,
133.5000000000,16,0.8252646923,,,
133.7500000000,16,0.8265455961,,,
134.0000000000,16,0.8239837289,,,
134.2500000000,16,0.8239837289,,,
134.5000000000,16,0.8227028251,,,
134.7500000000,16,0.8239837289,,,
135.0000000000,16,0.8175789714,,,
135.2500000000,16,0.8227028251,,,
135.5000000000,16,0.8201408982,,,
135.7500000000,16,0.8227028251,,,
136.0000000000,17,0.8201408982,,,
136.2500000000,17,0.8188598752,,,
136.5000000000,17,0.8214219213,,,
136.7500000000,17,0.8137360811,,,
137.0000000000,17,0.8137360811,,,
137.2500000000,17,0.8175789714,,,
137.5000000000,17,0.8137360811,,,
137.7500000000,17,0.8162981272,,,
138.0000000000,17,0.8137360811,,,
138.2500000000,17,0.8175789714,,,
138.5000000000,17,0.8111742735,,,
138.7500000000,17,0.8124551773,,,
139.0000000000,17,0.8124551773,,,
139.2500000000,17,0.8124551773,,,
139.5000000000,17,0.8124551773,,,
139.7500000000,17,0.8124551773,,,
140.0000000000,17,0.8137360811,,,
140.2500000000,17,0.8124551773,,,
140.5000000000,17,0.8111742735,,,
140.7500000000,17,0.8086124063,,,
141.0000000000,17,0.8060504794,,,
141.2500000000,17,0.8098933101,,,
141.5000000000,17,0.8047695756,,,
141.7500000000,17,0.8060504794,,,
142.0000000000,17,0.8060504794,,,
142.2500000000,17,0.8047695756,,,
142.5000000000,17,0.8047695756,,,
142.7500000000,17,0.8034886122,,,
143.0000000000,17,0.8073313832,,,
143.2500000000,17,0.8047695756,,,
143.5000000000,17,0.8009266853,,,
143.7500000000,17,0.8022075891,,,
144.0000000000,18,0.8022075891,,,
144.2500000000,18,0.8073313832,,,
144.5000000000,18,0.8034886122,,,
144.7500000000,18,0.8009266853,,,
145.0000000000,18,0.8009266853,,,
145.2500000000,18,0.7983648181,,,
145.5000000000,18,0.8060504794,,,
145.7500000000,18,0.7970839143,,,
146.0000000000,18,0.8009266853,,,
146.2500000000,18,0.7996457815,,,
146.5000000000,18,0.7958030105,,,
146.7500000000,18,0.7996457815,,,
147.0000000000,18,0.7958030105,,,
147.2500000000,18,0.7996457815,,,
147.5000000000,18,0.8009266853,,,
147.7500000000,18,0.7945219874,,,
148.0000000000,18,0.7958030105,,,
148.2500000000,18,0.7945219874,,,
148.5000000000,18,0.7983648181,,,
148.7500000000,18,0.7958030105,,,
149.0000000000,18,0.7919601202,,,
149.2500000000,18,0.7945219874,,,
149.5000000000,18,0.7919601202,,,
149.7500000000,18,0.7932410240,,,
150.0000000000,18,0.7906792164,,,
150.2500000000,18,0.7945219874,,,
150.5000000000,18,0.7958030105,,,
150.7500000000,18,0.7906792164,,,
151.0000000000,18,0.7893981934,,,
151.2500000000,18,0.7881171703,,,
151.5000000000,18,0.7906792164,,,
151.7500000000,18,0.7855554223,,,
152.0000000000,19,0.7829934955,,,
152.2500000000,19,0.7868363261,,,
152.5000000000,19,0.7855554223,,,
152.7500000000,19,0.7906792164,,,
153.0000000000,19,0.7855554223,,,
153.2500000000,19,0.7893981934,,,
153.5000000000,19,0.7855554223,,,
153.7500000000,19,0.7842743993,,,
154.0000000000,19,0.7855554223,,,
154.2500000000,19,0.7842743993,,,
154.5000000000,19,0.7842743993,,,
154.7500000000,19,0.7778697014,,,
155.0000000000,19,0.7817124724,,,
155.2500000000,19,0.7842743993,,,
155.5000000000,19,0.7817124724,,,
155.7500000000,19,0.7868363261,,,
156.0000000000,19,0.7804316282,,,
156.2500000000,19,0.7829934955,,,
156.5000000000,19,0.7855554223,,,
156.7500000000,19,0.7791507244,,,
157.0000000000,19,0.7817124724,,,
157.2500000000,19,0.7804316282,,,
157.5000000000,19,0.7778697014,,,
157.7500000000,19,0.7855554223,,,
158.0000000000,19,0.7817124724,,,
158.2500000000,19,0.7842743993,,,
158.5000000000,19,0.7765886784,,,
158.7500000000,19,0.7804316282,,,
159.0000000000,19,0.7778697014,,,
159.2500000000,19,0.7778697014,,,
159.5000000000,19,0.7804316282,,,
159.7500000000,19,0.7753077745,,,
160.0000000000,20,0.7791507244,,,
160.2500000000,20,0.7676221132,,,
160.5000000000,20,0.7765886784,,,
160.7500000000,20,0.7778697014,,,
161.0000000000,20,0.7765886784,,,
161.2500000000,20,0.7753077745,,,
161.5000000000,20,0.7714648843,,,
161.7500000000,20,0.7740268707,,,
162.0000000000,20,0.7714648843,,,
162.2500000000,20,0.7714648843,,,
162.5000000000,20,0.7740268707,,,
162.7500000000,20,0.7714648843,,,
163.0000000000,20,0.7701839805,,,
163.2500000000,20,0.7714648843,,,
163.5000000000,20,0.7740268707,,,
163.7500000000,20,0.7740268707,,,
164.0000000000,20,0.7714648843,,,
164.2500000000,20,0.7714648843,,,
164.5000000000,20,0.7663412094,,,
164.7500000000,20,0.7689030766,,,
165.0000000000,20,0.7650601864,,,
165.2500000000,20,0.7637792826,,,
165.5000000000,20,0.7663412094,,,
165.7500000000,20,0.7612174153,,,
166.0000000000,20,0.7689030766,,,
166.2500000000,20,0.7676221132,,,
166.5000000000,20,0.7676221132,,,
166.7500000000,20,0.7624983788,,,
167.0000000000,20,0.7650601864,,,
167.2500000000,20,0.7663412094,,,
167.5000000000,20,0.7612174153,,,
167.7500000000,20,0.7637792826,,,
168.0000000000,21,0.7612174153,,,
168.2500000000,21,0.7650601864,,,
168.5000000000,21,0.7586554885,,,
168.7500000000,21,0.7637792826,,,
169.0000000000,21,0.7689030766,,,
169.2500000000,21,0.7650601864,,,
169.5000000000,21,0.7714648843,,,
169.7500000000,21,0.7650601864,,,
170.0000000000,21,0.7714648843,,,
170.2500000000,21,0.7689030766,,,
170.5000000000,21,0.7676221132,,,
170.7500000000,21,0.7689030766,,,
171.0000000000,21,0.7624983788,,,
171.2500000000,21,0.7637792826,,,
171.5000000000,21,0.7612174153,,,
171.7500000000,21,0.7663412094,,,
172.0000000000,21,0.7650601864,,,
172.2500000000,21,0.7612174153,,,
172.5000000000,21,0.7624983788,,,
172.7500000000,21,0.7599365115,,,
173.0000000000,21,0.7624983788,,,
173.2500000000,21,0.7560936213,,,
173.5000000000,21,0.7586554885,,,
173.7500000000,21,0.7573745847,,,
174.0000000000,21,0.7535318136,,,
174.2500000000,21,0.7599365115,,,
174.5000000000,21,0.7535318136,,,
174.7500000000,21,0.7560936213,,,
175.0000000000,21,0.7522507906,,,
175.2500000000,21,0.7522507906,,,
175.5000000000,21,0.7535318136,,,
175.7500000000,21,0.7509698272,,,
176.0000000000,22,0.7714648843,,,
176.2500000000,22,0.7509698272,,,
176.5000000000,22,0.7496889234,,,
176.7500000000,22,0.7522507906,,,
177.0000000000,22,0.7509698272,,,
177.2500000000,22,0.7548127174,,,
177.5000000000,22,0.7509698272,,,
177.7500000000,22,0.7496889234,,,
178.0000000000,22,0.7509698272,,,
178.2500000000,22,0.7484080195,,,
178.5000000000,22,0.7496889234,,,
178.7500000000,22,0.7509698272,,,
179.0000000000,22,0.7509698272,,,
179.2500000000,22,0.7484080195,,,
179.5000000000,22,0.7445651293,,,
179.7500000000,22,0.7548127174,,,
180.0000000000,22,0.7496889234,,,
180.2500000000,22,0.7624983788,,,
180.5000000000,22,0.7663412094,,,
180.7500000000,22,0.7778697014,,,
181.0000000000,22,0.7753077745,,,
181.2500000000,22,0.7778697014,,,
181.5000000000,22,0.7817124724,,,
181.7500000000,22,0.7791507244,,,
182.0000000000,22,0.7804316282,,,
182.2500000000,22,0.7765886784,,,
182.5000000000,22,0.7817124724,,,
182.7500000000,22,0.7765886784,,,
183.0000000000,22,0.7765886784,,,
183.2500000000,22,0.7778697014,,,
183.5000000000,22,0.7753077745,,,
183.7500000000,22,0.7778697014,,,
184.0000000000,23,0.7727459073,,,
184.2500000000,23,0.7778697014,,,
184.5000000000,23,0.7753077745,,,
184.7500000000,23,0.7765886784,,,
185.0000000000,23,0.7778697014,,,
185.2500000000,23,0.7804316282,,,
185.5000000000,23,0.7868363261,,,
185.7500000000,23,0.7842743993,,,
186.0000000000,23,0.7855554223,,,
186.2500000000,23,0.7855554223,,,
186.5000000000,23,0.7932410240,,,
186.7500000000,23,0.8034886122,,,
187.0000000000,23,0.8380740881,,,
187.2500000000,23,0.8303884864,,,
187.5000000000,23,0.8316693902,,,
187.7500000000,23,0.8342313170,,,
188.0000000000,23,0.8278266191,,,
188.2500000000,23,0.8291075230,,,
188.5000000000,23,0.8214219213,,,
188.7500000000,23,0.8175789714,,,
189.0000000000,23,0.8098933101,,,
189.2500000000,23,0.8086124063,,,
189.5000000000,23,0.8098933101,,,
189.7500000000,23,0.8034886122,,,
190.0000000000,23,0.8034886122,,,
190.2500000000,23,0.8009266853,,,
190.5000000000,23,0.8022075891,,,
190.7500000000,23,0.8009266853,,,
191.0000000000,23,0.7983648181,,,
191.2500000000,23,0.7945219874,,,
191.5000000000,23,0.7919601202,,,
191.7500000000,23,0.7958030105,,,
192.0000000000,24,0.7906792164,,,
192.2500000000,24,0.7919601202,,,
192.5000000000,24,0.7906792164,,,
192.7500000000,24,0.7855554223,,,
193.0000000000,24,0.7881171703,,,
193.2500000000,24,0.7881171703,,,
193.5000000000,24,0.7881171703,,,
193.7500000000,24,0.7881171703,,,
194.0000000000,24,0.7881171703,,,
194.2500000000,24,0.7881171703,,,
194.5000000000,24,0.7881171703,,,
194.7500000000,24,0.7881171703,,,
195.0000000000,24,0.7881171703,,,
195.2500000000,24,0.7881171703,,,
195.5000000000,24,0.7881171703,,,
195.7500000000,24,0.7881171703,,,
196.0000000000,24,0.7881171703,,,
196.2500000000,24,0.7881171703,,,
196.5000000000,24,0.7881171703,,,
196.7500000000,24,0.7881171703,,,
197.0000000000,24,0.7881171703,,,
197.2500000000,24,0.7881171703,,,
197.5000000000,24,0.7881171703,,,
197.7500000000,24,0.7881171703,,,
198.0000000000,24,0.7881171703,,,
198.2500000000,24,0.7881171703,,,
198.5000000000,24,0.7881171703,,,
198.7500000000,24,0.7881171703,,,
199.0000000000,24,0.7881171703,,,
199.2500000000,24,0.7881171703,,,
199.5000000000,24,0.7881171703,,,
199.7500000000,24,0.7881171703,,,
200.0000000000,25,0.7881171703,,,
200.2500000000,25,0.7881171703,,,
200.5000000000,25,0.7881171703,,,
200.7500000000,25,0.7881171703,,,
201.0000000000,25,0.7881171703,,,
201.2500000000,25,0.7881171703,,,
201.5000000000,25,0.7881171703,,,
201.7500000000,25,0.7881171703,,,
202.0000000000,25,0.7881171703,,,
202.2500000000,25,0.7881171703,,,
202.5000000000,25,0.7881171703,,,
202.7500000000,25,0.7881171703,,,
203.0000000000,25,0.7881171703,,,
203.2500000000,25,0.7881171703,,,
203.5000000000,25,0.7881171703,,,
203.7500000000,25,0.7881171703,,,
204.0000000000,25,0.7881171703,,,
204.2500000000,25,0.7881171703,,,
204.5000000000,25,0.7881171703,,,
204.7500000000,25,0.7881171703,,,
205.0000000000,25,0.7881171703,,,
205.2500000000,25,0.7881171703,,,
205.5000000000,25,0.7881171703,,,
205.7500000000,25,0.7881171703,,,
206.0000000000,25,0.7881171703,,,
206.2500000000,25,0.7881171703,,,
206.5000000000,25,0.7881171703,,,
206.7500000000,25,0.7881171703,,,
207.0000000000,25,0.7881171703,,,
207.2500000000,25,0.7881171703,,,
207.5000000000,25,0.7881171703,,,
207.7500000000,25,0.7881171703,,,
208.0000000000,26,0.7881171703,,,
208.2500000000,26,0.7881171703,,,
208.5000000000,26,0.7881171703,,,
208.7500000000,26,0.7881171703,,,
209.0000000000,26,0.7881171703,,,
209.2500000000,26,0.7881171703,,,
209.5000000000,26,0.7881171703,,,
209.7500000000,26,0.7881171703,,,
210.0000000000,26,0.7881171703,,,
210.2500000000,26,0.7881171703,,,
210.5000000000,26,0.7817124724,,,
210.7500000000,26,0.7855554223,,,
211.0000000000,26,0.7868363261,,,
211.2500000000,26,0.7868363261,,,
211.5000000000,26,0.7829934955,,,
211.7500000000,26,0.7842743993,,,
212.0000000000,26,0.7727459073,,,
212.2500000000,26,0.7727459073,,,
212.5000000000,26,0.7727459073,,,
212.7500000000,26,0.7727459073,,,
213.0000000000,26,0.7727459073,,,
213.2500000000,26,0.7727459073,,,
213.5000000000,26,0.7727459073,,,
213.7500000000,26,0.7727459073,,,
214.0000000000,26,0.7727459073,,,
214.2500000000,26,0.7727459073,,,
214.5000000000,26,0.7727459073,,,
214.7500000000,26,0.7727459073,,,
215.0000000000,26,0.7727459073,,,
215.2500000000,26,0.7727459073,,,
215.5000000000,26,0.7727459073,,,
215.7500000000,26,0.7727459073,,,
216.0000000000,27,0.7727459073,,,
216.2500000000,27,0.7727459073,,,
216.5000000000,27,0.7727459073,,,
216.7500000000,27,0.7765886784,,,
217.0000000000,27,0.7765886784,,,
217.2500000000,27,0.7701839805,,,
217.5000000000,27,0.7727459073,,,
217.7500000000,27,0.7650601864,,,
218.0000000000,27,0.7727459073,,,
218.2500000000,27,0.7701839805,,,
218.5000000000,27,0.7650601864,,,
218.7500000000,27,0.7689030766,,,
219.0000000000,27,0.7663412094,,,
219.2500000000,27,0.7676221132,,,
219.5000000000,27,0.7624983788,,,
219.7500000000,27,0.7663412094,,,
220.0000000000,27,0.7624983788,,,
220.2500000000,27,0.7676221132,,,
220.5000000000,27,0.7637792826,,,
220.7500000000,27,0.7612174153,,,
221.0000000000,27,0.7663412094,,,
221.2500000000,27,0.7624983788,,,
221.5000000000,27,0.7612174153,,,
221.7500000000,27,0.7612174153,,,
222.0000000000,27,0.7663412094,,,
222.2500000000,27,0.7624983788,,,
222.5000000000,27,0.7612174153,,,
222.7500000000,27,0.7650601864,,,
223.0000000000,27,0.7599365115,,,
223.2500000000,27,0.7586554885,,,
223.5000000000,27,0.7612174153,,,
223.7500000000,27,0.7637792826,,,
224.0000000000,28,0.7573745847,,,
224.2500000000,28,0.7573745847,,,
224.5000000000,28,0.7535318136,,,
224.7500000000,28,0.7573745847,,,
225.0000000000,28,0.7560936213,,,
225.2500000000,28,0.7509698272,,,
225.5000000000,28,0.7548127174,,,
225.7500000000,28,0.7522507906,,,
226.0000000000,28,0.7560936213,,,
226.2500000000,28,0.7535318136,,,
226.5000000000,28,0.7560936213,,,
226.7500000000,28,0.7509698272,,,
227.0000000000,28,0.7560936213,,,
227.2500000000,28,0.7560936213,,,
227.5000000000,28,0.7484080195,,,
227.7500000000,28,0.7535318136,,,
228.0000000000,28,0.7484080195,,,
228.2500000000,28,0.7535318136,,,
228.5000000000,28,0.7484080195,,,
228.7500000000,28,0.7548127174,,,
229.0000000000,28,0.7484080195,,,
229.2500000000,28,0.7509698272,,,
229.5000000000,28,0.7560936213,,,
229.7500000000,28,0.7548127174,,,
230.0000000000,28,0.7560936213,,,
230.2500000000,28,0.7509698272,,,
230.5000000000,28,0.7586554885,,,
230.7500000000,28,0.7496889234,,,
231.0000000000,28,0.7535318136,,,
231.2500000000,28,0.7471269965,,,
231.5000000000,28,0.7471269965,,,
231.7500000000,28,0.7496889234,,,
232.0000000000,29,0.7458459735,,,
232.2500000000,29,0.7535318136,,,
232.5000000000,29,0.7496889234,,,
232.7500000000,29,0.7484080195,,,
233.0000000000,29,0.7509698272,,,
233.2500000000,29,0.7496889234,,,
233.5000000000,29,0.7509698272,,,
233.7500000000,29,0.7458459735,,,
234.0000000000,29,0.7496889234,,,
234.2500000000,29,0.7496889234,,,
234.5000000000,29,0.7560936213,,,
234.7500000000,29,0.7624983788,,,
235.0000000000,29,0.7663412094,,,
235.2500000000,29,0.7740268707,,,
235.5000000000,29,0.7727459073,,,
235.7500000000,29,0.7740268707,,,
236.0000000000,29,0.7676221132,,,
236.2500000000,29,0.7727459073,,,
236.5000000000,29,0.7701839805,,,
236.7500000000,29,0.7740268707,,,
237.0000000000,29,0.7727459073,,,
237.2500000000,29,0.7778697014,,,
237.5000000000,29,0.7945219874,,,
237.7500000000,29,0.8188598752,,,
238.0000000000,29,0.8624120951,,,
238.2500000000,29,0.8547263741,,,
238.5000000000,29,0.8560072780,,,
238.7500000000,29,0.8470407724,,,
239.0000000000,29,0.8444787860,,,
239.2500000000,29,0.8393551111,,,
239.5000000000,29,0.8393551111,,,
239.7500000000,29,0.8329504132,,,
240.0000000000,30,0.8316693902,,,
240.2500000000,30,0.8316693902,,,
240.5000000000,30,0.8239837289,,,
240.7500000000,30,0.8227028251,,,
241.0000000000,30,0.8214219213,,,
241.2500000000,30,0.8239837289,,,
241.5000000000,30,0.8214219213,,,
241.7500000000,30,0.8175789714,,,
242.0000000000,30,0.8214219213,,,
242.2500000000,30,0.8214219213,,,
242.5000000000,30,0.8316693902,,,
242.7500000000,30,0.8278266191,,,
243.0000000000,30,0.8367931843,,,
243.2500000000,30,0.8367931843,,,
243.5000000000,30,0.8406360149,,,
243.7500000000,30,0.8342313170,,,
244.0000000000,30,0.8367931843,,,
244.2500000000,30,0.8380740881,,,
244.5000000000,30,0.8316693902,,,
244.7500000000,30,0.8239837289,,,
245.0000000000,30,0.8188598752,,,
245.2500000000,30,0.8214219213,,,
245.5000000000,30,0.8150171041,,,
245.7500000000,30,0.8201408982,,,
246.0000000000,30,0.8188598752,,,
246.2500000000,30,0.8162981272,,,
246.5000000000,30,0.8188598752,,,
246.7500000000,30,0.8162981272,,,
247.0000000000,30,0.8214219213,,,
247.2500000000,30,0.8188598752,,,
247.5000000000,30,0.8265455961,,,
247.7500000000,30,0.8252646923,,,
248.0000000000,31,0.8252646923,,,
248.2500000000,31,0.8316693902,,,
248.5000000000,31,0.8265455961,,,
248.7500000000,31,0.8265455961,,,
249.0000000000,31,0.8265455961,,,
249.2500000000,31,0.8291075230,,,
249.5000000000,31,0.8252646923,,,
249.7500000000,31,0.8291075230,,,
250.0000000000,31,0.8227028251,,,
250.2500000000,31,0.8265455961,,,
250.5000000000,31,0.8227028251,,,
250.7500000000,31,0.8214219213,,,
251.0000000000,31,0.8239837289,,,
251.2500000000,31,0.8188598752,,,
251.5000000000,31,0.8175789714,,,
251.7500000000,31,0.8137360811,,,
252.0000000000,31,0.8098933101,,,
252.2500000000,31,0.8137360811,,,
252.5000000000,31,0.8086124063,,,
252.7500000000,31,0.8086124063,,,
253.0000000000,31,0.8073313832,,,
253.2500000000,31,0.8111742735,,,
253.5000000000,31,0.8047695756,,,
253.7500000000,31,0.8086124063,,,
254.0000000000,31,0.8086124063,,,
254.2500000000,31,0.8060504794,,,
254.5000000000,31,0.8111742735,,,
254.7500000000,31,0.8047695756,,,
255.0000000000,31,0.8060504794,,,
255.2500000000,31,0.8022075891,,,
255.5000000000,31,0.8060504794,,,
255.7500000000,31,0.7996457815,,,
256.0000000000,32,0.8073313832,,,
256.2500000000,32,0.8009266853,,,
256.5000000000,32,0.8009266853,,,
256.7500000000,32,0.8060504794,,,
257.0000000000,32,0.7983648181,,,
257.2500000000,32,0.8022075891,,,
257.5000000000,32,0.7970839143,,,
257.7500000000,32,0.8022075891,,,
258.0000000000,32,0.7983648181,,,
258.2500000000,32,0.8022075891,,,
258.5000000000,32,0.7906792164,,,
258.7500000000,32,0.7932410240,,,
259.0000000000,32,0.7932410240,,,
259.2500000000,32,0.7893981934,,,
259.5000000000,32,0.8047695756,,,
259.7500000000,32,0.7893981934,,,
260.0000000000,32,0.7906792164,,,
260.2500000000,32,0.7868363261,,,
260.5000000000,32,0.7868363261,,,
260.7500000000,32,0.7919601202,,,
261.0000000000,32,0.7868363261,,,
261.2500000000,32,0.7893981934,,,
261.5000000000,32,0.7855554223,,,
261.7500000000,32,0.7893981934,,,
262.0000000000,32,0.7893981934,,,
262.2500000000,32,0.7829934955,,,
262.5000000000,32,0.7829934955,,,
262.7500000000,32,0.7817124724,,,
263.0000000000,32,0.7829934955,,,
263.2500000000,32,0.7829934955,,,
263.5000000000,32,0.7881171703,,,
263.7500000000,32,0.8047695756,,,
264.0000000000,33,0.8227028251,,,
264.2500000000,33,0.8367931843,,,
264.5000000000,33,0.8419169784,,,
264.7500000000,33,0.8534454703,,,
265.0000000000,33,0.8521645069,,,
265.2500000000,33,0.8790643811,,,
265.5000000000,33,0.8867499828,,,
265.7500000000,33,0.8969975710,,,
266.0000000000,33,0.9136499166,,,
266.2500000000,33,0.9213355780,,,
266.5000000000,33,0.9264593720,,,
266.7500000000,33,0.9264593720,,,
267.0000000000,33,0.9264593720,,,
267.2500000000,33,0.9162117839,,,
267.5000000000,33,0.9200546145,,,
267.7500000000,33,0.9149308801,,,
268.0000000000,33,0.9059643149,,,
268.2500000000,33,0.9034023285,,,
268.5000000000,33,0.9008405209,,,
268.7500000000,33,0.9072452188,,,
269.0000000000,33,0.9008405209,,,
269.2500000000,33,0.8969975710,,,
269.5000000000,33,0.9021214247,,,
269.7500000000,33,0.8995594978,,,
270.0000000000,33,0.8995594978,,,
270.2500000000,33,0.9008405209,,,
270.5000000000,33,0.9072452188,,,
270.7500000000,33,0.8982784748,,,
271.0000000000,33,0.8969975710,,,
271.2500000000,33,0.9008405209,,,
271.5000000000,33,0.8982784748,,,
271.7500000000,33,0.9072452188,,,
272.0000000000,34,0.9149308801,,,
272.2500000000,34,0.9648876786,,,
272.5000000000,34,0.9648876786,,,
272.7500000000,34,0.9559211135,,,
273.0000000000,34,0.9533591866,,,
273.2500000000,34,0.9482355118,,,
273.5000000000,34,0.9469544888,,,
273.7500000000,34,0.9443926215,,,
274.0000000000,34,0.9443926215,,,
274.2500000000,34,0.9392688274,,,
274.5000000000,34,0.9379879236,,,
274.7500000000,34,0.9367069006,,,
275.0000000000,34,0.9367069006,,,
275.2500000000,34,0.9405496716,,,
275.5000000000,34,0.9341449738,,,
275.7500000000,34,0.9354259968,,,
276.0000000000,34,0.9379879236,,,
276.2500000000,34,0.9507973194,,,
276.5000000000,34,0.9546402097,,,
276.7500000000,34,0.9674496055,,,
277.0000000000,34,0.9700114727,,,
277.2500000000,34,0.9712923765,,,
277.5000000000,34,0.9700114727,,,
277.7500000000,34,0.9674496055,,,
278.0000000000,34,0.9636067748,,,
278.2500000000,34,0.9559211135,,,
278.5000000000,34,0.9559211135,,,
278.7500000000,34,0.9495164156,,,
279.0000000000,34,0.9943494797,,,
279.2500000000,34,0.9981923103,,,
279.5000000000,34,1.0058779716,,,
279.7500000000,34,1.0084400177,,,
280.0000000000,35,1.0263730288,,,
280.2500000000,35,1.0455869436,,,
280.5000000000,35,1.0583970547,,,
280.7500000000,35,1.0583970547,,,
281.0000000000,35,1.0545539856,,,
281.2500000000,35,1.0519920588,,,
281.5000000000,35,1.0404629707,,,
281.7500000000,35,1.0353399515,,,
282.0000000000,35,1.0289349556,,,
282.2500000000,35,1.0212490559,,,
282.5000000000,35,1.0161260366,,,
282.7500000000,35,1.0110019445,,,
283.0000000000,35,1.0097210407,,,
283.2500000000,35,0.9994732738,,,
283.5000000000,35,1.0020350218,,,
283.7500000000,35,1.0007539988,,,
284.0000000000,35,0.9956303835,,,
284.2500000000,35,0.9930685163,,,
284.5000000000,35,0.9905065894,,,
284.7500000000,35,0.9930685163,,,
285.0000000000,35,0.9943494797,,,
285.2500000000,35,0.9917876124,,,
285.5000000000,35,0.9956303835,,,
285.7500000000,35,0.9956303835,,,
286.0000000000,35,0.9866638184,,,
286.2500000000,35,0.9879447222,,,
286.5000000000,35,0.9841018915,,,
286.7500000000,35,0.9892256856,,,
287.0000000000,35,0.9815400243,,,
287.2500000000,35,0.9802591205,,,
287.5000000000,35,0.9841018915,,,
287.7500000000,35,0.9815400243,,,
288.0000000000,36,0.9815400243,,,
288.2500000000,36,0.9815400243,,,
288.5000000000,36,0.9892256856,,,
288.7500000000,36,0.9764161706,,,
289.0000000000,36,0.9802591205,,,
289.2500000000,36,0.9815400243,,,
289.5000000000,36,0.9776971936,,,
289.7500000000,36,0.9789780974,,,
290.0000000000,36,0.9751353264,,,
290.2500000000,36,0.9764161706,,,
290.5000000000,36,0.9751353264,,,
290.7500000000,36,0.9892256856,,,
291.0000000000,36,0.9738544226,,,
291.2500000000,36,0.9725733995,,,
291.5000000000,36,0.9712923765,,,
291.7500000000,36,0.9738544226,,,
292.0000000000,36,0.9764161706,,,
292.2500000000,36,0.9725733995,,,
292.5000000000,36,0.9725733995,,,
292.7500000000,36,1.0135639906,,,
293.0000000000,36,1.0276540518,,,
293.2500000000,36,1.0417439938,,,
293.5000000000,36,1.0494300127,,,
293.7500000000,36,1.0571160316,,,
294.0000000000,36,1.0596779585,,,
294.2500000000,36,1.0622400045,,,
294.5000000000,36,1.0622400045,,,
294.7500000000,36,1.0622400045,,,
295.0000000000,36,1.0622400045,,,
295.2500000000,36,1.0660820007,,,
295.5000000000,36,1.0635210276,,,
295.7500000000,36,1.0622400045,,,
296.0000000000,37,1.0635210276,,,
296.2500000000,37,1.0609589815,,,
296.5000000000,37,1.0776109695,,,
296.7500000000,37,1.1083539724,,,
297.0000000000,37,1.1467820406,,,
297.2500000000,37,1.2069859505,,,
297.5000000000,37,1.2364480495,,,
297.7500000000,37,1.2697529793,,,
298.0000000000,37,1.2889670134,,,
298.2500000000,37,1.3069000244,,,
298.5000000000,37,1.3286759853,,,
298.7500000000,37,1.3696659803,,,
299.0000000000,37,1.3875999451,,,
299.2500000000,37,1.3863190413,,,
299.5000000000,37,1.3133050203,,,
299.7500000000,37,1.3017760515,,,
300.0000000000,37,1.2966530323,,,
300.2500000000,37,1.2889670134,,,
300.5000000000,37,1.2902480364,,,
300.7500000000,37,1.2812809944,,,
301.0000000000,37,1.2838430405,,,
301.2500000000,37,1.2812809944,,,
301.5000000000,37,1.2723150253,,,
301.7500000000,37,1.2723150253,,,
302.0000000000,37,1.2684719563,,,
302.2500000000,37,1.2748759985,,,
302.5000000000,37,1.2799999714,,,
302.7500000000,37,1.2864049673,,,
303.0000000000,37,1.2876859903,,,
303.2500000000,37,1.2915290594,,,
303.5000000000,37,1.2992140055,,,
303.7500000000,37,1.3133050203,,,
304.0000000000,38,1.3504519463,,,
304.2500000000,38,1.3875999451,,,
304.5000000000,38,1.4119379520,,,
304.7500000000,38,1.4247469902,,,
305.0000000000,38,1.4362759590,,,
305.2500000000,38,1.4413989782,,,
305.5000000000,38,1.4247469902,,,
305.7500000000,38,1.4183419943,,,
306.0000000000,38,1.4080950022,,,
306.2500000000,38,1.4042520523,,,
306.5000000000,38,1.3786330223,,,
306.7500000000,38,1.3709470034,,,
307.0000000000,38,1.3671050072,,,
307.2500000000,38,1.3594189882,,,
307.5000000000,38,1.3581379652,,,
307.7500000000,38,1.3555760384,,,
308.0000000000,38,1.3517329693,,,
308.2500000000,38,1.3517329693,,,
308.5000000000,38,1.3542950153,,,
308.7500000000,38,1.3504519463,,,
309.0000000000,38,1.3453279734,,,
309.2500000000,38,1.3453279734,,,
309.5000000000,38,1.3427670002,,,
309.7500000000,38,1.3414859772,,,
310.0000000000,38,1.3478900194,,,
310.2500000000,38,1.3453279734,,,
310.5000000000,38,1.3530139923,,,
310.7500000000,38,1.3530139923,,,
311.0000000000,38,1.3568569422,,,
311.2500000000,38,1.3607000113,,,
311.5000000000,38,1.3632620573,,,
311.7500000000,38,1.3709470034,,,
312.0000000000,39,1.3940039873,,,
312.2500000000,39,1.4324330091,,,
312.5000000000,39,1.4593329430,,,
312.7500000000,39,1.4427789450,,,
313.0000000000,39,1.4632740021,,,
313.2500000000,39,1.4632740021,,,
313.5000000000,39,1.4594320059,,,
313.7500000000,39,1.4235650301,,,
314.0000000000,39,1.4171609879,,,
314.2500000000,39,1.4094749689,,,
314.5000000000,39,1.4069130421,,,
314.7500000000,39,1.3953839540,,,
315.0000000000,39,1.4005080462,,,
315.2500000000,39,1.4030699730,,,
315.5000000000,39,1.4158799648,,,
315.7500000000,39,1.4274079800,,,
316.0000000000,39,1.4299700260,,,
316.2500000000,39,1.4363750219,,,
316.5000000000,39,1.4312510490,,,
316.7500000000,39,1.4414989948,,,
317.0000000000,39,1.4171609879,,,
317.2500000000,39,1.4235650301,,,
317.5000000000,39,1.4248460531,,,
317.7500000000,39,1.4427789450,,,
318.0000000000,39,1.4594320059,,,
318.2500000000,39,1.4645559788,,,
318.5000000000,39,1.4683979750,,,
318.7500000000,39,1.4696789980,,,
319.0000000000,39,1.4683979750,,,
319.2500000000,39,1.4555890560,,,
319.5000000000,39,1.4517459869,,,
319.7500000000,39,1.4414989948,,,
320.0000000000,40,1.4389369488,,,
320.2500000000,40,1.4299700260,,,
320.5000000000,40,1.4299700260,,,
320.7500000000,40,1.4299700260,,,
321.0000000000,40,1.4235650301,,,
321.2500000000,40,1.4261269569,,,
321.5000000000,40,1.4210029840,,,
321.7500000000,40,1.4197219610,,,
322.0000000000,40,1.4274079800,,,
322.2500000000,40,1.4145989418,,,
322.5000000000,40,1.4120370150,,,
322.7500000000,40,1.4107559919,,,
323.0000000000,40,1.4120370150,,,
323.2500000000,40,1.4120370150,,,
323.5000000000,40,1.4094749689,,,
323.7500000000,40,1.4120370150,,,
324.0000000000,40,1.4094749689,,,
324.2500000000,40,1.4081939459,,,
324.5000000000,40,1.4094749689,,,
324.7500000000,40,1.4043509960,,,
325.0000000000,40,1.4069130421,,,
325.2500000000,40,1.4043509960,,,
325.5000000000,40,1.4069130421,,,
325.7500000000,40,1.4030699730,,,
326.0000000000,40,1.4005080462,,,
326.2500000000,40,1.4017889500,,,
326.5000000000,40,1.4017889500,,,
326.7500000000,40,1.4017889500,,,
327.0000000000,40,1.3992270231,,,
327.2500000000,40,1.4043509960,,,
327.5000000000,40,1.3966649771,,,
327.7500000000,40,1.3992270231,,,
