Time:4Hz,Epoch,Channel 1,Event Id,Event Date,Event Duration
0.0000000000,0,8.3149814606,,,
0.2500000000,0,8.3175430298,,,
0.5000000000,0,8.3098573685,,,
0.7500000000,0,8.3162622452,,,
1.0000000000,0,8.3316335678,,,
1.2500000000,0,8.3470048904,,,
1.5000000000,0,8.3815898895,,,
1.7500000000,0,8.3726234436,,,
2.0000000000,0,8.3662185669,,,
2.2500000000,0,8.3649377823,,,
2.5000000000,0,8.3610954285,,,
2.7500000000,0,8.3559713364,,,
3.0000000000,0,8.3546905518,,,
3.2500000000,0,8.3482856750,,,
3.5000000000,0,8.3764667511,,,
3.7500000000,0,8.4161758423,,,
4.0000000000,0,8.4481992722,,,
4.2500000000,0,8.4891901016,,,
4.5000000000,0,8.5340232849,,,
4.7500000000,0,8.5839796066,,,
5.0000000000,0,8.6121606827,,,
5.2500000000,0,8.6352176666,,,
5.5000000000,0,8.6454648972,,,
5.7500000000,0,8.6364984512,,,
6.0000000000,0,8.6236886978,,,
6.2500000000,0,8.5980701447,,,
6.5000000000,0,8.5724515915,,,
6.7500000000,0,8.5609226227,,,
7.0000000000,0,8.5314607620,,,
7.2500000000,0,8.5084037781,,,
7.5000000000,0,8.4981565475,,,
7.7500000000,0,8.4763803482,,,
8.0000000000,1,8.4584474564,,,
8.2500000000,1,8.4443569183,,,
8.5000000000,1,8.4238624573,,,
8.7500000000,1,8.4212999344,,,
9.0000000000,1,8.4123325348,,,
9.2500000000,1,8.4072093964,,,
9.5000000000,1,8.3956804276,,,
9.7500000000,1,8.3956804276,,,
10.0000000000,1,8.3956804276,,,
10.2500000000,1,8.3931188583,,,
10.5000000000,1,8.3867139816,,,
10.7500000000,1,8.3931188583,,,
11.0000000000,1,8.3969612122,,,
11.2500000000,1,8.4020853043,,,
11.5000000000,1,8.3931188583,,,
11.7500000000,1,8.3854331970,,,
12.0000000000,1,8.3790283203,,,
12.2500000000,1,8.3726234436,,,
12.5000000000,1,8.3623762131,,,
12.7500000000,1,8.3598146439,,,
13.0000000000,1,8.3431615829,,,
13.2500000000,1,8.3380384445,,,
13.5000000000,1,8.3303527832,,,
13.7500000000,1,8.3188238144,,,
14.0000000000,1,8.3162622452,,,
14.2500000000,1,8.3098573685,,,
14.5000000000,1,8.3072957993,,,
14.7500000000,1,8.2970476151,,,
15.0000000000,1,8.2932052612,,,
15.2500000000,1,8.2855195999,,,
15.5000000000,1,8.2842388153,,,
15.7500000000,1,8.2842388153,,,
16.0000000000,2,8.2714290619,,,
16.2500000000,2,8.2765531540,,,
16.5000000000,2,8.2663049698,,,
16.7500000000,2,8.2496528625,,,
17.0000000000,2,8.2803964615,,,
17.2500000000,2,8.3777475357,,,
17.5000000000,2,8.3803091049,,,
17.7500000000,2,8.3841524124,,,
18.0000000000,2,8.3687810898,,,
18.2500000000,2,8.3777475357,,,
18.5000000000,2,8.4072093964,,,
18.7500000000,2,8.4584474564,,,
19.0000000000,2,8.5173702240,,,
19.2500000000,2,8.5647659302,,,
19.5000000000,2,8.5916652679,,,
19.7500000000,2,8.6006317139,,,
20.0000000000,2,8.5967893600,,,
20.2500000000,2,8.6006317139,,,
20.5000000000,2,8.5814180374,,,
20.7500000000,2,8.5583610535,,,
21.0000000000,2,8.5365848541,,,
21.2500000000,2,8.5160894394,,,
21.5000000000,2,8.4891901016,,,
21.7500000000,2,8.4661331177,,,
22.0000000000,2,8.4430761337,,,
22.2500000000,2,8.4315471649,,,
22.5000000000,2,8.4072093964,,,
22.7500000000,2,8.4072093964,,,
23.0000000000,2,8.4008054733,,,
23.2500000000,2,8.4059286118,,,
23.5000000000,2,8.4072093964,,,
23.7500000000,2,8.4084901810,,,
24.0000000000,3,8.4072093964,,,
24.2500000000,3,8.4008054733,,,
24.5000000000,3,8.3905572891,,,
24.7500000000,3,8.3815898895,,,
25.0000000000,3,8.3777475357,,,
25.2500000000,3,8.3777475357,,,
25.5000000000,3,8.3662185669,,,
25.7500000000,3,8.3598146439,,,
26.0000000000,3,8.3585329056,,,
26.2500000000,3,8.3534097672,,,
26.5000000000,3,8.3470048904,,,
26.7500000000,3,8.3418807983,,,
27.0000000000,3,8.3303527832,,,
27.2500000000,3,8.3252286911,,,
27.5000000000,3,8.3137006760,,,
27.7500000000,3,8.3085765839,,,
28.0000000000,3,8.3060140610,,,
28.2500000000,3,8.2970476151,,,
28.5000000000,3,8.2893619537,,,
28.7500000000,3,8.2880811691,,,
29.0000000000,3,8.2919244766,,,
29.2500000000,3,8.2791147232,,,
29.5000000000,3,8.2765531540,,,
29.7500000000,3,8.2675857544,,,
30.0000000000,3,8.2650241852,,,
30.2500000000,3,8.2675857544,,,
30.5000000000,3,8.2599000931,,,
30.7500000000,3,8.2522144318,,,
31.0000000000,3,8.2496528625,,,
31.2500000000,3,8.2509336472,,,
31.5000000000,3,8.2470912933,,,
31.7500000000,3,8.2547769547,,,
32.0000000000,4,8.2586193085,,,
32.2500000000,4,8.2573385239,,,
32.5000000000,4,8.2509336472,,,
32.7500000000,4,8.2586193085,,,
33.0000000000,4,8.2547769547,,,
33.2500000000,4,8.2458114624,,,
33.5000000000,4,8.2419672012,,,
33.7500000000,4,8.2394056320,,,
34.0000000000,4,8.2355623245,,,
34.2500000000,4,8.2291574478,,,
34.5000000000,4,8.2176294327,,,
34.7500000000,4,8.2189102173,,,
35.0000000000,4,8.2125053406,,,
35.2500000000,4,8.1984148026,,,
35.5000000000,4,8.1971340179,,,
35.7500000000,4,8.1868867874,,,
36.0000000000,4,8.1932916641,,,
36.2500000000,4,8.1907291412,,,
36.5000000000,4,8.1792011261,,,
36.7500000000,4,8.1779203415,,,
37.0000000000,4,8.1779203415,,,
37.2500000000,4,8.2035388947,,,
37.5000000000,4,8.2073822021,,,
37.7500000000,4,8.2150678635,,,
38.0000000000,4,8.2189102173,,,
38.2500000000,4,8.2163486481,,,
38.5000000000,4,8.2214717865,,,
38.7500000000,4,8.2419672012,,,
39.0000000000,4,8.2637434006,,,
39.2500000000,4,8.2957668304,,,
39.5000000000,4,8.3149814606,,,
39.7500000000,4,8.3162622452,,,
40.0000000000,5,8.3188238144,,,
40.2500000000,5,8.3162622452,,,
40.5000000000,5,8.3085765839,,,
40.7500000000,5,8.2957668304,,,
41.0000000000,5,8.2868003845,,,
41.2500000000,5,8.2868003845,,,
41.5000000000,5,8.2663049698,,,
41.7500000000,5,8.2791147232,,,
42.0000000000,5,8.3162622452,,,
42.2500000000,5,8.3585329056,,,
42.5000000000,5,8.4072093964,,,
42.7500000000,5,8.4289855957,,,
43.0000000000,5,8.4328279495,,,
43.2500000000,5,8.4353904724,,,
43.5000000000,5,8.4277048111,,,
43.7500000000,5,8.4136142731,,,
44.0000000000,5,8.4008054733,,,
44.2500000000,5,8.3879947662,,,
44.5000000000,5,8.3739042282,,,
44.7500000000,5,8.3508472443,,,
45.0000000000,5,8.3418807983,,,
45.2500000000,5,8.3303527832,,,
45.5000000000,5,8.3175430298,,,
45.7500000000,5,8.3162622452,,,
46.0000000000,5,8.3021717072,,,
46.2500000000,5,8.2932052612,,,
46.5000000000,5,8.2906427383,,,
46.7500000000,5,8.3072957993,,,
47.0000000000,5,8.3290719986,,,
47.2500000000,5,8.3201045990,,,
47.5000000000,5,8.2944860458,,,
47.7500000000,5,8.2855195999,,,
48.0000000000,6,8.2714290619,,,
48.2500000000,6,8.2663049698,,,
48.5000000000,6,8.2522144318,,,
48.7500000000,6,8.2496528625,,,
49.0000000000,6,8.2342815399,,,
49.2500000000,6,8.2381248474,,,
49.5000000000,6,8.2355623245,,,
49.7500000000,6,8.2240343094,,,
50.0000000000,6,8.2240343094,,,
50.2500000000,6,8.2240343094,,,
50.5000000000,6,8.2176294327,,,
50.7500000000,6,8.2189102173,,,
51.0000000000,6,8.2099437714,,,
51.2500000000,6,8.2073822021,,,
51.5000000000,6,8.2035388947,,,
51.7500000000,6,8.1843242645,,,
52.0000000000,6,8.1945724487,,,
52.2500000000,6,8.1881675720,,,
52.5000000000,6,8.1830425262,,,
52.7500000000,6,8.1779203415,,,
53.0000000000,6,8.1715154648,,,
53.2500000000,6,8.1740770340,,,
53.5000000000,6,8.1663913727,,,
53.7500000000,6,8.1587057114,,,
54.0000000000,6,8.1638298035,,,
54.2500000000,6,8.1484575272,,,
54.5000000000,6,8.1394920349,,,
54.7500000000,6,8.1382102966,,,
55.0000000000,6,8.1382102966,,,
55.2500000000,6,8.1343679428,,,
55.5000000000,6,8.1266822815,,,
55.7500000000,6,8.1318063736,,,
56.0000000000,7,8.1202774048,,,
56.2500000000,7,8.1202774048,,,
56.5000000000,7,8.1266822815,,,
56.7500000000,7,8.1420536041,,,
57.0000000000,7,8.1625490189,,,
57.2500000000,7,8.1843242645,,,
57.5000000000,7,8.1932916641,,,
57.7500000000,7,8.2009773254,,,
58.0000000000,7,8.1984148026,,,
58.2500000000,7,8.1920099258,,,
58.5000000000,7,8.1817626953,,,
58.7500000000,7,8.1830425262,,,
59.0000000000,7,8.1663913727,,,
59.2500000000,7,8.1548633575,,,
59.5000000000,7,8.1484575272,,,
59.7500000000,7,8.1420536041,,,
60.0000000000,7,8.1292438507,,,
60.2500000000,7,8.1292438507,,,
60.5000000000,7,8.1856060028,,,
60.7500000000,7,8.2483720779,,,
61.0000000000,7,8.3316335678,,,
61.2500000000,7,8.4277048111,,,
61.5000000000,7,8.4661331177,,,
61.7500000000,7,8.4866275787,,,
62.0000000000,7,8.5327415466,,,
62.2500000000,7,8.5417089462,,,
62.5000000000,7,8.5519561768,,,
62.7500000000,7,8.5570802689,,,
63.0000000000,7,8.5686082840,,,
63.2500000000,7,8.5788564682,,,
63.5000000000,7,8.5903835297,,,
63.7500000000,7,8.6031942368,,,
64.0000000000,8,8.6019115448,,,
64.2500000000,8,8.5916652679,,,
64.5000000000,8,8.6108798981,,,
64.7500000000,8,8.7043886185,,,
65.0000000000,8,8.8401689529,,,
65.2500000000,8,8.9887580872,,,
65.5000000000,8,9.0988235474,,,
65.7500000000,8,9.1808042526,,,
66.0000000000,8,9.2320413589,,,
66.2500000000,8,9.2589416504,,,
66.5000000000,8,9.2358846664,,,
66.7500000000,8,9.1872091293,,,
67.0000000000,8,9.1270046234,,,
67.2500000000,8,9.0732049942,,,
67.5000000000,8,9.0373382568,,,
67.7500000000,8,9.0270900726,,,
68.0000000000,8,9.0117187500,,,
68.2500000000,8,8.9937858582,,,
68.5000000000,8,8.9796953201,,,
68.7500000000,8,8.9617624283,,,
69.0000000000,8,8.9527959824,,,
69.2500000000,8,8.9246149063,,,
69.5000000000,8,8.8964338303,,,
69.7500000000,8,8.8977146149,,,
70.0000000000,8,8.9271764755,,,
70.2500000000,8,8.9592008591,,,
70.5000000000,8,8.9912242889,,,
70.7500000000,8,9.0053148270,,,
71.0000000000,8,9.0091571808,,,
71.2500000000,8,8.9899444580,,,
71.5000000000,8,8.9630432129,,,
71.7500000000,8,8.9399862289,,,
72.0000000000,9,8.9246149063,,,
72.2500000000,9,8.9143676758,,,
72.5000000000,9,8.8977146149,,,
72.7500000000,9,8.8887481689,,,
73.0000000000,9,8.8733768463,,,
73.2500000000,9,8.8592863083,,,
73.5000000000,9,8.8439149857,,,
73.7500000000,9,8.8285436630,,,
74.0000000000,9,8.8182964325,,,
74.2500000000,9,8.8106107712,,,
74.5000000000,9,8.7939586639,,,
74.7500000000,9,8.7926778793,,,
75.0000000000,9,8.8528823853,,,
75.2500000000,9,8.9809761047,,,
75.5000000000,9,9.1577472687,,,
75.7500000000,9,9.3127412796,,,
76.0000000000,9,9.4382743835,,,
76.2500000000,9,9.5432157516,,,
76.5000000000,9,9.5854873657,,,
76.7500000000,9,9.6520967484,,,
77.0000000000,9,9.6585016251,,,
77.2500000000,9,9.6738729477,,,
77.5000000000,9,9.6815586090,,,
77.7500000000,9,9.6636247635,,,
78.0000000000,9,9.6354446411,,,
78.2500000000,9,9.6008586884,,,
78.5000000000,9,9.5944538116,,,
78.7500000000,9,9.5573062897,,,
79.0000000000,9,9.4983844757,,,
79.2500000000,9,9.4458646774,,,
79.5000000000,9,9.3920650482,,,
79.7500000000,9,9.3561983109,,,
80.0000000000,10,9.3088035583,,,
80.2500000000,10,9.2754983902,,,
80.5000000000,10,9.2421941757,,,
80.7500000000,10,9.2268228531,,,
81.0000000000,10,9.2152938843,,,
81.2500000000,10,9.1935176849,,,
81.5000000000,10,9.1845512390,,,
81.7500000000,10,9.1781463623,,,
82.0000000000,10,9.1640567780,,,
82.2500000000,10,9.1550893784,,,
82.5000000000,10,9.1371555328,,,
82.7500000000,10,9.1371555328,,,
83.0000000000,10,9.1371555328,,,
83.2500000000,10,9.1371555328,,,
83.5000000000,10,9.1371555328,,,
83.7500000000,10,9.1371555328,,,
84.0000000000,10,9.1371555328,,,
84.2500000000,10,9.1371555328,,,
84.5000000000,10,9.1371555328,,,
84.7500000000,10,9.1371555328,,,
85.0000000000,10,9.1371555328,,,
85.2500000000,10,9.1371555328,,,
85.5000000000,10,9.1371555328,,,
85.7500000000,10,9.1371555328,,,
86.0000000000,10,9.1371555328,,,
86.2500000000,10,9.1371555328,,,
86.5000000000,10,9.1371555328,,,
86.7500000000,10,9.1371555328,,,
87.0000000000,10,9.1371555328,,,
87.2500000000,10,9.1371555328,,,
87.5000000000,10,9.1371555328,,,
87.7500000000,10,9.1371555328,,,
88.0000000000,11,9.1371555328,,,
88.2500000000,11,9.1371555328,,,
88.5000000000,11,9.1371555328,,,
88.7500000000,11,9.1371555328,,,
89.0000000000,11,9.1371555328,,,
89.2500000000,11,9.1371555328,,,
89.5000000000,11,9.1371555328,,,
89.7500000000,11,9.1371555328,,,
90.0000000000,11,9.1371555328,,,
90.2500000000,11,9.1371555328,,,
90.5000000000,11,9.1371555328,,,
90.7500000000,11,9.1371555328,,,
91.0000000000,11,9.1371555328,,,
91.2500000000,11,9.1371555328,,,
91.5000000000,11,9.1371555328,,,
91.7500000000,11,9.1371555328,,,
92.0000000000,11,9.1371555328,,,
92.2500000000,11,9.1371555328,,,
92.5000000000,11,9.1371555328,,,
92.7500000000,11,9.1371555328,,,
93.0000000000,11,9.1371555328,,,
93.2500000000,11,9.1371555328,,,
93.5000000000,11,9.1371555328,,,
93.7500000000,11,9.1371555328,,,
94.0000000000,11,9.1371555328,,,
94.2500000000,11,9.1371555328,,,
94.5000000000,11,9.1371555328,,,
94.7500000000,11,9.1371555328,,,
95.0000000000,11,9.1371555328,,,
95.2500000000,11,9.1371555328,,,
95.5000000000,11,9.1371555328,,,
95.7500000000,11,9.1371555328,,,
96.0000000000,12,9.1371555328,,,
96.2500000000,12,9.1371555328,,,
96.5000000000,12,9.1371555328,,,
96.7500000000,12,9.1371555328,,,
97.0000000000,12,9.1371555328,,,
97.2500000000,12,9.1371555328,,,
97.5000000000,12,9.1371555328,,,
97.7500000000,12,9.1371555328,,,
98.0000000000,12,9.1371555328,,,
98.2500000000,12,9.1371555328,,,
98.5000000000,12,9.1371555328,,,
98.7500000000,12,9.1371555328,,,
99.0000000000,12,9.1371555328,,,
99.2500000000,12,9.1371555328,,,
99.5000000000,12,9.1371555328,,,
99.7500000000,12,9.1371555328,,,
100.0000000000,12,9.1371555328,,,
100.2500000000,12,9.1371555328,,,
100.5000000000,12,9.1371555328,,,
100.7500000000,12,9.1371555328,,,
101.0000000000,12,9.1141004562,,,
101.2500000000,12,9.1243467331,,,
101.5000000000,12,9.1179428101,,,
101.7500000000,12,9.0974473953,,,
102.0000000000,12,9.0833568573,,,
102.2500000000,12,9.0026569366,,,
102.5000000000,12,9.0026569366,,,
102.7500000000,12,9.0026569366,,,
103.0000000000,12,9.0026569366,,,
103.2500000000,12,9.0026569366,,,
103.5000000000,12,9.0026569366,,,
103.7500000000,12,9.0026569366,,,
104.0000000000,13,9.0026569366,,,
104.2500000000,13,9.0026569366,,,
104.5000000000,13,9.0026569366,,,
104.7500000000,13,9.0026569366,,,
105.0000000000,13,9.0026569366,,,
105.2500000000,13,9.0026569366,,,
105.5000000000,13,9.0026569366,,,
105.7500000000,13,9.0026569366,,,
106.0000000000,13,9.0026569366,33025,106.1875000000,0.0000000000
106.2500000000,13,9.0026569366,33024,106.3125000000,0.0000000000
106.5000000000,13,9.0026569366,33025:33024,106.4375000000:106.5000000000,0.0000000000:0.0000000000
106.7500000000,13,9.0026569366,33025:33024:33025,106.6250000000:106.6875000000:106.8125000000,0.0000000000:0.0000000000:0.0000000000
107.0000000000,13,8.9949712753,33024:33025,106.8750000000:107.0000000000,0.0000000000:0.0000000000
107.2500000000,13,8.9885663986,33024:33025:33024,107.0312500000:107.1875000000:107.2500000000,0.0000000000:0.0000000000:0.0000000000
107.5000000000,13,8.9475774765,33025:33024:33025,107.3750000000:107.4375000000:107.5625000000,0.0000000000:0.0000000000:0.0000000000
107.7500000000,13,8.9604816437,33024:33025,107.6250000000:107.7500000000,0.0000000000:0.0000000000
108.0000000000,13,8.9502334595,33024:33025:33024,107.8125000000:107.9375000000:108.0000000000,0.0000000000:0.0000000000:0.0000000000
108.2500000000,13,8.9476718903,33025:33024,108.1250000000:108.1875000000,0.0000000000:0.0000000000
108.5000000000,13,8.9451103210,33025,108.5625000000,0.0000000000
108.7500000000,13,8.9374246597,33024:33025,108.5937500000:108.7500000000,0.0000000000:0.0000000000
109.0000000000,13,8.9361429214,33024:33025:33024,108.8125000000:108.9687500000:109.0312500000,0.0000000000:0.0000000000:0.0000000000
109.2500000000,13,8.9553575516,33025,109.2812500000,0.0000000000
109.5000000000,13,9.0219669342,33024,109.5625000000,0.0000000000
109.7500000000,13,9.1103515625,,,
110.0000000000,13,9.1654329300,,,
110.2500000000,13,9.1987371445,,,
110.5000000000,13,9.2089843750,,,
110.7500000000,13,9.2294797897,,,
111.0000000000,13,9.2230749130,,,
111.2500000000,13,9.2102661133,,,
111.5000000000,13,9.2371654510,,,
111.7500000000,13,9.2730321884,,,
112.0000000000,14,9.3037748337,,,
112.2500000000,14,9.3255510330,,,
112.5000000000,14,9.3460445404,,,
112.7500000000,14,9.3537311554,,,
113.0000000000,14,9.3511695862,,,
113.2500000000,14,9.3575744629,,,
113.5000000000,14,9.3960027695,,,
113.7500000000,14,9.4318704605,,,
114.0000000000,14,9.4548311234,,,
114.2500000000,14,9.3536367416,,,
114.5000000000,14,9.3331413269,,,
114.7500000000,14,9.3062410355,,,
115.0000000000,14,9.2870273590,,,
115.2500000000,14,9.2742176056,,,
115.5000000000,14,9.2550039291,,,
115.7500000000,14,9.2370700836,,,
116.0000000000,14,9.2152938843,,,
116.2500000000,14,9.2088890076,,,
116.5000000000,14,9.2076082230,,,
116.7500000000,14,9.1883945465,,,
117.0000000000,14,9.1986417770,,,
117.2500000000,14,9.1819896698,,,
117.5000000000,14,9.1819896698,,,
117.7500000000,14,9.1832704544,,,
118.0000000000,14,9.1883945465,,,
118.2500000000,14,9.2114515305,,,
118.5000000000,14,9.2716560364,,,
118.7500000000,14,9.3677263260,,,
119.0000000000,14,9.4266500473,,,
119.2500000000,14,9.4637975693,,,
119.5000000000,14,9.4830121994,,,
119.7500000000,14,9.4868545532,,,
120.0000000000,15,9.4766073227,,,
120.2500000000,15,9.4497070313,,,
120.5000000000,15,9.4164028168,,,
120.7500000000,15,9.3805360794,,,
121.0000000000,15,9.6610631943,,,
121.2500000000,15,9.8352718353,,,
121.5000000000,15,9.9723329544,,,
121.7500000000,15,10.1005601883,,,
122.0000000000,15,10.1159296036,,,
122.2500000000,15,10.0915899277,,,
122.5000000000,15,10.0480403900,,,
122.7500000000,15,9.9750223160,,,
123.0000000000,15,9.8789520264,,,
123.2500000000,15,9.7803192139,,,
123.5000000000,15,9.7137098312,,,
123.7500000000,15,9.6650342941,,,
124.0000000000,15,9.6394147873,,,
124.2500000000,15,9.5984249115,,,
124.5000000000,15,9.5471868515,,,
124.7500000000,15,9.5292539597,,,
125.0000000000,15,9.5023536682,,,
125.2500000000,15,9.4882631302,,,
125.5000000000,15,9.4767351151,,,
125.7500000000,15,9.4588012695,,,
126.0000000000,15,9.4625167847,,,
126.2500000000,15,9.4586725235,,,
126.5000000000,15,9.4445829391,,,
126.7500000000,15,9.4420213699,,,
127.0000000000,15,9.4304933548,,,
127.2500000000,15,9.4279308319,,,
127.5000000000,15,9.4176836014,,,
127.7500000000,15,9.4074363708,,,
128.0000000000,16,9.3626031876,,,
128.2500000000,16,9.3561983109,,,
128.5000000000,16,9.3523550034,,,
128.7500000000,16,9.3485126495,,,
129.0000000000,16,9.3446693420,,,
129.2500000000,16,9.3433885574,,,
129.5000000000,16,9.3382644653,,,
129.7500000000,16,9.3344221115,,,
130.0000000000,16,9.3216123581,,,
130.2500000000,16,9.3152065277,,,
130.5000000000,16,9.3126459122,,,
130.7500000000,16,9.3113651276,,,
131.0000000000,16,9.2985553741,,,
131.2500000000,16,9.3075218201,,,
131.5000000000,16,9.3574790955,,,
131.7500000000,16,9.4535503387,,,
132.0000000000,16,9.5688352585,,,
132.2500000000,16,9.6533775330,,,
132.5000000000,16,9.7058963776,,,
132.7500000000,16,9.7302341461,,,
133.0000000000,16,9.7379198074,,,
133.2500000000,16,9.7238292694,,,
133.5000000000,16,9.6969299316,,,
133.7500000000,16,9.6700296402,,,
134.0000000000,16,9.6585016251,,,
134.2500000000,16,9.6725921631,,,
134.5000000000,16,9.7058963776,,,
134.7500000000,16,9.7123012543,,,
135.0000000000,16,9.6777153015,,,
135.2500000000,16,9.6482534409,,,
135.5000000000,16,9.6187915802,,,
135.7500000000,16,9.5957345963,,,
136.0000000000,17,9.5752401352,,,
136.2500000000,17,9.5470590591,,,
136.5000000000,17,9.5304069519,,,
136.7500000000,17,9.5201587677,,,
137.0000000000,17,9.5022258759,,,
137.2500000000,17,9.4983844757,,,
137.5000000000,17,9.4791688919,,,
137.7500000000,17,9.4791688919,,,
138.0000000000,17,9.4663591385,,,
138.2500000000,17,9.4599552155,,,
138.5000000000,17,9.4586725235,,,
138.7500000000,17,9.4548311234,,,
139.0000000000,17,9.4471454620,,,
139.2500000000,17,9.4420213699,,,
139.5000000000,17,9.4330549240,,,
139.7500000000,17,9.4240875244,,,
140.0000000000,17,9.4215259552,,,
140.2500000000,17,9.4164028168,,,
140.5000000000,17,9.4125604630,,,
140.7500000000,17,9.3946266174,,,
141.0000000000,17,9.3946266174,,,
141.2500000000,17,9.3907833099,,,
141.5000000000,17,9.3600406647,,,
141.7500000000,17,9.3536367416,,,
142.0000000000,17,9.3561983109,,,
142.2500000000,17,9.3408269882,,,
142.5000000000,17,9.3446693420,,,
142.7500000000,17,9.3421077728,,,
143.0000000000,17,9.3344221115,,,
143.2500000000,17,9.3254556656,,,
143.5000000000,17,9.3190507889,,,
143.7500000000,17,9.3228931427,,,
144.0000000000,18,9.3254556656,,,
144.2500000000,18,9.3100843430,,,
144.5000000000,18,9.3139266968,,,
144.7500000000,18,9.3011178970,,,
145.0000000000,18,9.2985553741,,,
145.2500000000,18,9.2985553741,,,
145.5000000000,18,9.2857465744,,,
145.7500000000,18,9.2908697128,,,
146.0000000000,18,9.2819032669,,,
146.2500000000,18,9.2806215286,,,
146.5000000000,18,9.2793416977,,,
146.7500000000,18,9.2729368210,,,
147.0000000000,18,9.2742176056,,,
147.2500000000,18,9.2639703751,,,
147.5000000000,18,9.2588462830,,,
147.7500000000,18,9.2524414063,,,
148.0000000000,18,9.2473182678,,,
148.2500000000,18,9.2409133911,,,
148.5000000000,18,9.2447557449,,,
148.7500000000,18,9.2306652069,,,
149.0000000000,18,9.2345094681,,,
149.2500000000,18,9.2281036377,,,
149.5000000000,18,9.2293844223,,,
149.7500000000,18,9.2345094681,,,
150.0000000000,18,9.2229795456,,,
150.2500000000,18,9.2255420685,,,
150.5000000000,18,9.2178564072,,,
150.7500000000,18,9.2178564072,,,
151.0000000000,18,9.2114515305,,,
151.2500000000,18,9.2114515305,,,
151.5000000000,18,9.2165746689,,,
151.7500000000,18,9.2012033463,,,
152.0000000000,19,9.2024850845,,,
152.2500000000,19,9.2012033463,,,
152.5000000000,19,9.1935176849,,,
152.7500000000,19,9.1947994232,,,
153.0000000000,19,9.1871137619,,,
153.2500000000,19,9.1807088852,,,
153.5000000000,19,9.1768655777,,,
153.7500000000,19,9.1768655777,,,
154.0000000000,19,9.1768655777,,,
154.2500000000,19,9.1768655777,,,
154.5000000000,19,9.1768655777,,,
154.7500000000,19,9.1768655777,,,
155.0000000000,19,9.1768655777,,,
155.2500000000,19,9.1768655777,,,
155.5000000000,19,9.1768655777,,,
155.7500000000,19,9.1768655777,,,
156.0000000000,19,9.1768655777,,,
156.2500000000,19,9.1768655777,,,
156.5000000000,19,9.1768655777,,,
156.7500000000,19,9.1768655777,,,
157.0000000000,19,9.1768655777,,,
157.2500000000,19,9.1768655777,,,
157.5000000000,19,9.1768655777,,,
157.7500000000,19,9.1768655777,,,
158.0000000000,19,9.1768655777,,,
158.2500000000,19,9.1768655777,,,
158.5000000000,19,9.1768655777,,,
158.7500000000,19,9.1768655777,,,
159.0000000000,19,9.1768655777,,,
159.2500000000,19,9.1768655777,,,
159.5000000000,19,9.1768655777,,,
159.7500000000,19,9.1768655777,,,
160.0000000000,20,9.1768655777,,,
160.2500000000,20,9.1768655777,,,
160.5000000000,20,9.1768655777,,,
160.7500000000,20,9.1768655777,,,
161.0000000000,20,9.1768655777,,,
161.2500000000,20,9.1768655777,,,
161.5000000000,20,9.1768655777,,,
161.7500000000,20,9.1768655777,,,
162.0000000000,20,9.1768655777,,,
162.2500000000,20,9.1768655777,,,
162.5000000000,20,9.1768655777,,,
162.7500000000,20,9.1768655777,,,
163.0000000000,20,9.1768655777,,,
163.2500000000,20,9.1768655777,,,
163.5000000000,20,9.1768655777,,,
163.7500000000,20,9.1768655777,,,
164.0000000000,20,9.1768655777,,,
164.2500000000,20,9.1768655777,,,
164.5000000000,20,9.1768655777,,,
164.7500000000,20,9.1768655777,,,
165.0000000000,20,9.1768655777,,,
165.2500000000,20,9.1768655777,,,
165.5000000000,20,9.1768655777,,,
165.7500000000,20,9.1768655777,,,
166.0000000000,20,9.1768655777,,,
166.2500000000,20,9.1768655777,,,
166.5000000000,20,9.1768655777,,,
166.7500000000,20,9.1768655777,,,
167.0000000000,20,9.1768655777,,,
167.2500000000,20,9.2870273590,,,
167.5000000000,20,9.2870273590,,,
167.7500000000,20,9.2870273590,,,
168.0000000000,21,9.2870273590,,,
168.2500000000,21,9.2870273590,,,
168.5000000000,21,9.2870273590,,,
168.7500000000,21,9.2870273590,,,
169.0000000000,21,9.2870273590,,,
169.2500000000,21,9.2870273590,,,
169.5000000000,21,9.2870273590,,,
169.7500000000,21,9.2870273590,,,
170.0000000000,21,9.2870273590,,,
170.2500000000,21,9.2870273590,,,
170.5000000000,21,9.2870273590,,,
170.7500000000,21,9.2870273590,,,
171.0000000000,21,9.2870273590,,,
171.2500000000,21,9.2870273590,,,
171.5000000000,21,9.2870273590,,,
171.7500000000,21,9.2870273590,,,
172.0000000000,21,9.2729368210,,,
172.2500000000,21,9.2473182678,,,
172.5000000000,21,9.2332277298,,,
172.7500000000,21,9.2216987610,,,
173.0000000000,21,9.3139266968,,,
173.2500000000,21,9.4586725235,,,
173.5000000000,21,9.7110204697,,,
173.7500000000,21,9.9415903091,,,
174.0000000000,21,10.0978698730,,,
174.2500000000,21,10.2734804153,,,
174.5000000000,21,10.3528995514,,,
174.7500000000,21,10.3708400726,,,
175.0000000000,21,10.3426504135,,,
175.2500000000,21,10.2593898773,,,
175.5000000000,21,10.1774101257,,,
175.7500000000,21,10.0890302658,,,
176.0000000000,22,10.0006399155,,,
176.2500000000,22,9.9289083481,,,
176.5000000000,22,9.8558950424,,,
176.7500000000,22,9.7995328903,,,
177.0000000000,22,9.7521381378,,,
177.2500000000,22,9.7213945389,,,
177.5000000000,22,9.6727199554,,,
177.7500000000,22,9.6445388794,,,
178.0000000000,22,9.6227626801,,,
178.2500000000,22,9.5856151581,,,
178.5000000000,22,9.4612360001,,,
178.7500000000,22,9.4458646774,,,
179.0000000000,22,9.4330549240,,,
179.2500000000,22,9.4304933548,,,
179.5000000000,22,9.4189643860,,,
179.7500000000,22,9.4099979401,,,
180.0000000000,22,9.4266500473,,,
180.2500000000,22,9.4740447998,,,
180.5000000000,22,9.5329694748,,,
180.7500000000,22,9.5726776123,,,
181.0000000000,22,9.5957345963,,,
181.2500000000,22,9.6059827805,,,
181.5000000000,22,9.5918922424,,,
181.7500000000,22,9.5829257965,,,
182.0000000000,22,9.5611495972,,,
182.2500000000,22,9.5227212906,,,
182.5000000000,22,9.4983844757,,,
182.7500000000,22,9.4637975693,,,
183.0000000000,22,9.4484262466,,,
183.2500000000,22,9.4292116165,,,
183.5000000000,22,9.4112787247,,,
183.7500000000,22,9.3959074020,,,
184.0000000000,23,9.3818168640,,,
184.2500000000,23,9.3292980194,,,
184.5000000000,23,9.3228931427,,,
184.7500000000,23,9.3357028961,,,
185.0000000000,23,9.3331413269,,,
185.2500000000,23,9.3357028961,,,
185.5000000000,23,9.3280172348,,,
185.7500000000,23,9.3203315735,,,
186.0000000000,23,9.3152065277,,,
186.2500000000,23,9.3049602509,,,
186.5000000000,23,9.2934322357,,,
186.7500000000,23,9.2934322357,,,
187.0000000000,23,9.2844648361,,,
187.2500000000,23,9.2742176056,,,
187.5000000000,23,9.2614078522,,,
187.7500000000,23,9.2562847137,,,
188.0000000000,23,9.2537221909,,,
188.2500000000,23,9.2409133911,,,
188.5000000000,23,9.2409133911,,,
188.7500000000,23,9.2281036377,,,
189.0000000000,23,9.2255420685,,,
189.2500000000,23,9.2216987610,,,
189.5000000000,23,9.2076082230,,,
189.7500000000,23,9.2024850845,,,
190.0000000000,23,9.1691799164,,,
190.2500000000,23,9.1678991318,,,
190.5000000000,23,9.1614942551,,,
190.7500000000,23,9.1512470245,,,
191.0000000000,23,9.1525278091,,,
191.2500000000,23,9.1384372711,,,
191.5000000000,23,9.1333141327,,,
191.7500000000,23,9.1217851639,,,
192.0000000000,24,9.1179428101,,,
192.2500000000,24,9.1230659485,,,
192.5000000000,24,9.1217851639,,,
192.7500000000,24,9.1115379333,,,
193.0000000000,24,9.1076946259,,,
193.2500000000,24,9.1012897491,,,
193.5000000000,24,9.1089754105,,,
193.7500000000,24,9.1038522720,,,
194.0000000000,24,9.0961666107,,,
194.2500000000,24,9.1012897491,,,
194.5000000000,24,9.0897617340,,,
194.7500000000,24,9.0820760727,,,
195.0000000000,24,9.0807952881,,,
195.2500000000,24,9.0756711960,,,
195.5000000000,24,9.0743904114,,,
195.7500000000,24,9.0641422272,,,
196.0000000000,24,9.0282764435,,,
196.2500000000,24,9.0244331360,,,
196.5000000000,24,9.0244331360,,,
196.7500000000,24,9.0295572281,,,
197.0000000000,24,9.0193099976,,,
197.2500000000,24,9.0141859055,,,
197.5000000000,24,9.0090618134,,,
197.7500000000,24,8.9911289215,,,
198.0000000000,24,8.9962520599,,,
198.2500000000,24,8.9834432602,,,
198.5000000000,24,8.9770383835,,,
198.7500000000,24,8.9885663986,,,
199.0000000000,24,8.9770383835,,,
199.2500000000,24,8.9744768143,,,
199.5000000000,24,8.9693527222,,,
199.7500000000,24,8.9642286301,,,
200.0000000000,25,8.9706344604,,,
200.2500000000,25,8.9565429688,,,
200.5000000000,25,8.9604816437,,,
200.7500000000,25,8.9668874741,,,
201.0000000000,25,9.0027523041,,,
201.2500000000,25,9.0732049942,,,
201.5000000000,25,9.1385326385,,,
201.7500000000,25,9.1833658218,,,
202.0000000000,25,9.2205133438,,,
202.2500000000,25,9.2358846664,,,
202.5000000000,25,9.1334085464,,,
202.7500000000,25,9.1103515625,,,
203.0000000000,25,9.1065092087,,,
203.2500000000,25,9.0872945786,,,
203.5000000000,25,9.0732049942,,,
203.7500000000,25,9.0668001175,,,
204.0000000000,25,9.0552711487,,,
204.2500000000,25,9.0527095795,,,
204.5000000000,25,9.0386190414,,,
204.7500000000,25,9.0296525955,,,
205.0000000000,25,9.0219669342,,,
205.2500000000,25,9.0155620575,,,
205.5000000000,25,9.0155620575,,,
205.7500000000,25,9.0053148270,,,
206.0000000000,25,8.9976291656,,,
206.2500000000,25,9.0065956116,,,
206.5000000000,25,9.0027523041,,,
206.7500000000,25,9.0040330887,,,
207.0000000000,25,9.0040330887,,,
207.2500000000,25,8.9963474274,,,
207.5000000000,25,8.9989099503,,,
207.7500000000,25,8.9886617661,,,
208.0000000000,26,8.9861001968,,,
208.2500000000,26,8.9848194122,,,
208.5000000000,26,8.9720096588,,,
208.7500000000,26,8.9643239975,,,
209.0000000000,26,8.9617624283,,,
209.2500000000,26,8.9502334595,,,
209.5000000000,26,8.9169292450,,,
209.7500000000,26,8.9182100296,,,
210.0000000000,26,8.9182100296,,,
210.2500000000,26,8.9054002762,,,
210.5000000000,26,8.9054002762,,,
210.7500000000,26,8.8951530457,,,
211.0000000000,26,8.8964338303,,,
211.2500000000,26,8.8900289536,,,
211.5000000000,26,8.8925914764,,,
211.7500000000,26,8.9233341217,,,
212.0000000000,26,8.9784145355,,,
212.2500000000,26,9.0398998260,,,
212.5000000000,26,9.1039476395,,,
212.7500000000,26,9.1359710693,,,
213.0000000000,26,9.1449384689,,,
213.2500000000,26,9.1423759460,,,
213.5000000000,26,9.1308469772,,,
213.7500000000,26,9.1167564392,,,
214.0000000000,26,9.0936994553,,,
214.2500000000,26,9.0706424713,,,
214.5000000000,26,9.0527095795,,,
214.7500000000,26,9.0258092880,,,
215.0000000000,26,9.0065956116,,,
215.2500000000,26,8.9899444580,,,
215.5000000000,26,8.9694480896,,,
215.7500000000,26,8.9579191208,,,
216.0000000000,27,8.9502334595,,,
216.2500000000,27,8.9028387070,,,
216.5000000000,27,8.8977146149,,,
216.7500000000,27,8.8951530457,,,
217.0000000000,27,8.8823432922,,,
217.2500000000,27,8.8810634613,,,
217.5000000000,27,8.8785009384,,,
217.7500000000,27,8.8759393692,,,
218.0000000000,27,8.8759393692,,,
218.2500000000,27,8.8695335388,,,
218.5000000000,27,8.8605680466,,,
218.7500000000,27,8.8605680466,,,
219.0000000000,27,8.8439149857,,,
219.2500000000,27,8.8362293243,,,
219.5000000000,27,8.8298244476,,,
219.7500000000,27,8.8259820938,,,
220.0000000000,27,8.8311061859,,,
220.2500000000,27,8.8247013092,,,
220.5000000000,27,8.8195772171,,,
220.7500000000,27,8.8131723404,,,
221.0000000000,27,8.8093299866,,,
221.2500000000,27,8.8093299866,,,
221.5000000000,27,8.8016443253,,,
221.7500000000,27,8.7913961411,,,
222.0000000000,27,8.7837095261,,,
222.2500000000,27,8.7798681259,,,
222.5000000000,27,8.7721824646,,,
222.7500000000,27,8.7657775879,,,
223.0000000000,27,8.8170156479,,,
223.2500000000,27,8.8695335388,,,
223.5000000000,27,8.9130859375,,,
223.7500000000,27,8.9656047821,,,
224.0000000000,28,9.0206861496,,,
224.2500000000,28,9.0514287949,,,
224.5000000000,28,9.0744857788,,,
224.7500000000,28,9.0616760254,,,
225.0000000000,28,9.0398998260,,,
225.2500000000,28,9.0232477188,,,
225.5000000000,28,8.9950666428,,,
225.7500000000,28,8.9732904434,,,
226.0000000000,28,8.9604816437,,,
226.2500000000,28,8.9335813522,,,
226.5000000000,28,8.9284572601,,,
226.7500000000,28,8.9079627991,,,
227.0000000000,28,8.8951530457,,,
227.2500000000,28,8.8836250305,,,
227.5000000000,28,8.8708152771,,,
227.7500000000,28,8.8656911850,,,
228.0000000000,28,8.8567247391,,,
228.2500000000,28,8.8554439545,,,
228.5000000000,28,8.8387918472,,,
228.7500000000,28,8.8323869705,,,
229.0000000000,28,8.8259820938,,,
229.2500000000,28,8.8182964325,,,
229.5000000000,28,8.8221387863,,,
229.7500000000,28,8.8093299866,,,
230.0000000000,28,8.7965202332,,,
230.2500000000,28,8.7837095261,,,
230.5000000000,28,8.7824296951,,,
230.7500000000,28,8.7593727112,,,
231.0000000000,28,8.7593727112,,,
231.2500000000,28,8.7542495728,,,
231.5000000000,28,8.7478446960,,,
231.7500000000,28,8.7401590347,,,
232.0000000000,29,8.7260675430,,,
232.2500000000,29,8.7286300659,,,
232.5000000000,29,8.7171020508,,,
232.7500000000,29,8.7106971741,,,
233.0000000000,29,8.7042922974,,,
233.2500000000,29,8.6978874207,,,
233.5000000000,29,8.6889209747,,,
233.7500000000,29,8.6914825439,,,
234.0000000000,29,8.6799545288,,,
234.2500000000,29,8.6786737442,,,
234.5000000000,29,8.6761112213,,,
234.7500000000,29,8.7068538666,,,
235.0000000000,29,8.7696208954,,,
235.2500000000,29,8.8887481689,,,
235.5000000000,29,9.0245294571,,,
235.7500000000,29,9.1436567307,,,
236.0000000000,29,9.2358846664,,,
236.2500000000,29,9.2871227264,,,
236.5000000000,29,9.3024940491,,,
236.7500000000,29,9.1231613159,,,
237.0000000000,29,9.0975427628,,,
237.2500000000,29,9.0796089172,,,
237.5000000000,29,9.0578327179,,,
237.7500000000,29,9.0245294571,,,
238.0000000000,29,9.0117187500,,,
238.2500000000,29,8.9861001968,,,
238.5000000000,29,8.9771337509,,,
238.7500000000,29,8.9976291656,,,
239.0000000000,29,9.0719232559,,,
239.2500000000,29,9.1808042526,,,
239.5000000000,29,9.2512559891,,,
239.7500000000,29,9.2935276031,,,
240.0000000000,30,9.2999315262,,,
240.2500000000,30,9.2935276031,,,
240.5000000000,30,9.2602224350,,,
240.7500000000,30,9.2294797897,,,
241.0000000000,30,9.1961755753,,,
241.2500000000,30,9.1603088379,,,
241.5000000000,30,9.1820850372,,,
241.7500000000,30,9.2871227264,,,
242.0000000000,30,9.4344310760,,,
242.2500000000,30,9.6316013336,,,
242.5000000000,30,9.7891578674,,,
242.7500000000,30,9.8634529114,,,
243.0000000000,30,9.8980379105,,,
243.2500000000,30,9.8737001419,,,
243.5000000000,30,9.6047019958,,,
243.7500000000,30,9.6930866241,,,
244.0000000000,30,9.7750673294,,,
244.2500000000,30,9.8429565430,,,
244.5000000000,30,9.8852281570,,,
244.7500000000,30,9.9018812180,,,
245.0000000000,30,9.8890714645,,,
245.2500000000,30,9.8365526199,,,
245.5000000000,30,9.7789096832,,,
245.7500000000,30,9.6994924545,,,
246.0000000000,30,9.6482534409,,,
246.2500000000,30,9.6085443497,,,
246.5000000000,30,9.5842065811,,,
246.7500000000,30,9.5649919510,,,
247.0000000000,30,9.5624303818,,,
247.2500000000,30,9.5688352585,,,
247.5000000000,30,9.5867681503,,,
247.7500000000,30,9.5970163345,,,
248.0000000000,31,9.5906114578,,,
248.2500000000,31,9.5803632736,,,
248.5000000000,31,9.5573062897,,,
248.7500000000,31,9.5342493057,,,
249.0000000000,31,9.4983844757,,,
249.2500000000,31,9.4676408768,,,
249.5000000000,31,9.4497070313,,,
249.7500000000,31,9.4407405853,,,
250.0000000000,31,9.4791688919,,,
250.2500000000,31,9.6098251343,,,
250.5000000000,31,10.1466703415,,,
250.7500000000,31,10.1107997894,,,
251.0000000000,31,10.0557203293,,,
251.2500000000,31,9.9737415314,,,
251.5000000000,31,9.8917608261,,,
251.7500000000,31,9.8456468582,,,
252.0000000000,31,9.8123426437,,,
252.2500000000,31,9.7854423523,,,
252.5000000000,31,9.7611045837,,,
252.7500000000,31,9.7252388000,,,
253.0000000000,31,9.6957769394,,,
253.2500000000,31,9.6778430939,,,
253.5000000000,31,9.6458196640,,,
253.7500000000,31,9.6202011108,,,
254.0000000000,31,9.5997056961,,,
254.2500000000,31,9.5843343735,,,
254.5000000000,31,9.5817728043,,,
254.7500000000,31,9.5599966049,,,
255.0000000000,31,9.5535917282,,,
255.2500000000,31,9.5395011902,,,
255.5000000000,31,9.5292539597,,,
255.7500000000,31,9.5177249908,,,
256.0000000000,32,9.5087585449,,,
256.2500000000,32,9.4933872223,,,
256.5000000000,32,9.4844207764,,,
256.7500000000,32,9.4703302383,,,
257.0000000000,32,9.4714832306,,,
257.2500000000,32,9.5726776123,,,
257.5000000000,32,9.5778017044,,,
257.7500000000,32,9.5778017044,,,
258.0000000000,32,9.5649919510,,,
258.2500000000,32,9.5470590591,,,
258.5000000000,32,9.5252828598,,,
258.7500000000,32,9.5047874451,,,
259.0000000000,32,9.4932594299,,,
259.2500000000,32,9.4778881073,,,
259.5000000000,32,9.4663591385,,,
259.7500000000,32,9.4625167847,,,
260.0000000000,32,9.4497070313,,,
260.2500000000,32,9.4420213699,,,
260.5000000000,32,9.4381790161,,,
260.7500000000,32,9.4279308319,,,
261.0000000000,32,9.4304933548,,,
261.2500000000,32,9.4189643860,,,
261.5000000000,32,9.4099979401,,,
261.7500000000,32,9.3971881866,,,
262.0000000000,32,9.3920650482,,,
262.2500000000,32,9.3984689713,,,
262.5000000000,32,9.3869409561,,,
262.7500000000,32,9.3754119873,,,
263.0000000000,32,9.3754119873,,,
263.2500000000,32,9.3677263260,,,
263.5000000000,32,9.3651647568,,,
263.7500000000,32,9.3638839722,,,
264.0000000000,33,9.3536367416,,,
264.2500000000,33,9.3497934341,,,
264.5000000000,33,9.3357028961,,,
264.7500000000,33,9.3280172348,,,
265.0000000000,33,9.3177700043,,,
265.2500000000,33,9.3075218201,,,
265.5000000000,33,9.3049602509,,,
265.7500000000,33,9.2934322357,,,
266.0000000000,33,9.2895889282,,,
266.2500000000,33,9.2806215286,,,
266.5000000000,33,9.2652511597,,,
266.7500000000,33,9.2742176056,,,
267.0000000000,33,9.2601270676,,,
267.2500000000,33,9.2537221909,,,
267.5000000000,33,9.2537221909,,,
267.7500000000,33,9.2473182678,,,
268.0000000000,33,9.2614078522,,,
268.2500000000,33,9.2537221909,,,
268.5000000000,33,9.2460365295,,,
268.7500000000,33,9.2447557449,,,
269.0000000000,33,9.2537221909,,,
269.2500000000,33,9.2524414063,,,
269.5000000000,33,9.2742176056,,,
269.7500000000,33,9.3305788040,,,
270.0000000000,33,9.4343357086,,,
270.2500000000,33,9.5240020752,,,
270.5000000000,33,9.5880489349,,,
270.7500000000,33,9.6277589798,,,
271.0000000000,33,9.6495342255,,,
271.2500000000,33,9.6789960861,,,
271.5000000000,33,9.7276725769,,,
271.7500000000,33,9.7853145599,,,
272.0000000000,34,9.8314285278,,,
272.2500000000,34,9.8583288193,,,
272.5000000000,34,9.8391141891,,,
272.7500000000,34,9.7981243134,,,
273.0000000000,34,9.7673816681,,,
273.2500000000,34,9.7481670380,,,
273.5000000000,34,9.7507295609,,,
273.7500000000,34,9.7507295609,,,
274.0000000000,34,9.7327957153,,,
274.2500000000,34,9.7251100540,,,
274.5000000000,34,9.6982107162,,,
274.7500000000,34,9.6738729477,,,
275.0000000000,34,9.6431303024,,,
275.2500000000,34,9.6187915802,,,
275.5000000000,34,9.5995779037,,,
275.7500000000,34,9.5765209198,,,
276.0000000000,34,9.5560264587,,,
276.2500000000,34,9.5470590591,,,
276.5000000000,34,9.5470590591,,,
276.7500000000,34,9.5214414597,,,
277.0000000000,34,9.5137548447,,,
277.2500000000,34,9.4996643066,,,
277.5000000000,34,9.4932594299,,,
277.7500000000,34,9.4804496765,,,
278.0000000000,34,9.4727640152,,,
278.2500000000,34,9.4637975693,,,
278.5000000000,34,9.4484262466,,,
278.7500000000,34,9.4522695541,,,
279.0000000000,34,9.4458646774,,,
279.2500000000,34,9.4330549240,,,
279.5000000000,34,9.4304933548,,,
279.7500000000,34,9.4202451706,,,
280.0000000000,35,9.4151220322,,,
280.2500000000,35,9.4125604630,,,
280.5000000000,35,9.4099979401,,,
280.7500000000,35,9.4074363708,,,
281.0000000000,35,9.3984689713,,,
281.2500000000,35,9.3946266174,,,
281.5000000000,35,9.3843793869,,,
281.7500000000,35,9.3779754639,,,
282.0000000000,35,9.3779754639,,,
282.2500000000,35,9.3792552948,,,
282.5000000000,35,9.3651647568,,,
282.7500000000,35,9.3600406647,,,
283.0000000000,35,9.3472318649,,,
283.2500000000,35,9.3369836807,,,
283.5000000000,35,9.3382644653,,,
283.7500000000,35,9.3280172348,,,
284.0000000000,35,9.3241748810,,,
284.2500000000,35,9.3190507889,,,
284.5000000000,35,9.3177700043,,,
284.7500000000,35,9.3292980194,,,
285.0000000000,35,9.3344221115,,,
285.2500000000,35,9.3485126495,,,
285.5000000000,35,9.3523550034,,,
285.7500000000,35,9.3549175262,,,
286.0000000000,35,9.3792552948,,,
286.2500000000,35,9.4676408768,,,
286.5000000000,35,9.6034202576,,,
286.7500000000,35,9.7481670380,,,
287.0000000000,35,9.8724193573,,,
287.2500000000,35,9.9377470016,,,
287.5000000000,35,9.9761753082,,,
287.7500000000,35,9.9955177307,,,
288.0000000000,36,9.9506845474,,,
288.2500000000,36,9.8891992569,,,
288.5000000000,36,9.8315572739,,,
288.7500000000,36,9.7764759064,,,
289.0000000000,36,9.7188339233,,,
289.2500000000,36,9.6752815247,,,
289.5000000000,36,9.6381340027,,,
289.7500000000,36,9.6073913574,,,
290.0000000000,36,9.5766487122,,,
290.2500000000,36,9.5587158203,,,
290.5000000000,36,9.5420627594,,,
290.7500000000,36,9.5177249908,,,
291.0000000000,36,9.5061969757,,,
291.2500000000,36,9.4985113144,,,
291.5000000000,36,9.4869823456,,,
291.7500000000,36,9.4857015610,,,
292.0000000000,36,9.4703302383,,,
292.2500000000,36,9.4740447998,,,
292.5000000000,36,9.4599552155,,,
292.7500000000,36,9.4727640152,,,
293.0000000000,36,9.5150356293,,,
293.2500000000,36,9.5598688126,,,
293.5000000000,36,9.5880489349,,,
293.7500000000,36,9.5957345963,,,
294.0000000000,36,9.5982971191,,,
294.2500000000,36,9.5829257965,,,
294.5000000000,36,9.5611495972,,,
294.7500000000,36,9.5470590591,,,
295.0000000000,36,9.5637111664,,,
295.2500000000,36,9.5854873657,,,
295.5000000000,36,9.6213541031,,,
295.7500000000,36,9.6495342255,,,
296.0000000000,37,9.6789960861,,,
296.2500000000,37,9.7084579468,,,
296.5000000000,37,9.7315149307,,,
296.7500000000,37,9.7302341461,,,
297.0000000000,37,9.7161436081,,,
297.2500000000,37,9.7020530701,,,
297.5000000000,37,9.6738729477,,,
297.7500000000,37,9.6418485641,,,
298.0000000000,37,9.6111059189,,,
298.2500000000,37,9.5816450119,,,
298.5000000000,37,9.5649919510,,,
298.7500000000,37,9.5457782745,,,
299.0000000000,37,9.5496206284,,,
299.2500000000,37,9.5573062897,,,
299.5000000000,37,9.5701160431,,,
299.7500000000,37,9.5829257965,,,
300.0000000000,37,9.5752401352,,,
300.2500000000,37,9.5726776123,,,
300.5000000000,37,9.5585870743,,,
300.7500000000,37,9.5509014130,,,
301.0000000000,37,9.5406541824,,,
301.2500000000,37,9.5585870743,,,
301.5000000000,37,9.6572198868,,,
301.7500000000,37,9.8301477432,,,
302.0000000000,37,10.0043601990,,,
302.2500000000,37,10.1402597427,,,
302.5000000000,37,10.2017498016,,,
302.7500000000,37,10.2081499100,,,
303.0000000000,37,10.1825399399,,,
303.2500000000,37,10.1146497726,,,
303.5000000000,37,10.0300998688,,,
303.7500000000,37,9.9468421936,,,
304.0000000000,38,9.8802328110,,,
304.2500000000,38,9.8379611969,,,
304.5000000000,38,9.7803192139,,,
304.7500000000,38,9.7278003693,,,
305.0000000000,38,9.6919336319,,,
305.2500000000,38,9.6611909866,,,
305.5000000000,38,9.6483812332,,,
305.7500000000,38,9.6278867722,,,
306.0000000000,38,9.6214818954,,,
306.2500000000,38,9.6112346649,,,
306.5000000000,38,9.6073913574,,,
306.7500000000,38,9.6009855270,,,
307.0000000000,38,9.5728054047,,,
307.2500000000,38,9.5612773895,,,
307.5000000000,38,9.5523109436,,,
307.7500000000,38,9.5382204056,,,
308.0000000000,38,9.5305347443,,,
308.2500000000,38,9.5087585449,,,
308.5000000000,38,9.4972305298,,,
308.7500000000,38,9.4857015610,,,
309.0000000000,38,9.4741735458,,,
309.2500000000,38,9.4716110229,,,
309.5000000000,38,9.4588012695,,,
309.7500000000,38,9.4548311234,,,
310.0000000000,38,9.4535503387,,,
310.2500000000,38,9.4407405853,,,
310.5000000000,38,9.4279308319,,,
310.7500000000,38,9.4343357086,,,
311.0000000000,38,9.4240875244,,,
311.2500000000,38,9.4099979401,,,
311.5000000000,38,9.4035930634,,,
311.7500000000,38,9.4048738480,,,
312.0000000000,39,9.3920650482,,,
312.2500000000,39,9.3933458328,,,
312.5000000000,39,9.3779754639,,,
312.7500000000,39,9.3702888489,,,
313.0000000000,39,9.3651647568,,,
313.2500000000,39,9.3818168640,,,
313.5000000000,39,9.4407405853,,,
313.7500000000,39,9.5150356293,,,
314.0000000000,39,9.5957345963,,,
314.2500000000,39,9.6482534409,,,
314.5000000000,39,9.6725921631,,,
314.7500000000,39,9.6802778244,,,
315.0000000000,39,9.6674680710,,,
315.2500000000,39,9.6328821182,,,
315.5000000000,39,9.5995779037,,,
315.7500000000,39,9.5688352585,,,
316.0000000000,39,9.5419349670,,,
316.2500000000,39,9.5227212906,,,
316.5000000000,39,9.5214414597,,,
316.7500000000,39,9.5150356293,,,
317.0000000000,39,9.4906978607,,,
317.2500000000,39,9.4766073227,,,
317.5000000000,39,9.4535503387,,,
317.7500000000,39,9.4433021545,,,
318.0000000000,39,9.4266500473,,,
318.2500000000,39,9.4151220322,,,
318.5000000000,39,9.4125604630,,,
318.7500000000,39,9.3997507095,,,
319.0000000000,39,9.3933458328,,,
319.2500000000,39,9.3907833099,,,
319.5000000000,39,9.3779754639,,,
319.7500000000,39,9.3741312027,,,
320.0000000000,40,9.3626031876,,,
320.2500000000,40,9.3549175262,,,
320.5000000000,40,9.3433885574,,,
320.7500000000,40,9.3395462036,,,
321.0000000000,40,9.3331413269,,,
321.2500000000,40,9.3241748810,,,
321.5000000000,40,9.3216123581,,,
321.7500000000,40,9.3216123581,,,
322.0000000000,40,9.3126459122,,,
322.2500000000,40,9.3088035583,,,
322.5000000000,40,9.3023986816,,,
322.7500000000,40,9.2921495438,,,
323.0000000000,40,9.2921495438,,,
323.2500000000,40,9.2819032669,,,
323.5000000000,40,9.2806215286,,,
323.7500000000,40,9.2780609131,,,
324.0000000000,40,9.2639703751,,,
324.2500000000,40,9.2690944672,,,
324.5000000000,40,9.2601270676,,,
324.7500000000,40,9.2537221909,,,
325.0000000000,40,9.2434749603,,,
325.2500000000,40,9.2370700836,,,
325.5000000000,40,9.2357892990,,,
325.7500000000,40,9.2357892990,,,
326.0000000000,40,9.2357892990,,,
326.2500000000,40,9.2357892990,,,
326.5000000000,40,9.2357892990,,,
326.7500000000,40,9.2357892990,,,
327.0000000000,40,9.2357892990,,,
327.2500000000,40,9.2357892990,,,
327.5000000000,40,9.2357892990,,,
327.7500000000,40,9.2357892990,,,
328.0000000000,41,9.2357892990,,,
328.2500000000,41,9.2357892990,,,
328.5000000000,41,9.2357892990,,,
328.7500000000,41,9.2357892990,,,
329.0000000000,41,9.2357892990,,,
329.2500000000,41,9.2357892990,,,
329.5000000000,41,9.2357892990,,,
329.7500000000,41,9.2357892990,,,
330.0000000000,41,9.2357892990,,,
330.2500000000,41,9.2357892990,,,
330.5000000000,41,9.2357892990,,,
330.7500000000,41,9.2357892990,,,
331.0000000000,41,9.2357892990,,,
331.2500000000,41,9.2357892990,,,
331.5000000000,41,9.2357892990,,,
331.7500000000,41,9.2357892990,,,
332.0000000000,41,9.2357892990,,,
332.2500000000,41,9.2357892990,,,
332.5000000000,41,9.2357892990,,,
332.7500000000,41,9.2357892990,,,
333.0000000000,41,9.2357892990,,,
333.2500000000,41,9.2357892990,,,
333.5000000000,41,9.2357892990,,,
333.7500000000,41,9.2357892990,,,
334.0000000000,41,9.2357892990,,,
334.2500000000,41,9.2357892990,,,
334.5000000000,41,9.2357892990,,,
334.7500000000,41,9.2357892990,,,
335.0000000000,41,9.2357892990,,,
335.2500000000,41,9.2357892990,,,
335.5000000000,41,9.2357892990,,,
335.7500000000,41,9.2268228531,,,
