Time:4Hz,Epoch,Channel 1,Event Id,Event Date,Event Duration
0.0000000000,0,0.3035475016,,,
0.2500000000,0,0.3022666872,,,
0.5000000000,0,0.3022666872,,,
0.7500000000,0,0.3035475016,,,
1.0000000000,0,0.3035475016,,,
1.2500000000,0,0.3214784861,,,
1.5000000000,0,0.3163554072,,,
1.7500000000,0,0.3163554072,,,
2.0000000000,0,0.3189170063,,,
2.2500000000,0,0.3201977909,,,
2.5000000000,0,0.3227593899,,,
2.7500000000,0,0.3240401149,,,
3.0000000000,0,0.3214784861,,,
3.2500000000,0,0.3214784861,,,
3.5000000000,0,0.3189170063,,,
3.7500000000,0,0.3214784861,,,
4.0000000000,0,0.3176361918,,,
4.2500000000,0,0.3150745928,,,
4.5000000000,0,0.3176361918,,,
4.7500000000,0,0.3112322092,,,
5.0000000000,0,0.3163554072,,,
5.2500000000,0,0.3125129938,,,
5.5000000000,0,0.3125129938,,,
5.7500000000,0,0.3137938082,,,
6.0000000000,0,0.3112322092,,,
6.2500000000,0,0.3125129938,,,
6.5000000000,0,0.3112322092,,,
6.7500000000,0,0.3086706102,,,
7.0000000000,0,0.3125129938,,,
7.2500000000,0,0.3086706102,,,
7.5000000000,0,0.3099513948,,,
7.7500000000,0,0.3086706102,,,
8.0000000000,1,0.3099513948,,,
8.2500000000,1,0.3150745928,,,
8.5000000000,1,0.3163554072,,,
8.7500000000,1,0.3201977909,,,
9.0000000000,1,0.3201977909,,,
9.2500000000,1,0.3227593899,,,
9.5000000000,1,0.3253208995,,,
9.7500000000,1,0.3253208995,,,
10.0000000000,1,0.3278824985,,,
10.2500000000,1,0.3240401149,,,
10.5000000000,1,0.3253208995,,,
10.7500000000,1,0.3278824985,,,
11.0000000000,1,0.3253208995,,,
11.2500000000,1,0.3266017139,,,
11.5000000000,1,0.3253208995,,,
11.7500000000,1,0.3278824985,,,
12.0000000000,1,0.3253208995,,,
12.2500000000,1,0.3227593899,,,
12.5000000000,1,0.3214784861,,,
12.7500000000,1,0.3201977909,,,
13.0000000000,1,0.3176361918,,,
13.2500000000,1,0.3201977909,,,
13.5000000000,1,0.3163554072,,,
13.7500000000,1,0.3189170063,,,
14.0000000000,1,0.3176361918,,,
14.2500000000,1,0.3163554072,,,
14.5000000000,1,0.3189170063,,,
14.7500000000,1,0.3150745928,,,
15.0000000000,1,0.3150745928,,,
15.2500000000,1,0.3125129938,,,
15.5000000000,1,0.3150745928,,,
15.7500000000,1,0.3137938082,,,
16.0000000000,2,0.3125129938,,,
16.2500000000,2,0.3150745928,,,
16.5000000000,2,0.3112322092,,,
16.7500000000,2,0.3125129938,,,
17.0000000000,2,0.3137938082,,,
17.2500000000,2,0.3112322092,,,
17.5000000000,2,0.3099513948,,,
17.7500000000,2,0.3099513948,,,
18.0000000000,2,0.3137938082,,,
18.2500000000,2,0.3125129938,,,
18.5000000000,2,0.3061091006,,,
18.7500000000,2,0.3099513948,,,
19.0000000000,2,0.3099513948,,,
19.2500000000,2,0.3112322092,,,
19.5000000000,2,0.3099513948,,,
19.7500000000,2,0.3073898852,,,
20.0000000000,2,0.3073898852,,,
20.2500000000,2,0.3061091006,,,
20.5000000000,2,0.3073898852,,,
20.7500000000,2,0.3073898852,,,
21.0000000000,2,0.3048282862,,,
21.2500000000,2,0.3061091006,,,
21.5000000000,2,0.3125129938,,,
21.7500000000,2,0.3176361918,,,
22.0000000000,2,0.3189170063,,,
22.2500000000,2,0.3189170063,,,
22.5000000000,2,0.3214784861,,,
22.7500000000,2,0.3227593899,,,
23.0000000000,2,0.3253208995,,,
23.2500000000,2,0.3291633129,,,
23.5000000000,2,0.3253208995,,,
23.7500000000,2,0.3266017139,,,
24.0000000000,3,0.3201977909,,,
24.2500000000,3,0.3227593899,,,
24.5000000000,3,0.3201977909,,,
24.7500000000,3,0.3189170063,,,
25.0000000000,3,0.3227593899,,,
25.2500000000,3,0.3227593899,,,
25.5000000000,3,0.3189170063,,,
25.7500000000,3,0.3201977909,,,
26.0000000000,3,0.3189170063,,,
26.2500000000,3,0.3227593899,,,
26.5000000000,3,0.3342865109,,,
26.7500000000,3,0.3330056965,,,
27.0000000000,3,0.3394095898,,,
27.2500000000,3,0.3355672956,,,
27.5000000000,3,0.3355672956,,,
27.7500000000,3,0.3368481100,,,
28.0000000000,3,0.3342865109,,,
28.2500000000,3,0.3368481100,,,
28.5000000000,3,0.3317249119,,,
28.7500000000,3,0.3445327878,,,
29.0000000000,3,0.3304440975,,,
29.2500000000,3,0.3291633129,,,
29.5000000000,3,0.3291633129,,,
29.7500000000,3,0.3291633129,,,
30.0000000000,3,0.3266017139,,,
30.2500000000,3,0.3278824985,,,
30.5000000000,3,0.3240401149,,,
30.7500000000,3,0.3253208995,,,
31.0000000000,3,0.3227593899,,,
31.2500000000,3,0.3214784861,,,
31.5000000000,3,0.3227593899,,,
31.7500000000,3,0.3201977909,,,
32.0000000000,4,0.3189170063,,,
32.2500000000,4,0.3189170063,,,
32.5000000000,4,0.3189170063,,,
32.7500000000,4,0.3201977909,,,
33.0000000000,4,0.3176361918,,,
33.2500000000,4,0.3176361918,,,
33.5000000000,4,0.3189170063,,,
33.7500000000,4,0.3163554072,,,
34.0000000000,4,0.3189170063,,,
34.2500000000,4,0.3150745928,,,
34.5000000000,4,0.3150745928,,,
34.7500000000,4,0.3176361918,,,
35.0000000000,4,0.3125129938,,,
35.2500000000,4,0.3163554072,,,
35.5000000000,4,0.3137938082,,,
35.7500000000,4,0.3125129938,,,
36.0000000000,4,0.3150745928,,,
36.2500000000,4,0.3137938082,,,
36.5000000000,4,0.3150745928,,,
36.7500000000,4,0.3150745928,,,
37.0000000000,4,0.3137938082,,,
37.2500000000,4,0.3163554072,,,
37.5000000000,4,0.3125129938,,,
37.7500000000,4,0.3125129938,,,
38.0000000000,4,0.3137938082,,,
38.2500000000,4,0.3125129938,,,
38.5000000000,4,0.3137938082,,,
38.7500000000,4,0.3099513948,,,
39.0000000000,4,0.3099513948,,,
39.2500000000,4,0.3099513948,,,
39.5000000000,4,0.3099513948,,,
39.7500000000,4,0.3125129938,,,
40.0000000000,5,0.3086706102,,,
40.2500000000,5,0.3086706102,,,
40.5000000000,5,0.3099513948,,,
40.7500000000,5,0.3086706102,,,
41.0000000000,5,0.3112322092,,,
41.2500000000,5,0.3099513948,,,
41.5000000000,5,0.3073898852,,,
41.7500000000,5,0.3073898852,,,
42.0000000000,5,0.3086706102,,,
42.2500000000,5,0.3112322092,,,
42.5000000000,5,0.3163554072,,,
42.7500000000,5,0.3163554072,,,
43.0000000000,5,0.3201977909,,,
43.2500000000,5,0.3189170063,,,
43.5000000000,5,0.3227593899,,,
43.7500000000,5,0.3214784861,,,
44.0000000000,5,0.3201977909,,,
44.2500000000,5,0.3240401149,,,
44.5000000000,5,0.3189170063,,,
44.7500000000,5,0.3214784861,,,
45.0000000000,5,0.3163554072,,,
45.2500000000,5,0.3163554072,,,
45.5000000000,5,0.3163554072,,,
45.7500000000,5,0.3137938082,,,
46.0000000000,5,0.3150745928,,,
46.2500000000,5,0.3137938082,,,
46.5000000000,5,0.3137938082,,,
46.7500000000,5,0.3137938082,,,
47.0000000000,5,0.3112322092,,,
47.2500000000,5,0.3137938082,,,
47.5000000000,5,0.3125129938,,,
47.7500000000,5,0.3112322092,,,
48.0000000000,6,0.3125129938,,,
48.2500000000,6,0.3099513948,,,
48.5000000000,6,0.3099513948,,,
48.7500000000,6,0.3099513948,,,
49.0000000000,6,0.3086706102,,,
49.2500000000,6,0.3112322092,,,
49.5000000000,6,0.3073898852,,,
49.7500000000,6,0.3086706102,,,
50.0000000000,6,0.3099513948,,,
50.2500000000,6,0.3073898852,,,
50.5000000000,6,0.3086706102,,,
50.7500000000,6,0.3061091006,,,
51.0000000000,6,0.3073898852,,,
51.2500000000,6,0.3086706102,,,
51.5000000000,6,0.3035475016,,,
51.7500000000,6,0.3086706102,,,
52.0000000000,6,0.3061091006,,,
52.2500000000,6,0.3061091006,,,
52.5000000000,6,0.3073898852,,,
52.7500000000,6,0.3048282862,,,
53.0000000000,6,0.3086706102,,,
53.2500000000,6,0.3048282862,,,
53.5000000000,6,0.3073898852,,,
53.7500000000,6,0.3073898852,,,
54.0000000000,6,0.3048282862,,,
54.2500000000,6,0.3035475016,,,
54.5000000000,6,0.3035475016,,,
54.7500000000,6,0.3035475016,,,
55.0000000000,6,0.3048282862,,,
55.2500000000,6,0.3035475016,,,
55.5000000000,6,0.3061091006,,,
55.7500000000,6,0.3048282862,,,
56.0000000000,7,0.3022666872,,,
56.2500000000,7,0.3035475016,,,
56.5000000000,7,0.3022666872,,,
56.7500000000,7,0.3022666872,,,
57.0000000000,7,0.2997050881,,,
57.2500000000,7,0.3009859025,,,
57.5000000000,7,0.3048282862,,,
57.7500000000,7,0.3009859025,,,
58.0000000000,7,0.3009859025,,,
58.2500000000,7,0.3035475016,,,
58.5000000000,7,0.3009859025,,,
58.7500000000,7,0.3022666872,,,
59.0000000000,7,0.2997050881,,,
59.2500000000,7,0.3009859025,,,
59.5000000000,7,0.3009859025,,,
59.7500000000,7,0.2971434891,,,
60.0000000000,7,0.3022666872,,,
60.2500000000,7,0.2997050881,,,
60.5000000000,7,0.2997050881,,,
60.7500000000,7,0.3009859025,,,
61.0000000000,7,0.2984243035,,,
61.2500000000,7,0.3009859025,,,
61.5000000000,7,0.2997050881,,,
61.7500000000,7,0.3125129938,,,
62.0000000000,7,0.3009859025,,,
62.2500000000,7,0.2984243035,,,
62.5000000000,7,0.2984243035,,,
62.7500000000,7,0.2971434891,,,
63.0000000000,7,0.2945818901,,,
63.2500000000,7,0.2997050881,,,
63.5000000000,7,0.2971434891,,,
63.7500000000,7,0.2984243035,,,
64.0000000000,8,0.2958627045,,,
64.2500000000,8,0.2971434891,,,
64.5000000000,8,0.2984243035,,,
64.7500000000,8,0.2958627045,,,
65.0000000000,8,0.2984243035,,,
65.2500000000,8,0.2958627045,,,
65.5000000000,8,0.2958627045,,,
65.7500000000,8,0.2984243035,,,
66.0000000000,8,0.2958627045,,,
66.2500000000,8,0.2971434891,,,
66.5000000000,8,0.2958627045,,,
66.7500000000,8,0.2945818901,,,
67.0000000000,8,0.2958627045,,,
67.2500000000,8,0.2933011055,,,
67.5000000000,8,0.2971434891,,,
67.7500000000,8,0.2933011055,,,
68.0000000000,8,0.2920204103,,,
68.2500000000,8,0.2958627045,,,
68.5000000000,8,0.2933011055,,,
68.7500000000,8,0.2958627045,,,
69.0000000000,8,0.2933011055,,,
69.2500000000,8,0.2920204103,,,
69.5000000000,8,0.2945818901,,,
69.7500000000,8,0.2920204103,,,
70.0000000000,8,0.2958627045,,,
70.2500000000,8,0.2933011055,,,
70.5000000000,8,0.2971434891,,,
70.7500000000,8,0.3035475016,,,
71.0000000000,8,0.3061091006,,,
71.2500000000,8,0.3112322092,,,
71.5000000000,8,0.3112322092,,,
71.7500000000,8,0.3137938082,,,
72.0000000000,9,0.3125129938,,,
72.2500000000,9,0.3086706102,,,
72.5000000000,9,0.3099513948,,,
72.7500000000,9,0.3061091006,,,
73.0000000000,9,0.3086706102,,,
73.2500000000,9,0.3073898852,,,
73.5000000000,9,0.3035475016,,,
73.7500000000,9,0.3061091006,,,
74.0000000000,9,0.3035475016,,,
74.2500000000,9,0.3048282862,,,
74.5000000000,9,0.3022666872,,,
74.7500000000,9,0.3022666872,,,
75.0000000000,9,0.3035475016,,,
75.2500000000,9,0.2984243035,,,
75.5000000000,9,0.3022666872,,,
75.7500000000,9,0.2997050881,,,
76.0000000000,9,0.2997050881,,,
76.2500000000,9,0.3009859025,,,
76.5000000000,9,0.2984243035,,,
76.7500000000,9,0.3022666872,,,
77.0000000000,9,0.2984243035,,,
77.2500000000,9,0.2997050881,,,
77.5000000000,9,0.2984243035,,,
77.7500000000,9,0.2971434891,,,
78.0000000000,9,0.2997050881,,,
78.2500000000,9,0.2958627045,,,
78.5000000000,9,0.2997050881,,,
78.7500000000,9,0.2984243035,,,
79.0000000000,9,0.2945818901,,,
79.2500000000,9,0.2971434891,,,
79.5000000000,9,0.2920204103,,,
79.7500000000,9,0.2971434891,,,
80.0000000000,10,0.2945818901,,,
80.2500000000,10,0.2945818901,,,
80.5000000000,10,0.2984243035,,,
80.7500000000,10,0.2945818901,,,
81.0000000000,10,0.2971434891,,,
81.2500000000,10,0.2933011055,,,
81.5000000000,10,0.2933011055,,,
81.7500000000,10,0.2920204103,,,
82.0000000000,10,0.2933011055,,,
82.2500000000,10,0.2971434891,,,
82.5000000000,10,0.2920204103,,,
82.7500000000,10,0.2945818901,,,
83.0000000000,10,0.2933011055,,,
83.2500000000,10,0.2920204103,,,
83.5000000000,10,0.2945818901,,,
83.7500000000,10,0.2933011055,,,
84.0000000000,10,0.2958627045,,,
84.2500000000,10,0.2933011055,,,
84.5000000000,10,0.2894588113,,,
84.7500000000,10,0.2945818901,,,
85.0000000000,10,0.2933011055,,,
85.2500000000,10,0.2945818901,,,
85.5000000000,10,0.2920204103,,,
85.7500000000,10,0.2945818901,,,
86.0000000000,10,0.2933011055,,,
86.2500000000,10,0.2920204103,,,
86.5000000000,10,0.2933011055,,,
86.7500000000,10,0.2907395959,,,
87.0000000000,10,0.2933011055,,,
87.2500000000,10,0.2868972123,,,
87.5000000000,10,0.2907395959,,,
87.7500000000,10,0.2933011055,,,
88.0000000000,11,0.2907395959,,,
88.2500000000,11,0.2920204103,,,
88.5000000000,11,0.2894588113,,,
88.7500000000,11,0.2907395959,,,
89.0000000000,11,0.2933011055,,,
89.2500000000,11,0.2907395959,,,
89.5000000000,11,0.2933011055,,,
89.7500000000,11,0.2907395959,,,
90.0000000000,11,0.2894588113,,,
90.2500000000,11,0.2920204103,,,
90.5000000000,11,0.2907395959,,,
90.7500000000,11,0.2933011055,,,
91.0000000000,11,0.2920204103,,,
91.2500000000,11,0.2920204103,,,
91.5000000000,11,0.2907395959,,,
91.7500000000,11,0.2894588113,,,
92.0000000000,11,0.2933011055,,,
92.2500000000,11,0.2907395959,,,
92.5000000000,11,0.2920204103,,,
92.7500000000,11,0.2907395959,,,
93.0000000000,11,0.2894588113,,,
93.2500000000,11,0.2933011055,,,
93.5000000000,11,0.2894588113,,,
93.7500000000,11,0.2933011055,,,
94.0000000000,11,0.2920204103,,,
94.2500000000,11,0.2894588113,,,
94.5000000000,11,0.2920204103,,,
94.7500000000,11,0.2894588113,,,
95.0000000000,11,0.2894588113,,,
95.2500000000,11,0.2907395959,,,
95.5000000000,11,0.2868972123,,,
95.7500000000,11,0.2920204103,,,
96.0000000000,12,0.2881779969,,,
96.2500000000,12,0.2881779969,,,
96.5000000000,12,0.2920204103,,,
96.7500000000,12,0.2894588113,,,
97.0000000000,12,0.2933011055,,,
97.2500000000,12,0.2894588113,,,
97.5000000000,12,0.2907395959,,,
97.7500000000,12,0.2920204103,,,
98.0000000000,12,0.2907395959,,,
98.2500000000,12,0.2920204103,,,
98.5000000000,12,0.2920204103,,,
98.7500000000,12,0.2920204103,,,
99.0000000000,12,0.2920204103,,,
99.2500000000,12,0.2920204103,,,
99.5000000000,12,0.2945818901,,,
99.7500000000,12,0.2933011055,,,
100.0000000000,12,0.2920204103,,,
100.2500000000,12,0.2933011055,,,
100.5000000000,12,0.2907395959,,,
100.7500000000,12,0.2945818901,,,
101.0000000000,12,0.2881779969,,,
101.2500000000,12,0.2894588113,,,
101.5000000000,12,0.2933011055,,,
101.7500000000,12,0.2894588113,,,
102.0000000000,12,0.2894588113,,,
102.2500000000,12,0.2920204103,,,
102.5000000000,12,0.2881779969,,,
102.7500000000,12,0.2907395959,,,
103.0000000000,12,0.2894588113,,,
103.2500000000,12,0.2907395959,,,
103.5000000000,12,0.2907395959,,,
103.7500000000,12,0.2868972123,,,
104.0000000000,13,0.2894588113,,,
104.2500000000,13,0.2881779969,,,
104.5000000000,13,0.2907395959,,,
104.7500000000,13,0.2894588113,,,
105.0000000000,13,0.2868972123,,,
105.2500000000,13,0.2881779969,,,
105.5000000000,13,0.2868972123,,,
105.7500000000,13,0.2894588113,,,
106.0000000000,13,0.2881779969,,,
106.2500000000,13,0.2856163979,,,
106.5000000000,13,0.2830547988,,,
106.7500000000,13,0.2856163979,,,
107.0000000000,13,0.2894588113,33025:33024:33025,107.0312500000:107.1250000000:107.2187500000,0.0000000000:0.0000000000:0.0000000000
107.2500000000,13,0.2856163979,33024:33025:33024,107.2812500000:107.3750000000:107.4375000000,0.0000000000:0.0000000000:0.0000000000
107.5000000000,13,0.2856163979,33025:33024,107.5000000000:107.5625000000,0.0000000000:0.0000000000
107.7500000000,13,0.2894588113,,,
108.0000000000,13,0.2868972123,,,
108.2500000000,13,0.2907395959,,,
108.5000000000,13,0.2856163979,,,
108.7500000000,13,0.2856163979,,,
109.0000000000,13,0.2894588113,,,
109.2500000000,13,0.2843356133,,,
109.5000000000,13,0.2907395959,,,
109.7500000000,13,0.2868972123,,,
110.0000000000,13,0.2868972123,,,
110.2500000000,13,0.2907395959,,,
110.5000000000,13,0.2868972123,,,
110.7500000000,13,0.2907395959,,,
111.0000000000,13,0.2868972123,,,
111.2500000000,13,0.2868972123,,,
111.5000000000,13,0.2894588113,,,
111.7500000000,13,0.2881779969,,,
112.0000000000,14,0.2881779969,,,
112.2500000000,14,0.2868972123,,,
112.5000000000,14,0.2907395959,,,
112.7500000000,14,0.2894588113,,,
113.0000000000,14,0.2868972123,,,
113.2500000000,14,0.2881779969,,,
113.5000000000,14,0.2728084922,,,
113.7500000000,14,0.2702468932,,,
114.0000000000,14,0.2523157895,,,
114.2500000000,14,0.2625621855,,,
114.5000000000,14,0.2638429105,,,
114.7500000000,14,0.2600005865,,,
115.0000000000,14,0.2651238143,,,
115.2500000000,14,0.2638429105,,,
115.5000000000,14,0.2664045095,,,
115.7500000000,14,0.2740893066,,,
116.0000000000,14,0.2753700912,,,
116.2500000000,14,0.2804931998,,,
116.5000000000,14,0.2792123854,,,
116.7500000000,14,0.2817740142,,,
117.0000000000,14,0.2868972123,,,
117.2500000000,14,0.2830547988,,,
117.5000000000,14,0.2817740142,,,
117.7500000000,14,0.2843356133,,,
118.0000000000,14,0.2868972123,,,
118.2500000000,14,0.2856163979,,,
118.5000000000,14,0.2843356133,,,
118.7500000000,14,0.2868972123,,,
119.0000000000,14,0.2843356133,,,
119.2500000000,14,0.2868972123,,,
119.5000000000,14,0.2881779969,,,
119.7500000000,14,0.2843356133,,,
120.0000000000,15,0.2843356133,,,
120.2500000000,15,0.2830547988,,,
120.5000000000,15,0.2881779969,,,
120.7500000000,15,0.2843356133,,,
121.0000000000,15,0.2843356133,,,
121.2500000000,15,0.2868972123,,,
121.5000000000,15,0.2843356133,,,
121.7500000000,15,0.2868972123,,,
122.0000000000,15,0.2843356133,,,
122.2500000000,15,0.2843356133,,,
122.5000000000,15,0.2856163979,,,
122.7500000000,15,0.2843356133,,,
123.0000000000,15,0.2843356133,,,
123.2500000000,15,0.2830547988,,,
123.5000000000,15,0.2868972123,,,
123.7500000000,15,0.2830547988,,,
124.0000000000,15,0.2843356133,,,
124.2500000000,15,0.2856163979,,,
124.5000000000,15,0.2843356133,,,
124.7500000000,15,0.2856163979,,,
125.0000000000,15,0.2830547988,,,
125.2500000000,15,0.2856163979,,,
125.5000000000,15,0.2843356133,,,
125.7500000000,15,0.2804931998,,,
126.0000000000,15,0.2843356133,,,
126.2500000000,15,0.2830547988,,,
126.5000000000,15,0.2843356133,,,
126.7500000000,15,0.2817740142,,,
127.0000000000,15,0.2817740142,,,
127.2500000000,15,0.2843356133,,,
127.5000000000,15,0.2817740142,,,
127.7500000000,15,0.2843356133,,,
128.0000000000,16,0.2817740142,,,
128.2500000000,16,0.2817740142,,,
128.5000000000,16,0.2817740142,,,
128.7500000000,16,0.2804931998,,,
129.0000000000,16,0.2817740142,,,
129.2500000000,16,0.2792123854,,,
129.5000000000,16,0.2804931998,,,
129.7500000000,16,0.2817740142,,,
130.0000000000,16,0.2792123854,,,
130.2500000000,16,0.2817740142,,,
130.5000000000,16,0.2779316902,,,
130.7500000000,16,0.2804931998,,,
131.0000000000,16,0.2804931998,,,
131.2500000000,16,0.2753700912,,,
131.5000000000,16,0.2792123854,,,
131.7500000000,16,0.2766509056,,,
132.0000000000,16,0.2804931998,,,
132.2500000000,16,0.2779316902,,,
132.5000000000,16,0.2766509056,,,
132.7500000000,16,0.2779316902,,,
133.0000000000,16,0.2753700912,,,
133.2500000000,16,0.2779316902,,,
133.5000000000,16,0.2779316902,,,
133.7500000000,16,0.2753700912,,,
134.0000000000,16,0.2766509056,,,
134.2500000000,16,0.2753700912,,,
134.5000000000,16,0.2779316902,,,
134.7500000000,16,0.2740893066,,,
135.0000000000,16,0.2740893066,,,
135.2500000000,16,0.2779316902,,,
135.5000000000,16,0.2740893066,,,
135.7500000000,16,0.2766509056,,,
136.0000000000,17,0.2766509056,,,
136.2500000000,17,0.2728084922,,,
136.5000000000,17,0.2753700912,,,
136.7500000000,17,0.2715277076,,,
137.0000000000,17,0.2753700912,,,
137.2500000000,17,0.2753700912,,,
137.5000000000,17,0.2740893066,,,
137.7500000000,17,0.2740893066,,,
138.0000000000,17,0.2715277076,,,
138.2500000000,17,0.2715277076,,,
138.5000000000,17,0.2753700912,,,
138.7500000000,17,0.2728084922,,,
139.0000000000,17,0.2740893066,,,
139.2500000000,17,0.2702468932,,,
139.5000000000,17,0.2689661086,,,
139.7500000000,17,0.2728084922,,,
140.0000000000,17,0.2715277076,,,
140.2500000000,17,0.2740893066,,,
140.5000000000,17,0.2702468932,,,
140.7500000000,17,0.2702468932,,,
141.0000000000,17,0.2715277076,,,
141.2500000000,17,0.2702468932,,,
141.5000000000,17,0.2728084922,,,
141.7500000000,17,0.2702468932,,,
142.0000000000,17,0.2689661086,,,
142.2500000000,17,0.2664045095,,,
142.5000000000,17,0.2689661086,,,
142.7500000000,17,0.2715277076,,,
143.0000000000,17,0.2715277076,,,
143.2500000000,17,0.2689661086,,,
143.5000000000,17,0.2702468932,,,
143.7500000000,17,0.2676852942,,,
144.0000000000,18,0.2715277076,,,
144.2500000000,18,0.2702468932,,,
144.5000000000,18,0.2676852942,,,
144.7500000000,18,0.2702468932,,,
145.0000000000,18,0.2651238143,,,
145.2500000000,18,0.2715277076,,,
145.5000000000,18,0.2702468932,,,
145.7500000000,18,0.2676852942,,,
146.0000000000,18,0.2689661086,,,
146.2500000000,18,0.2676852942,,,
146.5000000000,18,0.2689661086,,,
146.7500000000,18,0.2689661086,,,
147.0000000000,18,0.2676852942,,,
147.2500000000,18,0.2689661086,,,
147.5000000000,18,0.2676852942,,,
147.7500000000,18,0.2676852942,,,
148.0000000000,18,0.2689661086,,,
148.2500000000,18,0.2664045095,,,
148.5000000000,18,0.2664045095,,,
148.7500000000,18,0.2664045095,,,
149.0000000000,18,0.2702468932,,,
149.2500000000,18,0.2664045095,,,
149.5000000000,18,0.2664045095,,,
149.7500000000,18,0.2676852942,,,
150.0000000000,18,0.2651238143,,,
150.2500000000,18,0.2689661086,,,
150.5000000000,18,0.2612814009,,,
150.7500000000,18,0.2664045095,,,
151.0000000000,18,0.2689661086,,,
151.2500000000,18,0.2651238143,,,
151.5000000000,18,0.2689661086,,,
151.7500000000,18,0.2651238143,,,
152.0000000000,19,0.2651238143,,,
152.2500000000,19,0.2664045095,,,
152.5000000000,19,0.2651238143,,,
152.7500000000,19,0.2664045095,,,
153.0000000000,19,0.2638429105,,,
153.2500000000,19,0.2625621855,,,
153.5000000000,19,0.2651238143,,,
153.7500000000,19,0.2625621855,,,
154.0000000000,19,0.2651238143,,,
154.2500000000,19,0.2651238143,,,
154.5000000000,19,0.2664045095,,,
154.7500000000,19,0.2664045095,,,
155.0000000000,19,0.2638429105,,,
155.2500000000,19,0.2676852942,,,
155.5000000000,19,0.2638429105,,,
155.7500000000,19,0.2664045095,,,
156.0000000000,19,0.2651238143,,,
156.2500000000,19,0.2625621855,,,
156.5000000000,19,0.2651238143,,,
156.7500000000,19,0.2625621855,,,
157.0000000000,19,0.2651238143,,,
157.2500000000,19,0.2664045095,,,
157.5000000000,19,0.2625621855,,,
157.7500000000,19,0.2638429105,,,
158.0000000000,19,0.2638429105,,,
158.2500000000,19,0.2651238143,,,
158.5000000000,19,0.2638429105,,,
158.7500000000,19,0.2600005865,,,
159.0000000000,19,0.2638429105,,,
159.2500000000,19,0.2625621855,,,
159.5000000000,19,0.2638429105,,,
159.7500000000,19,0.2612814009,,,
160.0000000000,20,0.2612814009,,,
160.2500000000,20,0.2638429105,,,
160.5000000000,20,0.2625621855,,,
160.7500000000,20,0.2651238143,,,
161.0000000000,20,0.2651238143,,,
161.2500000000,20,0.2612814009,,,
161.5000000000,20,0.2625621855,,,
161.7500000000,20,0.2612814009,,,
162.0000000000,20,0.2638429105,,,
162.2500000000,20,0.2625621855,,,
162.5000000000,20,0.2612814009,,,
162.7500000000,20,0.2600005865,,,
163.0000000000,20,0.2612814009,,,
163.2500000000,20,0.2638429105,,,
163.5000000000,20,0.2612814009,,,
163.7500000000,20,0.2612814009,,,
164.0000000000,20,0.2638429105,,,
164.2500000000,20,0.2600005865,,,
164.5000000000,20,0.2638429105,,,
164.7500000000,20,0.2600005865,,,
165.0000000000,20,0.2600005865,,,
165.2500000000,20,0.2625621855,,,
165.5000000000,20,0.2600005865,,,
165.7500000000,20,0.2625621855,,,
166.0000000000,20,0.2587198019,,,
166.2500000000,20,0.2600005865,,,
166.5000000000,20,0.2612814009,,,
166.7500000000,20,0.2587198019,,,
167.0000000000,20,0.2574389875,,,
167.2500000000,20,0.2587198019,,,
167.5000000000,20,0.2612814009,,,
167.7500000000,20,0.2600005865,,,
168.0000000000,21,0.2587198019,,,
168.2500000000,21,0.2600005865,,,
168.5000000000,21,0.2574389875,,,
168.7500000000,21,0.2612814009,,,
169.0000000000,21,0.2600005865,,,
169.2500000000,21,0.2587198019,,,
169.5000000000,21,0.2625621855,,,
169.7500000000,21,0.2574389875,,,
170.0000000000,21,0.2612814009,,,
170.2500000000,21,0.2561582029,,,
170.5000000000,21,0.2587198019,,,
170.7500000000,21,0.2600005865,,,
171.0000000000,21,0.2574389875,,,
171.2500000000,21,0.2612814009,,,
171.5000000000,21,0.2574389875,,,
171.7500000000,21,0.2574389875,,,
172.0000000000,21,0.2600005865,,,
172.2500000000,21,0.2574389875,,,
172.5000000000,21,0.2587198019,,,
172.7500000000,21,0.2574389875,,,
173.0000000000,21,0.2574389875,,,
173.2500000000,21,0.2600005865,,,
173.5000000000,21,0.2561582029,,,
173.7500000000,21,0.2587198019,,,
174.0000000000,21,0.2561582029,,,
174.2500000000,21,0.2561582029,,,
174.5000000000,21,0.2561582029,,,
174.7500000000,21,0.2561582029,,,
175.0000000000,21,0.2587198019,,,
175.2500000000,21,0.2548773885,,,
175.5000000000,21,0.2561582029,,,
175.7500000000,21,0.2574389875,,,
176.0000000000,22,0.2561582029,,,
176.2500000000,22,0.2587198019,,,
176.5000000000,22,0.2587198019,,,
176.7500000000,22,0.2561582029,,,
177.0000000000,22,0.2587198019,,,
177.2500000000,22,0.2548773885,,,
177.5000000000,22,0.2587198019,,,
177.7500000000,22,0.2561582029,,,
178.0000000000,22,0.2535966039,,,
178.2500000000,22,0.2574389875,,,
178.5000000000,22,0.2535966039,,,
178.7500000000,22,0.2574389875,,,
179.0000000000,22,0.2548773885,,,
179.2500000000,22,0.2561582029,,,
179.5000000000,22,0.2574389875,,,
179.7500000000,22,0.2548773885,,,
180.0000000000,22,0.2587198019,,,
180.2500000000,22,0.2548773885,,,
180.5000000000,22,0.2548773885,,,
180.7500000000,22,0.2561582029,,,
181.0000000000,22,0.2548773885,,,
181.2500000000,22,0.2574389875,,,
181.5000000000,22,0.2535966039,,,
181.7500000000,22,0.2548773885,,,
182.0000000000,22,0.2561582029,,,
182.2500000000,22,0.2535966039,,,
182.5000000000,22,0.2574389875,,,
182.7500000000,22,0.2535966039,,,
183.0000000000,22,0.2535966039,,,
183.2500000000,22,0.2561582029,,,
183.5000000000,22,0.2523157895,,,
183.7500000000,22,0.2561582029,,,
184.0000000000,23,0.2535966039,,,
184.2500000000,23,0.2535966039,,,
184.5000000000,23,0.2561582029,,,
184.7500000000,23,0.2535966039,,,
185.0000000000,23,0.2574389875,,,
185.2500000000,23,0.2535966039,,,
185.5000000000,23,0.2535966039,,,
185.7500000000,23,0.2561582029,,,
186.0000000000,23,0.2535966039,,,
186.2500000000,23,0.2548773885,,,
186.5000000000,23,0.2535966039,,,
186.7500000000,23,0.2535966039,,,
187.0000000000,23,0.2574389875,,,
187.2500000000,23,0.2535966039,,,
187.5000000000,23,0.2561582029,,,
187.7500000000,23,0.2535966039,,,
188.0000000000,23,0.2535966039,,,
188.2500000000,23,0.2548773885,,,
188.5000000000,23,0.2535966039,,,
188.7500000000,23,0.2561582029,,,
189.0000000000,23,0.2510350049,,,
189.2500000000,23,0.2535966039,,,
189.5000000000,23,0.2548773885,,,
189.7500000000,23,0.2523157895,,,
190.0000000000,23,0.2535966039,,,
190.2500000000,23,0.2523157895,,,
190.5000000000,23,0.2548773885,,,
190.7500000000,23,0.2548773885,,,
191.0000000000,23,0.2523157895,,,
191.2500000000,23,0.2561582029,,,
191.5000000000,23,0.2535966039,,,
191.7500000000,23,0.2548773885,,,
192.0000000000,24,0.2548773885,,,
192.2500000000,24,0.2523157895,,,
192.5000000000,24,0.2548773885,,,
192.7500000000,24,0.2523157895,,,
193.0000000000,24,0.2548773885,,,
193.2500000000,24,0.2548773885,,,
193.5000000000,24,0.2523157895,,,
193.7500000000,24,0.2548773885,,,
194.0000000000,24,0.2523157895,,,
194.2500000000,24,0.2548773885,,,
194.5000000000,24,0.2535966039,,,
194.7500000000,24,0.2523157895,,,
195.0000000000,24,0.2548773885,,,
195.2500000000,24,0.2523157895,,,
195.5000000000,24,0.2548773885,,,
195.7500000000,24,0.2523157895,,,
196.0000000000,24,0.2523157895,,,
196.2500000000,24,0.2548773885,,,
196.5000000000,24,0.2523157895,,,
196.7500000000,24,0.2548773885,,,
197.0000000000,24,0.2510350049,,,
197.2500000000,24,0.2523157895,,,
197.5000000000,24,0.2548773885,,,
197.7500000000,24,0.2497542948,,,
198.0000000000,24,0.2548773885,,,
198.2500000000,24,0.2523157895,,,
198.5000000000,24,0.2561582029,,,
198.7500000000,24,0.2535966039,,,
199.0000000000,24,0.2510350049,,,
199.2500000000,24,0.2548773885,,,
199.5000000000,24,0.2510350049,,,
199.7500000000,24,0.2510350049,,,
200.0000000000,25,0.2523157895,,,
200.2500000000,25,0.2510350049,,,
200.5000000000,25,0.2523157895,,,
200.7500000000,25,0.2497542948,,,
201.0000000000,25,0.2510350049,,,
201.2500000000,25,0.2548773885,,,
201.5000000000,25,0.2510350049,,,
201.7500000000,25,0.2535966039,,,
202.0000000000,25,0.2497542948,,,
202.2500000000,25,0.2510350049,,,
202.5000000000,25,0.2523157895,,,
202.7500000000,25,0.2484734952,,,
203.0000000000,25,0.2523157895,,,
203.2500000000,25,0.2497542948,,,
203.5000000000,25,0.2510350049,,,
203.7500000000,25,0.2510350049,,,
204.0000000000,25,0.2497542948,,,
204.2500000000,25,0.2523157895,,,
204.5000000000,25,0.2510350049,,,
204.7500000000,25,0.2497542948,,,
205.0000000000,25,0.2497542948,,,
205.2500000000,25,0.2497542948,,,
205.5000000000,25,0.2497542948,,,
205.7500000000,25,0.2484734952,,,
206.0000000000,25,0.2497542948,,,
206.2500000000,25,0.2510350049,,,
206.5000000000,25,0.2497542948,,,
206.7500000000,25,0.2535966039,,,
207.0000000000,25,0.2497542948,,,
207.2500000000,25,0.2484734952,,,
207.5000000000,25,0.2510350049,,,
207.7500000000,25,0.2484734952,,,
208.0000000000,26,0.2510350049,,,
208.2500000000,26,0.2459118962,,,
208.5000000000,26,0.2484734952,,,
208.7500000000,26,0.2510350049,,,
209.0000000000,26,0.2484734952,,,
209.2500000000,26,0.2523157895,,,
209.5000000000,26,0.2484734952,,,
209.7500000000,26,0.2484734952,,,
210.0000000000,26,0.2510350049,,,
210.2500000000,26,0.2484734952,,,
210.5000000000,26,0.2523157895,,,
210.7500000000,26,0.2510350049,,,
211.0000000000,26,0.2459118962,,,
211.2500000000,26,0.2510350049,,,
211.5000000000,26,0.2497542948,,,
211.7500000000,26,0.2510350049,,,
212.0000000000,26,0.2510350049,,,
212.2500000000,26,0.2484734952,,,
212.5000000000,26,0.2497542948,,,
212.7500000000,26,0.2484734952,,,
213.0000000000,26,0.2510350049,,,
213.2500000000,26,0.2484734952,,,
213.5000000000,26,0.2484734952,,,
213.7500000000,26,0.2471926957,,,
214.0000000000,26,0.2471926957,,,
214.2500000000,26,0.2510350049,,,
214.5000000000,26,0.2471926957,,,
214.7500000000,26,0.2484734952,,,
215.0000000000,26,0.2497542948,,,
215.2500000000,26,0.2471926957,,,
215.5000000000,26,0.2510350049,,,
215.7500000000,26,0.2471926957,,,
216.0000000000,27,0.2484734952,,,
216.2500000000,27,0.2510350049,,,
216.5000000000,27,0.2446310967,,,
216.7500000000,27,0.2497542948,,,
217.0000000000,27,0.2471926957,,,
217.2500000000,27,0.2471926957,,,
217.5000000000,27,0.2497542948,,,
217.7500000000,27,0.2471926957,,,
218.0000000000,27,0.2510350049,,,
218.2500000000,27,0.2471926957,,,
218.5000000000,27,0.2497542948,,,
218.7500000000,27,0.2497542948,,,
219.0000000000,27,0.2471926957,,,
219.2500000000,27,0.2471926957,,,
219.5000000000,27,0.2459118962,,,
219.7500000000,27,0.2510350049,,,
220.0000000000,27,0.2471926957,,,
220.2500000000,27,0.2471926957,,,
220.5000000000,27,0.2510350049,,,
220.7500000000,27,0.2471926957,,,
221.0000000000,27,0.2497542948,,,
221.2500000000,27,0.2484734952,,,
221.5000000000,27,0.2471926957,,,
221.7500000000,27,0.2497542948,,,
222.0000000000,27,0.2459118962,,,
222.2500000000,27,0.2497542948,,,
222.5000000000,27,0.2446310967,,,
222.7500000000,27,0.2471926957,,,
223.0000000000,27,0.2497542948,,,
223.2500000000,27,0.2459118962,,,
223.5000000000,27,0.2497542948,,,
223.7500000000,27,0.2459118962,,,
224.0000000000,28,0.2459118962,,,
224.2500000000,28,0.2484734952,,,
224.5000000000,28,0.2459118962,,,
224.7500000000,28,0.2471926957,,,
225.0000000000,28,0.2459118962,,,
225.2500000000,28,0.2459118962,,,
225.5000000000,28,0.2497542948,,,
225.7500000000,28,0.2459118962,,,
226.0000000000,28,0.2497542948,,,
226.2500000000,28,0.2459118962,,,
226.5000000000,28,0.2459118962,,,
226.7500000000,28,0.2471926957,,,
227.0000000000,28,0.2459118962,,,
227.2500000000,28,0.2471926957,,,
227.5000000000,28,0.2433502972,,,
227.7500000000,28,0.2471926957,,,
228.0000000000,28,0.2484734952,,,
228.2500000000,28,0.2446310967,,,
228.5000000000,28,0.2459118962,,,
228.7500000000,28,0.2446310967,,,
229.0000000000,28,0.2484734952,,,
229.2500000000,28,0.2484734952,,,
229.5000000000,28,0.2459118962,,,
229.7500000000,28,0.2471926957,,,
230.0000000000,28,0.2459118962,,,
230.2500000000,28,0.2471926957,,,
230.5000000000,28,0.2484734952,,,
230.7500000000,28,0.2459118962,,,
231.0000000000,28,0.2484734952,,,
231.2500000000,28,0.2446310967,,,
231.5000000000,28,0.2471926957,,,
231.7500000000,28,0.2471926957,,,
232.0000000000,29,0.2446310967,,,
232.2500000000,29,0.2471926957,,,
232.5000000000,29,0.2446310967,,,
232.7500000000,29,0.2471926957,,,
233.0000000000,29,0.2471926957,,,
233.2500000000,29,0.2446310967,,,
233.5000000000,29,0.2484734952,,,
233.7500000000,29,0.2446310967,,,
234.0000000000,29,0.2471926957,,,
234.2500000000,29,0.2446310967,,,
234.5000000000,29,0.2446310967,,,
234.7500000000,29,0.2471926957,,,
235.0000000000,29,0.2446310967,,,
235.2500000000,29,0.2484734952,,,
235.5000000000,29,0.2446310967,,,
235.7500000000,29,0.2459118962,,,
236.0000000000,29,0.2471926957,,,
236.2500000000,29,0.2420694977,,,
236.5000000000,29,0.2471926957,,,
236.7500000000,29,0.2446310967,,,
237.0000000000,29,0.2471926957,,,
237.2500000000,29,0.2446310967,,,
237.5000000000,29,0.2446310967,,,
237.7500000000,29,0.2459118962,,,
238.0000000000,29,0.2446310967,,,
238.2500000000,29,0.2459118962,,,
238.5000000000,29,0.2420694977,,,
238.7500000000,29,0.2446310967,,,
239.0000000000,29,0.2484734952,,,
239.2500000000,29,0.2433502972,,,
239.5000000000,29,0.2471926957,,,
239.7500000000,29,0.2433502972,,,
240.0000000000,30,0.2446310967,,,
240.2500000000,30,0.2459118962,,,
240.5000000000,30,0.2433502972,,,
240.7500000000,30,0.2459118962,,,
241.0000000000,30,0.2446310967,,,
241.2500000000,30,0.2446310967,,,
241.5000000000,30,0.2471926957,,,
241.7500000000,30,0.2433502972,,,
242.0000000000,30,0.2459118962,,,
242.2500000000,30,0.2433502972,,,
242.5000000000,30,0.2459118962,,,
242.7500000000,30,0.2446310967,,,
243.0000000000,30,0.2433502972,,,
243.2500000000,30,0.2459118962,,,
243.5000000000,30,0.2420694977,,,
243.7500000000,30,0.2446310967,,,
244.0000000000,30,0.2395078987,,,
244.2500000000,30,0.2433502972,,,
244.5000000000,30,0.2459118962,,,
244.7500000000,30,0.2420694977,,,
245.0000000000,30,0.2459118962,,,
245.2500000000,30,0.2420694977,,,
245.5000000000,30,0.2459118962,,,
245.7500000000,30,0.2459118962,,,
246.0000000000,30,0.2433502972,,,
246.2500000000,30,0.2459118962,,,
246.5000000000,30,0.2420694977,,,
246.7500000000,30,0.2420694977,,,
247.0000000000,30,0.2459118962,,,
247.2500000000,30,0.2433502972,,,
247.5000000000,30,0.2459118962,,,
247.7500000000,30,0.2420694977,,,
248.0000000000,31,0.2446310967,,,
248.2500000000,31,0.2459118962,,,
248.5000000000,31,0.2420694977,,,
248.7500000000,31,0.2446310967,,,
249.0000000000,31,0.2420694977,,,
249.2500000000,31,0.2446310967,,,
249.5000000000,31,0.2407886982,,,
249.7500000000,31,0.2433502972,,,
250.0000000000,31,0.2471926957,,,
250.2500000000,31,0.2420694977,,,
250.5000000000,31,0.2459118962,,,
250.7500000000,31,0.2459118962,,,
251.0000000000,31,0.2420694977,,,
251.2500000000,31,0.2433502972,,,
251.5000000000,31,0.2433502972,,,
251.7500000000,31,0.2446310967,,,
252.0000000000,31,0.2446310967,,,
252.2500000000,31,0.2395078987,,,
252.5000000000,31,0.2446310967,,,
252.7500000000,31,0.2420694977,,,
253.0000000000,31,0.2446310967,,,
253.2500000000,31,0.2420694977,,,
253.5000000000,31,0.2420694977,,,
253.7500000000,31,0.2446310967,,,
254.0000000000,31,0.2420694977,,,
254.2500000000,31,0.2446310967,,,
254.5000000000,31,0.2433502972,,,
254.7500000000,31,0.2433502972,,,
255.0000000000,31,0.2395078987,,,
255.2500000000,31,0.2420694977,,,
255.5000000000,31,0.2433502972,,,
255.7500000000,31,0.2420694977,,,
256.0000000000,32,0.2446310967,,,
256.2500000000,32,0.2407886982,,,
256.5000000000,32,0.2420694977,,,
256.7500000000,32,0.2433502972,,,
257.0000000000,32,0.2407886982,,,
257.2500000000,32,0.2420694977,,,
257.5000000000,32,0.2407886982,,,
257.7500000000,32,0.2382270992,,,
258.0000000000,32,0.2407886982,,,
258.2500000000,32,0.2407886982,,,
258.5000000000,32,0.2433502972,,,
258.7500000000,32,0.2407886982,,,
259.0000000000,32,0.2446310967,,,
259.2500000000,32,0.2420694977,,,
259.5000000000,32,0.2446310967,,,
259.7500000000,32,0.2433502972,,,
260.0000000000,32,0.2407886982,,,
260.2500000000,32,0.2433502972,,,
260.5000000000,32,0.2395078987,,,
260.7500000000,32,0.2433502972,,,
261.0000000000,32,0.2395078987,,,
261.2500000000,32,0.2407886982,,,
261.5000000000,32,0.2446310967,,,
261.7500000000,32,0.2407886982,,,
262.0000000000,32,0.2433502972,,,
262.2500000000,32,0.2407886982,,,
262.5000000000,32,0.2433502972,,,
262.7500000000,32,0.2420694977,,,
263.0000000000,32,0.2407886982,,,
263.2500000000,32,0.2420694977,,,
263.5000000000,32,0.2407886982,,,
263.7500000000,32,0.2446310967,,,
264.0000000000,33,0.2407886982,,,
264.2500000000,33,0.2433502972,,,
264.5000000000,33,0.2420694977,,,
264.7500000000,33,0.2407886982,,,
265.0000000000,33,0.2420694977,,,
265.2500000000,33,0.2407886982,,,
265.5000000000,33,0.2446310967,,,
265.7500000000,33,0.2407886982,,,
266.0000000000,33,0.2395078987,,,
266.2500000000,33,0.2446310967,,,
266.5000000000,33,0.2407886982,,,
266.7500000000,33,0.2420694977,,,
267.0000000000,33,0.2407886982,,,
267.2500000000,33,0.2433502972,,,
267.5000000000,33,0.2433502972,,,
267.7500000000,33,0.2407886982,,,
268.0000000000,33,0.2433502972,,,
268.2500000000,33,0.2407886982,,,
268.5000000000,33,0.2433502972,,,
268.7500000000,33,0.2395078987,,,
269.0000000000,33,0.2420694977,,,
269.2500000000,33,0.2433502972,,,
269.5000000000,33,0.2407886982,,,
269.7500000000,33,0.2407886982,,,
270.0000000000,33,0.2407886982,,,
270.2500000000,33,0.2433502972,,,
270.5000000000,33,0.2407886982,,,
270.7500000000,33,0.2407886982,,,
271.0000000000,33,0.2433502972,,,
271.2500000000,33,0.2407886982,,,
271.5000000000,33,0.2420694977,,,
271.7500000000,33,0.2395078987,,,
272.0000000000,34,0.2420694977,,,
272.2500000000,34,0.2420694977,,,
272.5000000000,34,0.2395078987,,,
272.7500000000,34,0.2420694977,,,
273.0000000000,34,0.2395078987,,,
273.2500000000,34,0.2420694977,,,
273.5000000000,34,0.2395078987,,,
273.7500000000,34,0.2395078987,,,
274.0000000000,34,0.2420694977,,,
274.2500000000,34,0.2369462997,,,
274.5000000000,34,0.2420694977,,,
274.7500000000,34,0.2407886982,,,
275.0000000000,34,0.2433502972,,,
275.2500000000,34,0.2395078987,,,
275.5000000000,34,0.2407886982,,,
275.7500000000,34,0.2420694977,,,
276.0000000000,34,0.2395078987,,,
276.2500000000,34,0.2433502972,,,
276.5000000000,34,0.2395078987,,,
276.7500000000,34,0.2407886982,,,
277.0000000000,34,0.2395078987,,,
277.2500000000,34,0.2395078987,,,
277.5000000000,34,0.2420694977,,,
277.7500000000,34,0.2395078987,,,
278.0000000000,34,0.2420694977,,,
278.2500000000,34,0.2395078987,,,
278.5000000000,34,0.2395078987,,,
278.7500000000,34,0.2420694977,,,
279.0000000000,34,0.2395078987,,,
279.2500000000,34,0.2420694977,,,
279.5000000000,34,0.2395078987,,,
279.7500000000,34,0.2369462997,,,
280.0000000000,35,0.2433502972,,,
280.2500000000,35,0.2395078987,,,
280.5000000000,35,0.2420694977,,,
280.7500000000,35,0.2395078987,,,
281.0000000000,35,0.2407886982,,,
281.2500000000,35,0.2433502972,,,
281.5000000000,35,0.2407886982,,,
281.7500000000,35,0.2420694977,,,
282.0000000000,35,0.2407886982,,,
282.2500000000,35,0.2433502972,,,
282.5000000000,35,0.2407886982,,,
282.7500000000,35,0.2395078987,,,
283.0000000000,35,0.2420694977,,,
283.2500000000,35,0.2395078987,,,
283.5000000000,35,0.2433502972,,,
283.7500000000,35,0.2395078987,,,
284.0000000000,35,0.2395078987,,,
284.2500000000,35,0.2433502972,,,
284.5000000000,35,0.2395078987,,,
284.7500000000,35,0.2420694977,,,
285.0000000000,35,0.2407886982,,,
285.2500000000,35,0.2395078987,,,
285.5000000000,35,0.2395078987,,,
285.7500000000,35,0.2395078987,,,
286.0000000000,35,0.2420694977,,,
286.2500000000,35,0.2395078987,,,
286.5000000000,35,0.2420694977,,,
286.7500000000,35,0.2407886982,,,
287.0000000000,35,0.2395078987,,,
287.2500000000,35,0.2433502972,,,
287.5000000000,35,0.2395078987,,,
287.7500000000,35,0.2420694977,,,
288.0000000000,36,0.2369462997,,,
288.2500000000,36,0.2395078987,,,
288.5000000000,36,0.2382270992,,,
288.7500000000,36,0.2395078987,,,
289.0000000000,36,0.2407886982,,,
289.2500000000,36,0.2420694977,,,
289.5000000000,36,0.2395078987,,,
289.7500000000,36,0.2407886982,,,
290.0000000000,36,0.2395078987,,,
290.2500000000,36,0.2407886982,,,
290.5000000000,36,0.2407886982,,,
290.7500000000,36,0.2382270992,,,
291.0000000000,36,0.2420694977,,,
291.2500000000,36,0.2395078987,,,
291.5000000000,36,0.2433502972,,,
291.7500000000,36,0.2407886982,,,
292.0000000000,36,0.2382270992,,,
292.2500000000,36,0.2395078987,,,
292.5000000000,36,0.2382270992,,,
292.7500000000,36,0.2420694977,,,
293.0000000000,36,0.2382270992,,,
293.2500000000,36,0.2382270992,,,
293.5000000000,36,0.2407886982,,,
293.7500000000,36,0.2382270992,,,
294.0000000000,36,0.2420694977,,,
294.2500000000,36,0.2382270992,,,
294.5000000000,36,0.2382270992,,,
294.7500000000,36,0.2407886982,,,
295.0000000000,36,0.2395078987,,,
295.2500000000,36,0.2420694977,,,
295.5000000000,36,0.2382270992,,,
295.7500000000,36,0.2382270992,,,
296.0000000000,37,0.2407886982,,,
296.2500000000,37,0.2369462997,,,
296.5000000000,37,0.2420694977,,,
296.7500000000,37,0.2382270992,,,
297.0000000000,37,0.2395078987,,,
297.2500000000,37,0.2420694977,,,
297.5000000000,37,0.2395078987,,,
297.7500000000,37,0.2420694977,,,
298.0000000000,37,0.2407886982,,,
298.2500000000,37,0.2407886982,,,
298.5000000000,37,0.2433502972,,,
298.7500000000,37,0.2382270992,,,
299.0000000000,37,0.2407886982,,,
299.2500000000,37,0.2382270992,,,
299.5000000000,37,0.2395078987,,,
299.7500000000,37,0.2369462997,,,
300.0000000000,37,0.2382270992,,,
300.2500000000,37,0.2407886982,,,
300.5000000000,37,0.2382270992,,,
300.7500000000,37,0.2407886982,,,
301.0000000000,37,0.2382270992,,,
301.2500000000,37,0.2407886982,,,
301.5000000000,37,0.2395078987,,,
301.7500000000,37,0.2356655002,,,
302.0000000000,37,0.2395078987,,,
302.2500000000,37,0.2356655002,,,
302.5000000000,37,0.2407886982,,,
302.7500000000,37,0.2369462997,,,
303.0000000000,37,0.2382270992,,,
303.2500000000,37,0.2395078987,,,
303.5000000000,37,0.2369462997,,,
303.7500000000,37,0.2407886982,,,
304.0000000000,38,0.2382270992,,,
304.2500000000,38,0.2382270992,,,
304.5000000000,38,0.2382270992,,,
304.7500000000,38,0.2395078987,,,
305.0000000000,38,0.2407886982,,,
305.2500000000,38,0.2382270992,,,
305.5000000000,38,0.2407886982,,,
305.7500000000,38,0.2382270992,,,
306.0000000000,38,0.2382270992,,,
306.2500000000,38,0.2420694977,,,
306.5000000000,38,0.2382270992,,,
306.7500000000,38,0.2420694977,,,
307.0000000000,38,0.2382270992,,,
307.2500000000,38,0.2356655002,,,
307.5000000000,38,0.2420694977,,,
307.7500000000,38,0.2369462997,,,
308.0000000000,38,0.2407886982,,,
308.2500000000,38,0.2382270992,,,
308.5000000000,38,0.2395078987,,,
308.7500000000,38,0.2369462997,,,
309.0000000000,38,0.2369462997,,,
309.2500000000,38,0.2407886982,,,
309.5000000000,38,0.2382270992,,,
309.7500000000,38,0.2407886982,,,
310.0000000000,38,0.2343848050,,,
310.2500000000,38,0.2395078987,,,
310.5000000000,38,0.2420694977,,,
310.7500000000,38,0.2382270992,,,
311.0000000000,38,0.2395078987,,,
311.2500000000,38,0.2369462997,,,
311.5000000000,38,0.2407886982,,,
311.7500000000,38,0.2369462997,,,
312.0000000000,39,0.2382270992,,,
312.2500000000,39,0.2407886982,,,
312.5000000000,39,0.2369462997,,,
312.7500000000,39,0.2382270992,,,
313.0000000000,39,0.2369462997,,,
313.2500000000,39,0.2407886982,,,
313.5000000000,39,0.2369462997,,,
313.7500000000,39,0.2369462997,,,
314.0000000000,39,0.2407886982,,,
314.2500000000,39,0.2369462997,,,
314.5000000000,39,0.2407886982,,,
314.7500000000,39,0.2523157895,,,
315.0000000000,39,0.2407886982,,,
315.2500000000,39,0.2395078987,,,
315.5000000000,39,0.2343848050,,,
315.7500000000,39,0.2395078987,,,
316.0000000000,39,0.2369462997,,,
316.2500000000,39,0.2407886982,,,
316.5000000000,39,0.2407886982,,,
316.7500000000,39,0.2369462997,,,
317.0000000000,39,0.2395078987,,,
317.2500000000,39,0.2369462997,,,
317.5000000000,39,0.2407886982,,,
317.7500000000,39,0.2369462997,,,
318.0000000000,39,0.2369462997,,,
318.2500000000,39,0.2382270992,,,
318.5000000000,39,0.2382270992,,,
318.7500000000,39,0.2420694977,,,
319.0000000000,39,0.2369462997,,,
319.2500000000,39,0.2369462997,,,
319.5000000000,39,0.2407886982,,,
319.7500000000,39,0.2369462997,,,
