Time:4Hz,Epoch,Channel 1,Event Id,Event Date,Event Duration
0.0000000000,0,1.5247759819,,,
0.2500000000,0,1.5196520090,,,
0.5000000000,0,1.5209330320,,,
0.7500000000,0,1.5247759819,,,
1.0000000000,0,1.5119680166,,,
1.2500000000,0,1.5247759819,,,
1.5000000000,0,1.5234949589,,,
1.7500000000,0,1.5196520090,,,
2.0000000000,0,1.5247759819,,,
2.2500000000,0,1.5234949589,,,
2.5000000000,0,1.5209330320,,,
2.7500000000,0,1.5183720589,,,
3.0000000000,0,1.5145289898,,,
3.2500000000,0,1.5132490396,,,
3.5000000000,0,1.5170910358,,,
3.7500000000,0,1.5106869936,,,
4.0000000000,0,1.5209330320,,,
4.2500000000,0,1.5183720589,,,
4.5000000000,0,1.5145289898,,,
4.7500000000,0,1.5183720589,,,
5.0000000000,0,1.5094059706,,,
5.2500000000,0,1.5094059706,,,
5.5000000000,0,1.5119680166,,,
5.7500000000,0,1.5119680166,,,
6.0000000000,0,1.5094059706,,,
6.2500000000,0,1.5081249475,,,
6.5000000000,0,1.5004409552,,,
6.7500000000,0,1.5081249475,,,
7.0000000000,0,1.5017210245,,,
7.2500000000,0,1.5081249475,,,
7.5000000000,0,1.5055639744,,,
7.7500000000,0,1.5004409552,,,
8.0000000000,1,1.5068449974,,,
8.2500000000,1,1.4991600513,,,
8.5000000000,1,1.4978790283,,,
8.7500000000,1,1.5030020475,,,
9.0000000000,1,1.4991600513,,,
9.2500000000,1,1.4991600513,,,
9.5000000000,1,1.5004409552,,,
9.7500000000,1,1.4978790283,,,
10.0000000000,1,1.5042829514,,,
10.2500000000,1,1.4991600513,,,
10.5000000000,1,1.4991600513,,,
10.7500000000,1,1.5068449974,,,
11.0000000000,1,1.5017210245,,,
11.2500000000,1,1.5030020475,,,
11.5000000000,1,1.4991600513,,,
11.7500000000,1,1.4965980053,,,
12.0000000000,1,1.4940370321,,,
12.2500000000,1,1.4927560091,,,
12.5000000000,1,1.4876329899,,,
12.7500000000,1,1.4965980053,,,
13.0000000000,1,1.4901939631,,,
13.2500000000,1,1.4978790283,,,
13.5000000000,1,1.4901939631,,,
13.7500000000,1,1.4901939631,,,
14.0000000000,1,1.4953169823,,,
14.2500000000,1,1.4889140129,,,
14.5000000000,1,1.4940370321,,,
14.7500000000,1,1.4876329899,,,
15.0000000000,1,1.4863519669,,,
15.2500000000,1,1.4940370321,,,
15.5000000000,1,1.4837900400,,,
15.7500000000,1,1.4837900400,,,
16.0000000000,2,1.4863519669,,,
16.2500000000,2,1.4837900400,,,
16.5000000000,2,1.4850709438,,,
16.7500000000,2,1.4799480438,,,
17.0000000000,2,1.4799480438,,,
17.2500000000,2,1.4812289476,,,
17.5000000000,2,1.4722629786,,,
17.7500000000,2,1.4786670208,,,
18.0000000000,2,1.4837900400,,,
18.2500000000,2,1.4761060476,,,
18.5000000000,2,1.4799480438,,,
18.7500000000,2,1.4786670208,,,
19.0000000000,2,1.4722629786,,,
19.2500000000,2,1.4812289476,,,
19.5000000000,2,1.4850709438,,,
19.7500000000,2,1.4773859978,,,
20.0000000000,2,1.4709819555,,,
20.2500000000,2,1.4735440016,,,
20.5000000000,2,1.4735440016,,,
20.7500000000,2,1.4722629786,,,
21.0000000000,2,1.4773859978,,,
21.2500000000,2,1.4748250246,,,
21.5000000000,2,1.4671399593,,,
21.7500000000,2,1.4748250246,,,
22.0000000000,2,1.4671399593,,,
22.2500000000,2,1.4671399593,,,
22.5000000000,2,1.4722629786,,,
22.7500000000,2,1.4658590555,,,
23.0000000000,2,1.4620170593,,,
23.2500000000,2,1.4697020054,,,
23.5000000000,2,1.4645789862,,,
23.7500000000,2,1.4722629786,,,
24.0000000000,3,1.4645789862,,,
24.2500000000,3,1.4632979631,,,
24.5000000000,3,1.4658590555,,,
24.7500000000,3,1.4632979631,,,
25.0000000000,3,1.4658590555,,,
25.2500000000,3,1.4594550133,,,
25.5000000000,3,1.4620170593,,,
25.7500000000,3,1.4620170593,,,
26.0000000000,3,1.4581739902,,,
26.2500000000,3,1.4594550133,,,
26.5000000000,3,1.4607360363,,,
26.7500000000,3,1.4556130171,,,
27.0000000000,3,1.4607360363,,,
27.2500000000,3,1.4530509710,,,
27.5000000000,3,1.4568940401,,,
27.7500000000,3,1.4543319941,,,
28.0000000000,3,1.4543319941,,,
28.2500000000,3,1.4607360363,,,
28.5000000000,3,1.4530509710,,,
28.7500000000,3,1.4517710209,,,
29.0000000000,3,1.4568940401,,,
29.2500000000,3,1.4543319941,,,
29.5000000000,3,1.4504899979,,,
29.7500000000,3,1.4568940401,,,
30.0000000000,3,1.4504899979,,,
30.2500000000,3,1.4556130171,,,
30.5000000000,3,1.4530509710,,,
30.7500000000,3,1.4504899979,,,
31.0000000000,3,1.4517710209,,,
31.2500000000,3,1.4440859556,,,
31.5000000000,3,1.4492089748,,,
31.7500000000,3,1.4492089748,,,
32.0000000000,4,1.4428050518,,,
32.2500000000,4,1.4492089748,,,
32.5000000000,4,1.4440859556,,,
32.7500000000,4,1.4466470480,,,
33.0000000000,4,1.4479279518,,,
33.2500000000,4,1.4428050518,,,
33.5000000000,4,1.4466470480,,,
33.7500000000,4,1.4479279518,,,
34.0000000000,4,1.4376820326,,,
34.2500000000,4,1.4733450413,,,
34.5000000000,4,1.4643789530,,,
34.7500000000,4,1.4643789530,,,
35.0000000000,4,1.4656599760,,,
35.2500000000,4,1.4630980492,,,
35.5000000000,4,1.4656599760,,,
35.7500000000,4,1.4669409990,,,
36.0000000000,4,1.4605369568,,,
36.2500000000,4,1.4643789530,,,
36.5000000000,4,1.4579750299,,,
36.7500000000,4,1.4554140568,,,
37.0000000000,4,1.4592560530,,,
37.2500000000,4,1.4515709877,,,
37.5000000000,4,1.4566940069,,,
37.7500000000,4,1.4490100145,,,
38.0000000000,4,1.4528520107,,,
38.2500000000,4,1.4528520107,,,
38.5000000000,4,1.4528520107,,,
38.7500000000,4,1.4541330338,,,
39.0000000000,4,1.4566940069,,,
39.2500000000,4,1.4515709877,,,
39.5000000000,4,1.4528520107,,,
39.7500000000,4,1.4528520107,,,
40.0000000000,5,1.4515709877,,,
40.2500000000,5,1.4515709877,,,
40.5000000000,5,1.4477289915,,,
40.7500000000,5,1.4502910376,,,
41.0000000000,5,1.4464479685,,,
41.2500000000,5,1.4464479685,,,
41.5000000000,5,1.4464479685,,,
41.7500000000,5,1.4438869953,,,
42.0000000000,5,1.4451669455,,,
42.2500000000,5,1.4413249493,,,
42.5000000000,5,1.4451669455,,,
42.7500000000,5,1.4464479685,,,
43.0000000000,5,1.4426059723,,,
43.2500000000,5,1.4400440454,,,
43.5000000000,5,1.4451669455,,,
43.7500000000,5,1.4413249493,,,
44.0000000000,5,1.4413249493,,,
44.2500000000,5,1.4451669455,,,
44.5000000000,5,1.4374829531,,,
44.7500000000,5,1.4413249493,,,
45.0000000000,5,1.4362020493,,,
45.2500000000,5,1.4349210262,,,
45.5000000000,5,1.4400440454,,,
45.7500000000,5,1.4336400032,,,
46.0000000000,5,1.4336400032,,,
46.2500000000,5,1.4336400032,,,
46.5000000000,5,1.4336400032,,,
46.7500000000,5,1.4362020493,,,
47.0000000000,5,1.4362020493,,,
47.2500000000,5,1.4310790300,,,
47.5000000000,5,1.4349210262,,,
47.7500000000,5,1.4259560108,,,
48.0000000000,6,1.4297980070,,,
48.2500000000,6,1.4285169840,,,
48.5000000000,6,1.4259560108,,,
48.7500000000,6,1.4285169840,,,
49.0000000000,6,1.4285169840,,,
49.2500000000,6,1.4246749878,,,
49.5000000000,6,1.4272359610,,,
49.7500000000,6,1.4233939648,,,
50.0000000000,6,1.4259560108,,,
50.2500000000,6,1.4233939648,,,
50.5000000000,6,1.4182709455,,,
50.7500000000,6,1.4221129417,,,
51.0000000000,6,1.4233939648,,,
51.2500000000,6,1.4208320379,,,
51.5000000000,6,1.4233939648,,,
51.7500000000,6,1.4182709455,,,
52.0000000000,6,1.4233939648,,,
52.2500000000,6,1.4208320379,,,
52.5000000000,6,1.4169900417,,,
52.7500000000,6,1.4208320379,,,
53.0000000000,6,1.4182709455,,,
53.2500000000,6,1.4118670225,,,
53.5000000000,6,1.4221129417,,,
53.7500000000,6,1.4182709455,,,
54.0000000000,6,1.4157090187,,,
54.2500000000,6,1.4157090187,,,
54.5000000000,6,1.4118670225,,,
54.7500000000,6,1.4118670225,,,
55.0000000000,6,1.4131480455,,,
55.2500000000,6,1.4093049765,,,
55.5000000000,6,1.4157090187,,,
55.7500000000,6,1.4093049765,,,
56.0000000000,7,1.4054629803,,,
56.2500000000,7,1.4080239534,,,
56.5000000000,7,1.4041819572,,,
56.7500000000,7,1.4093049765,,,
57.0000000000,7,1.4118670225,,,
57.2500000000,7,1.4080239534,,,
57.5000000000,7,1.4105859995,,,
57.7500000000,7,1.4144279957,,,
58.0000000000,7,1.4080239534,,,
58.2500000000,7,1.4093049765,,,
58.5000000000,7,1.4067440033,,,
58.7500000000,7,1.4016209841,,,
59.0000000000,7,1.4054629803,,,
59.2500000000,7,1.4041819572,,,
59.5000000000,7,1.4054629803,,,
59.7500000000,7,1.4054629803,,,
60.0000000000,7,1.4029010534,,,
60.2500000000,7,1.4067440033,,,
60.5000000000,7,1.4003399611,,,
60.7500000000,7,1.4003399611,,,
61.0000000000,7,1.4029010534,,,
61.2500000000,7,1.4003399611,,,
61.5000000000,7,1.4029010534,,,
61.7500000000,7,1.4054629803,,,
62.0000000000,7,1.4016209841,,,
62.2500000000,7,1.3964970112,,,
62.5000000000,7,1.3964970112,,,
62.7500000000,7,1.3964970112,,,
63.0000000000,7,1.3977780342,,,
63.2500000000,7,1.3964970112,,,
63.5000000000,7,1.3990590572,,,
63.7500000000,7,1.3977780342,,,
64.0000000000,8,1.3926550150,,,
64.2500000000,8,1.3939360380,,,
64.5000000000,8,1.3926550150,,,
64.7500000000,8,1.3926550150,,,
65.0000000000,8,1.3952159882,,,
65.2500000000,8,1.3939360380,,,
65.5000000000,8,1.3977780342,,,
65.7500000000,8,1.3939360380,,,
66.0000000000,8,1.3913739920,,,
66.2500000000,8,1.3952159882,,,
66.5000000000,8,1.3888130188,,,
66.7500000000,8,1.3939360380,,,
67.0000000000,8,1.3862509727,,,
67.2500000000,8,1.3862509727,,,
67.5000000000,8,1.3900929689,,,
67.7500000000,8,1.3849699497,,,
68.0000000000,8,1.3888130188,,,
68.2500000000,8,1.3926550150,,,
68.5000000000,8,1.3849699497,,,
68.7500000000,8,1.3888130188,,,
69.0000000000,8,1.3849699497,,,
69.2500000000,8,1.3836890459,,,
69.5000000000,8,1.3824089766,,,
69.7500000000,8,1.3798470497,,,
70.0000000000,8,1.3811279535,,,
70.2500000000,8,1.3849699497,,,
70.5000000000,8,1.3811279535,,,
70.7500000000,8,1.3836890459,,,
71.0000000000,8,1.3849699497,,,
71.2500000000,8,1.3785660267,,,
71.5000000000,8,1.3849699497,,,
71.7500000000,8,1.3760050535,,,
72.0000000000,9,1.3772850037,,,
72.2500000000,9,1.3798470497,,,
72.5000000000,9,1.3721619844,,,
72.7500000000,9,1.3785660267,,,
73.0000000000,9,1.3811279535,,,
73.2500000000,9,1.3747240305,,,
73.5000000000,9,1.3811279535,,,
73.7500000000,9,1.3772850037,,,
74.0000000000,9,1.3734430075,,,
74.2500000000,9,1.3760050535,,,
74.5000000000,9,1.3734430075,,,
74.7500000000,9,1.3734430075,,,
75.0000000000,9,1.3747240305,,,
75.2500000000,9,1.3721619844,,,
75.5000000000,9,1.3760050535,,,
75.7500000000,9,1.3798470497,,,
76.0000000000,9,1.3734430075,,,
76.2500000000,9,1.3760050535,,,
76.5000000000,9,1.3696010113,,,
76.7500000000,9,1.3747240305,,,
77.0000000000,9,1.3747240305,,,
77.2500000000,9,1.3708809614,,,
77.5000000000,9,1.3747240305,,,
77.7500000000,9,1.3734430075,,,
78.0000000000,9,1.3696010113,,,
78.2500000000,9,1.3772850037,,,
78.5000000000,9,1.3683199883,,,
78.7500000000,9,1.3708809614,,,
79.0000000000,9,1.3734430075,,,
79.2500000000,9,1.3644779921,,,
79.5000000000,9,1.3708809614,,,
79.7500000000,9,1.3670389652,,,
80.0000000000,10,1.3683199883,,,
80.2500000000,10,1.3747240305,,,
80.5000000000,10,1.3683199883,,,
80.7500000000,10,1.3721619844,,,
81.0000000000,10,1.3811279535,,,
81.2500000000,10,1.3760050535,,,
81.5000000000,10,1.3811279535,,,
81.7500000000,10,1.3785660267,,,
82.0000000000,10,1.3785660267,,,
82.2500000000,10,1.3798470497,,,
82.5000000000,10,1.3747240305,33025:33024:33025,82.5312500000:82.5937500000:82.6562500000,0.0000000000:0.0000000000:0.0000000000
82.7500000000,10,1.3888130188,33024:33025:33024:33025,82.7500000000:82.8125000000:82.9062500000:82.9375000000,0.0000000000:0.0000000000:0.0000000000:0.0000000000
83.0000000000,10,1.3760050535,33024:33025:33024,83.0312500000:83.0625000000:83.1875000000,0.0000000000:0.0000000000:0.0000000000
83.2500000000,10,1.3734430075,,,
83.5000000000,10,1.3734430075,,,
83.7500000000,10,1.3721619844,,,
84.0000000000,10,1.3734430075,,,
84.2500000000,10,1.3760050535,,,
84.5000000000,10,1.3708809614,,,
84.7500000000,10,1.3760050535,,,
85.0000000000,10,1.3721619844,,,
85.2500000000,10,1.3708809614,,,
85.5000000000,10,1.3721619844,,,
85.7500000000,10,1.3760050535,,,
86.0000000000,10,1.3696010113,,,
86.2500000000,10,1.3708809614,,,
86.5000000000,10,1.3696010113,,,
86.7500000000,10,1.3708809614,,,
87.0000000000,10,1.3721619844,,,
87.2500000000,10,1.3670389652,,,
87.5000000000,10,1.3670389652,,,
87.7500000000,10,1.3657579422,,,
88.0000000000,11,1.3670389652,,,
88.2500000000,11,1.3721619844,,,
88.5000000000,11,1.3657579422,,,
88.7500000000,11,1.3683199883,,,
89.0000000000,11,1.3644779921,,,
89.2500000000,11,1.3644779921,,,
89.5000000000,11,1.3644779921,,,
89.7500000000,11,1.3606350422,,,
90.0000000000,11,1.3631969690,,,
90.2500000000,11,1.3631969690,,,
90.5000000000,11,1.3619159460,,,
90.7500000000,11,1.3631969690,,,
91.0000000000,11,1.3657579422,,,
91.2500000000,11,1.3619159460,,,
91.5000000000,11,1.3644779921,,,
91.7500000000,11,1.3619159460,,,
92.0000000000,11,1.3580739498,,,
92.2500000000,11,1.3631969690,,,
92.5000000000,11,1.3567930460,,,
92.7500000000,11,1.3580739498,,,
93.0000000000,11,1.3593540192,,,
93.2500000000,11,1.3542309999,,,
93.5000000000,11,1.3555120230,,,
93.7500000000,11,1.3580739498,,,
94.0000000000,11,1.3555120230,,,
94.2500000000,11,1.3606350422,,,
94.5000000000,11,1.3542309999,,,
94.7500000000,11,1.3529499769,,,
95.0000000000,11,1.3503890038,,,
95.2500000000,11,1.3516700268,,,
95.5000000000,11,1.3503890038,,,
95.7500000000,11,1.3580739498,,,
96.0000000000,12,1.3503890038,,,
96.2500000000,12,1.3516700268,,,
96.5000000000,12,1.3491079807,,,
96.7500000000,12,1.3503890038,,,
97.0000000000,12,1.3529499769,,,
97.2500000000,12,1.3452659845,,,
97.5000000000,12,1.3491079807,,,
97.7500000000,12,1.3503890038,,,
98.0000000000,12,1.3465460539,,,
98.2500000000,12,1.3439849615,,,
98.5000000000,12,1.3478269577,,,
98.7500000000,12,1.3427040577,,,
99.0000000000,12,1.3491079807,,,
99.2500000000,12,1.3452659845,,,
99.5000000000,12,1.3439849615,,,
99.7500000000,12,1.3478269577,,,
100.0000000000,12,1.3401420116,,,
100.2500000000,12,1.3427040577,,,
100.5000000000,12,1.3439849615,,,
100.7500000000,12,1.3427040577,,,
101.0000000000,12,1.3414230347,,,
101.2500000000,12,1.3439849615,,,
101.5000000000,12,1.3388619423,,,
101.7500000000,12,1.3465460539,,,
102.0000000000,12,1.3427040577,,,
102.2500000000,12,1.3401420116,,,
102.5000000000,12,1.3439849615,,,
102.7500000000,12,1.3363000154,,,
103.0000000000,12,1.3401420116,,,
103.2500000000,12,1.3401420116,,,
103.5000000000,12,1.3350189924,,,
103.7500000000,12,1.3401420116,,,
104.0000000000,13,1.3414230347,,,
104.2500000000,13,1.3363000154,,,
104.5000000000,13,1.3388619423,,,
104.7500000000,13,1.3439849615,,,
105.0000000000,13,1.3363000154,,,
105.2500000000,13,1.3401420116,,,
105.5000000000,13,1.3375810385,,,
105.7500000000,13,1.3350189924,,,
106.0000000000,13,1.3401420116,,,
106.2500000000,13,1.3363000154,,,
106.5000000000,13,1.3350189924,,,
106.7500000000,13,1.3388619423,,,
107.0000000000,13,1.3311769962,,,
107.2500000000,13,1.3363000154,,,
107.5000000000,13,1.3375810385,,,
107.7500000000,13,1.3337390423,,,
108.0000000000,13,1.3350189924,,,
108.2500000000,13,1.3375810385,,,
108.5000000000,13,1.3337390423,,,
108.7500000000,13,1.3363000154,,,
109.0000000000,13,1.3337390423,,,
109.2500000000,13,1.3324580193,,,
109.5000000000,13,1.3337390423,,,
109.7500000000,13,1.3298959732,,,
110.0000000000,13,1.3337390423,,,
110.2500000000,13,1.3337390423,,,
110.5000000000,13,1.3311769962,,,
110.7500000000,13,1.3375810385,,,
111.0000000000,13,1.3273350000,,,
111.2500000000,13,1.3286149502,,,
111.5000000000,13,1.3311769962,,,
111.7500000000,13,1.3298959732,,,
112.0000000000,14,1.3350189924,,,
112.2500000000,14,1.3324580193,,,
112.5000000000,14,1.3311769962,,,
112.7500000000,14,1.3350189924,,,
113.0000000000,14,1.3324580193,,,
113.2500000000,14,1.3298959732,,,
113.5000000000,14,1.3324580193,,,
113.7500000000,14,1.3234920502,,,
114.0000000000,14,1.3298959732,,,
114.2500000000,14,1.3311769962,,,
114.5000000000,14,1.3247729540,,,
114.7500000000,14,1.3273350000,,,
115.0000000000,14,1.3298959732,,,
115.2500000000,14,1.3234920502,,,
115.5000000000,14,1.3311769962,,,
115.7500000000,14,1.3234920502,,,
116.0000000000,14,1.3222110271,,,
116.2500000000,14,1.3247729540,,,
116.5000000000,14,1.3183690310,,,
116.7500000000,14,1.3234920502,,,
117.0000000000,14,1.3222110271,,,
117.2500000000,14,1.3196500540,,,
117.5000000000,14,1.3260539770,,,
117.7500000000,14,1.3209309578,,,
118.0000000000,14,1.3170880079,,,
118.2500000000,14,1.3260539770,,,
118.5000000000,14,1.3209309578,,,
118.7500000000,14,1.3183690310,,,
119.0000000000,14,1.3222110271,,,
119.2500000000,14,1.3119649887,,,
119.5000000000,14,1.3222110271,,,
119.7500000000,14,1.3119649887,,,
120.0000000000,15,1.3183690310,,,
120.2500000000,15,1.3209309578,,,
120.5000000000,15,1.3183690310,,,
120.7500000000,15,1.3170880079,,,
121.0000000000,15,1.3183690310,,,
121.2500000000,15,1.3158069849,,,
121.5000000000,15,1.3183690310,,,
121.7500000000,15,1.3183690310,,,
122.0000000000,15,1.3132460117,,,
122.2500000000,15,1.3183690310,,,
122.5000000000,15,1.3106839657,,,
122.7500000000,15,1.3170880079,,,
123.0000000000,15,1.3183690310,,,
123.2500000000,15,1.3158069849,,,
123.5000000000,15,1.3170880079,,,
123.7500000000,15,1.3170880079,,,
124.0000000000,15,1.3106839657,,,
124.2500000000,15,1.3170880079,,,
124.5000000000,15,1.3119649887,,,
124.7500000000,15,1.3106839657,,,
125.0000000000,15,1.3158069849,,,
125.2500000000,15,1.3106839657,,,
125.5000000000,15,1.3158069849,,,
125.7500000000,15,1.3132460117,,,
126.0000000000,15,1.3106839657,,,
126.2500000000,15,1.3145270348,,,
126.5000000000,15,1.3068419695,,,
126.7500000000,15,1.3094040155,,,
127.0000000000,15,1.3068419695,,,
127.2500000000,15,1.3042800426,,,
127.5000000000,15,1.3042800426,,,
127.7500000000,15,1.3106839657,,,
128.0000000000,16,1.3081229925,,,
128.2500000000,16,1.3094040155,,,
128.5000000000,16,1.3042800426,,,
128.7500000000,16,1.3055609465,,,
129.0000000000,16,1.3119649887,,,
129.2500000000,16,1.3068419695,,,
129.5000000000,16,1.3094040155,,,
129.7500000000,16,1.3106839657,,,
130.0000000000,16,1.3042800426,,,
130.2500000000,16,1.3068419695,,,
130.5000000000,16,1.3068419695,,,
130.7500000000,16,1.3017189503,,,
131.0000000000,16,1.3068419695,,,
131.2500000000,16,1.3017189503,,,
131.5000000000,16,1.3029990196,,,
131.7500000000,16,1.3081229925,,,
132.0000000000,16,1.3042800426,,,
132.2500000000,16,1.2991570234,,,
132.5000000000,16,1.3017189503,,,
132.7500000000,16,1.2991570234,,,
133.0000000000,16,1.3004380465,,,
133.2500000000,16,1.2978760004,,,
133.5000000000,16,1.2953150272,,,
133.7500000000,16,1.2978760004,,,
134.0000000000,16,1.2965960503,,,
134.2500000000,16,1.2978760004,,,
134.5000000000,16,1.2978760004,,,
134.7500000000,16,1.2953150272,,,
135.0000000000,16,1.2978760004,,,
135.2500000000,16,1.3017189503,,,
135.5000000000,16,1.2940340042,,,
135.7500000000,16,1.2927529812,,,
136.0000000000,17,1.2940340042,,,
136.2500000000,17,1.2940340042,,,
136.5000000000,17,1.2914719582,,,
136.7500000000,17,1.2927529812,,,
137.0000000000,17,1.2953150272,,,
137.2500000000,17,1.2940340042,,,
137.5000000000,17,1.2927529812,,,
137.7500000000,17,1.2965960503,,,
138.0000000000,17,1.2940340042,,,
138.2500000000,17,1.2914719582,,,
138.5000000000,17,1.2863490582,,,
138.7500000000,17,1.2914719582,,,
139.0000000000,17,1.2914719582,,,
139.2500000000,17,1.2927529812,,,
139.5000000000,17,1.2914719582,,,
139.7500000000,17,1.2953150272,,,
140.0000000000,17,1.2927529812,,,
140.2500000000,17,1.2889109850,,,
140.5000000000,17,1.2901920080,,,
140.7500000000,17,1.2876299620,,,
141.0000000000,17,1.2876299620,,,
141.2500000000,17,1.2863490582,,,
141.5000000000,17,1.2901920080,,,
141.7500000000,17,1.2940340042,,,
142.0000000000,17,1.2927529812,,,
142.2500000000,17,1.2863490582,,,
142.5000000000,17,1.2889109850,,,
142.7500000000,17,1.2850680351,,,
143.0000000000,17,1.2889109850,,,
143.2500000000,17,1.2876299620,,,
143.5000000000,17,1.2812260389,,,
143.7500000000,17,1.2837879658,,,
144.0000000000,18,1.2799450159,,,
144.2500000000,18,1.2799450159,,,
144.5000000000,18,1.2837879658,,,
144.7500000000,18,1.2850680351,,,
145.0000000000,18,1.2786639929,,,
145.2500000000,18,1.2850680351,,,
145.5000000000,18,1.2799450159,,,
145.7500000000,18,1.2786639929,,,
146.0000000000,18,1.2812260389,,,
146.2500000000,18,1.2786639929,,,
146.5000000000,18,1.2850680351,,,
146.7500000000,18,1.2773840427,,,
147.0000000000,18,1.2761030197,,,
147.2500000000,18,1.2812260389,,,
147.5000000000,18,1.2735409737,,,
147.7500000000,18,1.2709800005,,,
148.0000000000,18,1.2735409737,,,
148.2500000000,18,1.2709800005,,,
148.5000000000,18,1.2735409737,,,
148.7500000000,18,1.2773840427,,,
149.0000000000,18,1.2709800005,,,
149.2500000000,18,1.2773840427,,,
149.5000000000,18,1.2684179544,,,
149.7500000000,18,1.2722610235,,,
150.0000000000,18,1.2735409737,,,
150.2500000000,18,1.2696989775,,,
150.5000000000,18,1.2671370506,,,
150.7500000000,18,1.2709800005,,,
151.0000000000,18,1.2696989775,,,
151.2500000000,18,1.2696989775,,,
151.5000000000,18,1.2696989775,,,
151.7500000000,18,1.2671370506,,,
152.0000000000,19,1.2722610235,,,
152.2500000000,19,1.2632950544,,,
152.5000000000,19,1.2658569813,,,
152.7500000000,19,1.2684179544,,,
153.0000000000,19,1.2671370506,,,
153.2500000000,19,1.2722610235,,,
153.5000000000,19,1.2709800005,,,
153.7500000000,19,1.2658569813,,,
154.0000000000,19,1.2735409737,,,
154.2500000000,19,1.2696989775,,,
154.5000000000,19,1.2671370506,,,
154.7500000000,19,1.2696989775,,,
155.0000000000,19,1.2607330084,,,
155.2500000000,19,1.2658569813,,,
155.5000000000,19,1.2671370506,,,
155.7500000000,19,1.2632950544,,,
156.0000000000,19,1.2671370506,,,
156.2500000000,19,1.2696989775,,,
156.5000000000,19,1.2620140314,,,
156.7500000000,19,1.2671370506,,,
157.0000000000,19,1.2607330084,,,
157.2500000000,19,1.2620140314,,,
157.5000000000,19,1.2658569813,,,
157.7500000000,19,1.2594530582,,,
158.0000000000,19,1.2632950544,,,
158.2500000000,19,1.2696989775,,,
158.5000000000,19,1.2620140314,,,
158.7500000000,19,1.2594530582,,,
159.0000000000,19,1.2671370506,,,
159.2500000000,19,1.2594530582,,,
159.5000000000,19,1.2632950544,,,
159.7500000000,19,1.2581720352,,,
160.0000000000,20,1.2581720352,,,
160.2500000000,20,1.2645759583,,,
160.5000000000,20,1.2568910122,,,
160.7500000000,20,1.2581720352,,,
161.0000000000,20,1.2581720352,,,
161.2500000000,20,1.2581720352,,,
161.5000000000,20,1.2556099892,,,
161.7500000000,20,1.2581720352,,,
162.0000000000,20,1.2581720352,,,
162.2500000000,20,1.2632950544,,,
162.5000000000,20,1.2581720352,,,
162.7500000000,20,1.2543289661,,,
163.0000000000,20,1.2594530582,,,
163.2500000000,20,1.2568910122,,,
163.5000000000,20,1.2568910122,,,
163.7500000000,20,1.2594530582,,,
164.0000000000,20,1.2530490160,,,
164.2500000000,20,1.2530490160,,,
164.5000000000,20,1.2543289661,,,
164.7500000000,20,1.2517679930,,,
165.0000000000,20,1.2530490160,,,
165.2500000000,20,1.2517679930,,,
165.5000000000,20,1.2492059469,,,
165.7500000000,20,1.2556099892,,,
166.0000000000,20,1.2517679930,,,
166.2500000000,20,1.2517679930,,,
166.5000000000,20,1.2556099892,,,
166.7500000000,20,1.2543289661,,,
167.0000000000,20,1.2479259968,,,
167.2500000000,20,1.2517679930,,,
167.5000000000,20,1.2466449738,,,
167.7500000000,20,1.2517679930,,,
168.0000000000,21,1.2492059469,,,
168.2500000000,21,1.2517679930,,,
168.5000000000,21,1.2492059469,,,
168.7500000000,21,1.2517679930,,,
169.0000000000,21,1.2504869699,,,
169.2500000000,21,1.2504869699,,,
169.5000000000,21,1.2504869699,,,
169.7500000000,21,1.2492059469,,,
170.0000000000,21,1.2479259968,,,
170.2500000000,21,1.2479259968,,,
170.5000000000,21,1.2479259968,,,
170.7500000000,21,1.2492059469,,,
171.0000000000,21,1.2466449738,,,
171.2500000000,21,1.2466449738,,,
171.5000000000,21,1.2440830469,,,
171.7500000000,21,1.2415219545,,,
172.0000000000,21,1.2440830469,,,
172.2500000000,21,1.2504869699,,,
172.5000000000,21,1.2402410507,,,
172.7500000000,21,1.2466449738,,,
173.0000000000,21,1.2440830469,,,
173.2500000000,21,1.2415219545,,,
173.5000000000,21,1.2479259968,,,
173.7500000000,21,1.2428020239,,,
174.0000000000,21,1.2415219545,,,
174.2500000000,21,1.2440830469,,,
174.5000000000,21,1.2415219545,,,
174.7500000000,21,1.2402410507,,,
175.0000000000,21,1.2428020239,,,
175.2500000000,21,1.2389600277,,,
175.5000000000,21,1.2389600277,,,
175.7500000000,21,1.2428020239,,,
176.0000000000,22,1.2376790047,,,
176.2500000000,22,1.2363979816,,,
176.5000000000,22,1.2428020239,,,
176.7500000000,22,1.2376790047,,,
177.0000000000,22,1.2312749624,,,
177.2500000000,22,1.2389600277,,,
177.5000000000,22,1.2338370085,,,
177.7500000000,22,1.2402410507,,,
178.0000000000,22,1.2402410507,,,
178.2500000000,22,1.2351180315,,,
178.5000000000,22,1.2402410507,,,
178.7500000000,22,1.2376790047,,,
179.0000000000,22,1.2351180315,,,
179.2500000000,22,1.2415219545,,,
179.5000000000,22,1.2338370085,,,
179.7500000000,22,1.2312749624,,,
180.0000000000,22,1.2389600277,,,
180.2500000000,22,1.2338370085,,,
180.5000000000,22,1.2325559855,,,
180.7500000000,22,1.2376790047,,,
181.0000000000,22,1.2325559855,,,
181.2500000000,22,1.2338370085,,,
181.5000000000,22,1.2363979816,,,
181.7500000000,22,1.2338370085,,,
182.0000000000,22,1.2351180315,,,
182.2500000000,22,1.2363979816,,,
182.5000000000,22,1.2287139893,,,
182.7500000000,22,1.2351180315,,,
183.0000000000,22,1.2325559855,,,
183.2500000000,22,1.2299940586,,,
183.5000000000,22,1.2325559855,,,
183.7500000000,22,1.2274329662,,,
184.0000000000,23,1.2299940586,,,
184.2500000000,23,1.2363979816,,,
184.5000000000,23,1.2287139893,,,
184.7500000000,23,1.2274329662,,,
185.0000000000,23,1.2312749624,,,
185.2500000000,23,1.2210290432,,,
185.5000000000,23,1.2312749624,,,
185.7500000000,23,1.2287139893,,,
186.0000000000,23,1.2261519432,,,
186.2500000000,23,1.2287139893,,,
186.5000000000,23,1.2274329662,,,
186.7500000000,23,1.2274329662,,,
187.0000000000,23,1.2338370085,,,
187.2500000000,23,1.2287139893,,,
187.5000000000,23,1.2312749624,,,
187.7500000000,23,1.2376790047,,,
188.0000000000,23,1.2312749624,,,
188.2500000000,23,1.2351180315,,,
188.5000000000,23,1.2402410507,,,
188.7500000000,23,1.2363979816,,,
189.0000000000,23,1.2363979816,,,
189.2500000000,23,1.2402410507,,,
189.5000000000,23,1.2363979816,,,
189.7500000000,23,1.2389600277,,,
190.0000000000,23,1.2402410507,,,
190.2500000000,23,1.2389600277,,,
190.5000000000,23,1.2376790047,,,
190.7500000000,23,1.2389600277,,,
191.0000000000,23,1.2363979816,,,
191.2500000000,23,1.2325559855,,,
191.5000000000,23,1.2376790047,,,
191.7500000000,23,1.2376790047,,,
192.0000000000,24,1.2363979816,,,
192.2500000000,24,1.2415219545,,,
192.5000000000,24,1.2389600277,,,
192.7500000000,24,1.2376790047,,,
193.0000000000,24,1.2415219545,,,
193.2500000000,24,1.2363979816,,,
193.5000000000,24,1.2415219545,,,
193.7500000000,24,1.2389600277,,,
194.0000000000,24,1.2389600277,,,
194.2500000000,24,1.2415219545,,,
194.5000000000,24,1.2376790047,,,
194.7500000000,24,1.2363979816,,,
195.0000000000,24,1.2453639507,,,
195.2500000000,24,1.2402410507,,,
195.5000000000,24,1.2376790047,,,
195.7500000000,24,1.2440830469,,,
196.0000000000,24,1.2428020239,,,
196.2500000000,24,1.2363979816,,,
196.5000000000,24,1.2402410507,,,
196.7500000000,24,1.2351180315,,,
197.0000000000,24,1.2402410507,,,
197.2500000000,24,1.2428020239,,,
197.5000000000,24,1.2402410507,,,
197.7500000000,24,1.2402410507,,,
198.0000000000,24,1.2402410507,,,
198.2500000000,24,1.2376790047,,,
198.5000000000,24,1.2363979816,,,
198.7500000000,24,1.2402410507,,,
199.0000000000,24,1.2351180315,,,
199.2500000000,24,1.2363979816,,,
199.5000000000,24,1.2389600277,,,
199.7500000000,24,1.2363979816,,,
200.0000000000,25,1.2376790047,,,
200.2500000000,25,1.2363979816,,,
200.5000000000,25,1.2351180315,,,
200.7500000000,25,1.2389600277,,,
201.0000000000,25,1.2363979816,,,
201.2500000000,25,1.2338370085,,,
201.5000000000,25,1.2389600277,,,
201.7500000000,25,1.2351180315,,,
202.0000000000,25,1.2325559855,,,
202.2500000000,25,1.2363979816,,,
202.5000000000,25,1.2351180315,,,
202.7500000000,25,1.2338370085,,,
203.0000000000,25,1.2389600277,,,
203.2500000000,25,1.2299940586,,,
203.5000000000,25,1.2338370085,,,
203.7500000000,25,1.2325559855,,,
204.0000000000,25,1.2312749624,,,
204.2500000000,25,1.2338370085,,,
204.5000000000,25,1.2287139893,,,
204.7500000000,25,1.2351180315,,,
205.0000000000,25,1.2389600277,,,
205.2500000000,25,1.2389600277,,,
205.5000000000,25,1.2312749624,,,
205.7500000000,25,1.2376790047,,,
206.0000000000,25,1.2351180315,,,
206.2500000000,25,1.2325559855,,,
206.5000000000,25,1.2338370085,,,
206.7500000000,25,1.2325559855,,,
207.0000000000,25,1.2299940586,,,
207.2500000000,25,1.2274329662,,,
207.5000000000,25,1.2287139893,,,
207.7500000000,25,1.2351180315,,,
208.0000000000,26,1.2325559855,,,
208.2500000000,26,1.2287139893,,,
208.5000000000,26,1.2351180315,,,
208.7500000000,26,1.2299940586,,,
209.0000000000,26,1.2261519432,,,
209.2500000000,26,1.2299940586,,,
209.5000000000,26,1.2287139893,,,
209.7500000000,26,1.2351180315,,,
210.0000000000,26,1.2325559855,,,
210.2500000000,26,1.2274329662,,,
210.5000000000,26,1.2338370085,,,
210.7500000000,26,1.2261519432,,,
211.0000000000,26,1.2261519432,,,
211.2500000000,26,1.2299940586,,,
211.5000000000,26,1.2261519432,,,
211.7500000000,26,1.2325559855,,,
212.0000000000,26,1.2299940586,,,
212.2500000000,26,1.2261519432,,,
212.5000000000,26,1.2325559855,,,
212.7500000000,26,1.2261519432,,,
213.0000000000,26,1.2261519432,,,
213.2500000000,26,1.2248710394,,,
213.5000000000,26,1.2261519432,,,
213.7500000000,26,1.2299940586,,,
214.0000000000,26,1.2287139893,,,
214.2500000000,26,1.2261519432,,,
214.5000000000,26,1.2274329662,,,
214.7500000000,26,1.2210290432,,,
215.0000000000,26,1.2223099470,,,
215.2500000000,26,1.2248710394,,,
215.5000000000,26,1.2197480202,,,
215.7500000000,26,1.2261519432,,,
216.0000000000,27,1.2274329662,,,
216.2500000000,27,1.2223099470,,,
216.5000000000,27,1.2287139893,,,
216.7500000000,27,1.2248710394,,,
217.0000000000,27,1.2248710394,,,
217.2500000000,27,1.2248710394,,,
217.5000000000,27,1.2223099470,,,
217.7500000000,27,1.2210290432,,,
218.0000000000,27,1.2274329662,,,
218.2500000000,27,1.2184669971,,,
218.5000000000,27,1.2223099470,,,
218.7500000000,27,1.2223099470,,,
219.0000000000,27,1.2171870470,,,
219.2500000000,27,1.2261519432,,,
219.5000000000,27,1.2223099470,,,
219.7500000000,27,1.2184669971,,,
220.0000000000,27,1.2223099470,,,
220.2500000000,27,1.2184669971,,,
220.5000000000,27,1.2197480202,,,
220.7500000000,27,1.2197480202,,,
221.0000000000,27,1.2095019817,,,
221.2500000000,27,1.2223099470,,,
221.5000000000,27,1.2210290432,,,
221.7500000000,27,1.2159060240,,,
222.0000000000,27,1.2210290432,,,
222.2500000000,27,1.2120629549,,,
222.5000000000,27,1.2120629549,,,
222.7500000000,27,1.2146250010,,,
223.0000000000,27,1.2095019817,,,
223.2500000000,27,1.2171870470,,,
223.5000000000,27,1.2133439779,,,
223.7500000000,27,1.2069400549,,,
224.0000000000,28,1.2159060240,,,
224.2500000000,28,1.2120629549,,,
224.5000000000,28,1.2095019817,,,
224.7500000000,28,1.2146250010,,,
225.0000000000,28,1.2171870470,,,
225.2500000000,28,1.2095019817,,,
225.5000000000,28,1.2107830048,,,
225.7500000000,28,1.2082209587,,,
226.0000000000,28,1.2082209587,,,
226.2500000000,28,1.2095019817,,,
226.5000000000,28,1.2107830048,,,
226.7500000000,28,1.2082209587,,,
227.0000000000,28,1.2082209587,,,
227.2500000000,28,1.2056590319,,,
227.5000000000,28,1.2120629549,,,
227.7500000000,28,1.2107830048,,,
228.0000000000,28,1.2082209587,,,
228.2500000000,28,1.2107830048,,,
228.5000000000,28,1.2056590319,,,
228.7500000000,28,1.2056590319,,,
229.0000000000,28,1.2095019817,,,
229.2500000000,28,1.2030980587,,,
229.5000000000,28,1.2069400549,,,
229.7500000000,28,1.2120629549,,,
230.0000000000,28,1.2030980587,,,
230.2500000000,28,1.2095019817,,,
230.5000000000,28,1.2069400549,,,
230.7500000000,28,1.2043789625,,,
231.0000000000,28,1.2095019817,,,
231.2500000000,28,1.2005360126,,,
231.5000000000,28,1.2056590319,,,
231.7500000000,28,1.2069400549,,,
232.0000000000,29,1.2005360126,,,
232.2500000000,29,1.2056590319,,,
232.5000000000,29,1.2056590319,,,
232.7500000000,29,1.2005360126,,,
233.0000000000,29,1.2082209587,,,
233.2500000000,29,1.2095019817,,,
233.5000000000,29,1.2030980587,,,
233.7500000000,29,1.2030980587,,,
234.0000000000,29,1.2018170357,,,
234.2500000000,29,1.1992549896,,,
234.5000000000,29,1.2043789625,,,
234.7500000000,29,1.2018170357,,,
235.0000000000,29,1.2018170357,,,
235.2500000000,29,1.2030980587,,,
235.5000000000,29,1.1966940165,,,
235.7500000000,29,1.2030980587,,,
236.0000000000,29,1.1979750395,,,
236.2500000000,29,1.1992549896,,,
236.5000000000,29,1.2018170357,,,
236.7500000000,29,1.1979750395,,,
237.0000000000,29,1.1979750395,,,
237.2500000000,29,1.1954129934,,,
237.5000000000,29,1.1890089512,,,
237.7500000000,29,1.2005360126,,,
238.0000000000,29,1.1992549896,,,
238.2500000000,29,1.1954129934,,,
238.5000000000,29,1.2005360126,,,
238.7500000000,29,1.1941319704,,,
239.0000000000,29,1.1941319704,,,
239.2500000000,29,1.1941319704,,,
239.5000000000,29,1.1941319704,,,
239.7500000000,29,1.1941319704,,,
240.0000000000,30,1.2005360126,,,
240.2500000000,30,1.1915709972,,,
240.5000000000,30,1.1979750395,,,
240.7500000000,30,1.1954129934,,,
241.0000000000,30,1.1954129934,,,
241.2500000000,30,1.1954129934,,,
241.5000000000,30,1.1915709972,,,
241.7500000000,30,1.1928509474,,,
242.0000000000,30,1.1941319704,,,
242.2500000000,30,1.1902899742,,,
242.5000000000,30,1.1979750395,,,
242.7500000000,30,1.1954129934,,,
243.0000000000,30,1.1890089512,,,
243.2500000000,30,1.1992549896,,,
243.5000000000,30,1.1928509474,,,
243.7500000000,30,1.1902899742,,,
244.0000000000,30,1.1928509474,,,
244.2500000000,30,1.1890089512,,,
244.5000000000,30,1.1877280474,,,
244.7500000000,30,1.1915709972,,,
245.0000000000,30,1.1877280474,,,
245.2500000000,30,1.1890089512,,,
245.5000000000,30,1.1902899742,,,
245.7500000000,30,1.1851669550,,,
246.0000000000,30,1.1915709972,,,
246.2500000000,30,1.1915709972,,,
246.5000000000,30,1.1864479780,,,
246.7500000000,30,1.1941319704,,,
247.0000000000,30,1.1851669550,,,
247.2500000000,30,1.1851669550,,,
247.5000000000,30,1.1890089512,,,
247.7500000000,30,1.1838860512,,,
248.0000000000,31,1.1915709972,,,
248.2500000000,31,1.1890089512,,,
248.5000000000,31,1.1774820089,,,
248.7500000000,31,1.1864479780,,,
249.0000000000,31,1.1851669550,,,
249.2500000000,31,1.1838860512,,,
249.5000000000,31,1.1851669550,,,
249.7500000000,31,1.1851669550,,,
250.0000000000,31,1.1851669550,,,
250.2500000000,31,1.1826050282,,,
250.5000000000,31,1.1826050282,,,
250.7500000000,31,1.1838860512,,,
251.0000000000,31,1.1864479780,,,
251.2500000000,31,1.1800440550,,,
251.5000000000,31,1.1890089512,,,
251.7500000000,31,1.1890089512,,,
252.0000000000,31,1.1826050282,,,
252.2500000000,31,1.1890089512,,,
252.5000000000,31,1.1826050282,,,
252.7500000000,31,1.1813240051,,,
253.0000000000,31,1.1851669550,,,
253.2500000000,31,1.1838860512,,,
253.5000000000,31,1.1826050282,,,
253.7500000000,31,1.1838860512,,,
254.0000000000,31,1.1800440550,,,
254.2500000000,31,1.1851669550,,,
254.5000000000,31,1.1826050282,,,
254.7500000000,31,1.1826050282,,,
255.0000000000,31,1.1838860512,,,
255.2500000000,31,1.1787630320,,,
255.5000000000,31,1.1813240051,,,
255.7500000000,31,1.1813240051,,,
256.0000000000,32,1.1787630320,,,
256.2500000000,32,1.1774820089,,,
256.5000000000,32,1.1787630320,,,
256.7500000000,32,1.1723589897,,,
257.0000000000,32,1.1813240051,,,
257.2500000000,32,1.1800440550,,,
257.5000000000,32,1.1749199629,,,
257.7500000000,32,1.1813240051,,,
258.0000000000,32,1.1826050282,,,
258.2500000000,32,1.1762009859,,,
258.5000000000,32,1.1774820089,,,
258.7500000000,32,1.1774820089,,,
259.0000000000,32,1.1749199629,,,
259.2500000000,32,1.1800440550,,,
259.5000000000,32,1.1685160398,,,
259.7500000000,32,1.1762009859,,,
260.0000000000,32,1.1762009859,,,
260.2500000000,32,1.1774820089,,,
260.5000000000,32,1.1826050282,,,
260.7500000000,32,1.1787630320,,,
261.0000000000,32,1.1736400127,,,
261.2500000000,32,1.1774820089,,,
261.5000000000,32,1.1762009859,,,
261.7500000000,32,1.1749199629,,,
262.0000000000,32,1.1787630320,,,
262.2500000000,32,1.1710779667,,,
262.5000000000,32,1.1762009859,,,
262.7500000000,32,1.1851669550,,,
263.0000000000,32,1.1774820089,,,
263.2500000000,32,1.1813240051,,,
263.5000000000,32,1.1749199629,,,
263.7500000000,32,1.1736400127,,,
264.0000000000,33,1.1723589897,,,
264.2500000000,33,1.1685160398,,,
264.5000000000,33,1.1697969437,,,
264.7500000000,33,1.1774820089,,,
265.0000000000,33,1.1659549475,,,
265.2500000000,33,1.1762009859,,,
265.5000000000,33,1.1736400127,,,
265.7500000000,33,1.1697969437,,,
266.0000000000,33,1.1723589897,,,
266.2500000000,33,1.1659549475,,,
266.5000000000,33,1.1672359705,,,
266.7500000000,33,1.1697969437,,,
267.0000000000,33,1.1800440550,,,
267.2500000000,33,1.1672359705,,,
267.5000000000,33,1.1685160398,,,
267.7500000000,33,1.1608320475,,,
268.0000000000,33,1.1710779667,,,
268.2500000000,33,1.1710779667,,,
268.5000000000,33,1.1672359705,,,
268.7500000000,33,1.1710779667,,,
269.0000000000,33,1.1633930206,,,
269.2500000000,33,1.1621119976,,,
269.5000000000,33,1.1685160398,,,
269.7500000000,33,1.1633930206,,,
270.0000000000,33,1.1659549475,,,
270.2500000000,33,1.1646740437,,,
270.5000000000,33,1.1608320475,,,
270.7500000000,33,1.1685160398,,,
271.0000000000,33,1.1697969437,,,
271.2500000000,33,1.1672359705,,,
271.5000000000,33,1.1633930206,,,
271.7500000000,33,1.1633930206,,,
272.0000000000,34,1.1621119976,,,
272.2500000000,34,1.1646740437,,,
272.5000000000,34,1.1595510244,,,
272.7500000000,34,1.1659549475,,,
273.0000000000,34,1.1659549475,,,
273.2500000000,34,1.1544280052,,,
273.5000000000,34,1.1659549475,,,
273.7500000000,34,1.1672359705,,,
274.0000000000,34,1.1582700014,,,
274.2500000000,34,1.1646740437,,,
274.5000000000,34,1.1646740437,,,
274.7500000000,34,1.1608320475,,,
275.0000000000,34,1.1646740437,,,
275.2500000000,34,1.1621119976,,,
275.5000000000,34,1.1582700014,,,
275.7500000000,34,1.1659549475,,,
276.0000000000,34,1.1569889784,,,
276.2500000000,34,1.1608320475,,,
276.5000000000,34,1.1608320475,,,
276.7500000000,34,1.1582700014,,,
277.0000000000,34,1.1621119976,,,
277.2500000000,34,1.1621119976,,,
277.5000000000,34,1.1569889784,,,
277.7500000000,34,1.1633930206,,,
278.0000000000,34,1.1608320475,,,
278.2500000000,34,1.1569889784,,,
278.5000000000,34,1.1608320475,,,
278.7500000000,34,1.1544280052,,,
279.0000000000,34,1.1582700014,,,
279.2500000000,34,1.1608320475,,,
279.5000000000,34,1.1582700014,,,
279.7500000000,34,1.1557090282,,,
280.0000000000,35,1.1595510244,,,
280.2500000000,35,1.1557090282,,,
280.5000000000,35,1.1608320475,,,
280.7500000000,35,1.1569889784,,,
281.0000000000,35,1.1544280052,,,
281.2500000000,35,1.1582700014,,,
281.5000000000,35,1.1505850554,,,
281.7500000000,35,1.1544280052,,,
282.0000000000,35,1.1582700014,,,
282.2500000000,35,1.1531469822,,,
282.5000000000,35,1.1569889784,,,
282.7500000000,35,1.1557090282,,,
283.0000000000,35,1.1531469822,,,
283.2500000000,35,1.1582700014,,,
283.5000000000,35,1.1531469822,,,
283.7500000000,35,1.1518659592,,,
284.0000000000,35,1.1544280052,,,
284.2500000000,35,1.1493049860,,,
284.5000000000,35,1.1505850554,,,
284.7500000000,35,1.1518659592,,,
285.0000000000,35,1.1493049860,,,
285.2500000000,35,1.1493049860,,,
285.5000000000,35,1.1505850554,,,
285.7500000000,35,1.1518659592,,,
286.0000000000,35,1.1505850554,,,
286.2500000000,35,1.1544280052,,,
286.5000000000,35,1.1480239630,,,
286.7500000000,35,1.1531469822,,,
287.0000000000,35,1.1467430592,,,
287.2500000000,35,1.1467430592,,,
287.5000000000,35,1.1531469822,,,
287.7500000000,35,1.1493049860,,,
