Time:4Hz,Epoch,Channel 1,Event Id,Event Date,Event Duration
0.0000000000,0,15.9498100281,,,
0.2500000000,0,15.9498100281,,,
0.5000000000,0,15.9306001663,,,
0.7500000000,0,15.9113798141,,,
1.0000000000,0,15.8601503372,,,
1.2500000000,0,15.8217296600,,,
1.5000000000,0,15.7845897675,,,
1.7500000000,0,15.7576904297,,,
2.0000000000,0,15.7564096451,,,
2.2500000000,0,15.8319797516,,,
2.5000000000,0,15.9626197815,,,
2.7500000000,0,16.0804500580,,,
3.0000000000,0,16.1240005493,,,
3.2500000000,0,16.1278400421,,,
3.5000000000,0,16.1188697815,,,
3.7500000000,0,16.0701999664,,,
4.0000000000,0,16.0074405670,,,
4.2500000000,0,15.9472503662,,,
4.5000000000,0,15.8793601990,,,
4.7500000000,0,15.8972997665,,,
5.0000000000,0,16.0035991669,,,
5.2500000000,0,16.1649799347,,,
5.5000000000,0,16.3084297180,,,
5.7500000000,0,16.3711891174,,,
6.0000000000,0,16.3827209473,,,
6.2500000000,0,16.3366107941,,,
6.5000000000,0,16.2623195648,,,
6.7500000000,0,16.1637001038,,,
7.0000000000,0,16.0663604736,,,
7.2500000000,0,15.9728603363,,,
7.5000000000,0,15.8921699524,,,
7.7500000000,0,15.8114795685,,,
8.0000000000,1,15.7653799057,,,
8.2500000000,1,15.7359199524,,,
8.5000000000,1,15.7141399384,,,
8.7500000000,1,15.6782798767,,,
9.0000000000,1,15.6731595993,,,
9.2500000000,1,15.6449804306,,,
9.5000000000,1,15.6360101700,,,
9.7500000000,1,15.6219301224,,,
10.0000000000,1,15.6206502914,,,
10.2500000000,1,15.6590700150,,,
10.5000000000,1,15.7307901382,,,
10.7500000000,1,15.7986803055,,,
11.0000000000,1,15.8332595825,,,
11.2500000000,1,15.8422203064,,,
11.5000000000,1,15.8499097824,,,
11.7500000000,1,15.8499097824,,,
12.0000000000,1,15.9523696899,,,
12.2500000000,1,16.1124706268,,,
12.5000000000,1,16.2136497498,,,
12.7500000000,1,16.2905006409,,,
13.0000000000,1,16.3916797638,,,
13.2500000000,1,16.5428104401,,,
13.5000000000,1,16.7691001892,,,
13.7500000000,1,16.8421001434,,,
14.0000000000,1,16.8433799744,,,
14.2500000000,1,16.8075199127,,,
14.5000000000,1,16.6922492981,,,
14.7500000000,1,16.5705699921,,,
15.0000000000,1,16.4463405609,,,
15.2500000000,1,16.3105697632,,,
15.5000000000,1,16.1850605011,,,
15.7500000000,1,16.0864391327,,,
16.0000000000,2,16.0211105347,,,
16.2500000000,2,16.0223999023,,,
16.5000000000,2,16.0518493652,,,
16.7500000000,2,16.1222991943,,,
17.0000000000,2,16.2209205627,,,
17.2500000000,2,16.2644691467,,,
17.5000000000,2,16.2849597931,,,
17.7500000000,2,16.2618999481,,,
18.0000000000,2,16.2183609009,,,
18.2500000000,2,16.1696891785,,,
18.5000000000,2,16.1274204254,,,
18.7500000000,2,16.0646591187,,,
19.0000000000,2,16.0300807953,,,
19.2500000000,2,15.9775695801,,,
19.5000000000,2,15.9370002747,,,
19.7500000000,2,15.9254703522,,,
20.0000000000,2,15.8793601990,,,
20.2500000000,2,15.8806495667,,,
20.5000000000,2,15.8934497833,,,
20.7500000000,2,15.8780803680,,,
21.0000000000,2,15.9190702438,,,
21.2500000000,2,15.9702997208,,,
21.5000000000,2,16.0023193359,,,
21.7500000000,2,16.0176906586,,,
22.0000000000,2,16.0907001495,,,
22.2500000000,2,16.1585807800,,,
22.5000000000,2,15.9485301971,,,
22.7500000000,2,16.0138492584,,,
23.0000000000,2,15.9600601196,,,
23.2500000000,2,15.8934497833,,,
23.5000000000,2,15.8422203064,,,
23.7500000000,2,15.8166103363,,,
24.0000000000,3,15.7743396759,,,
24.2500000000,3,15.7551298141,,,
24.5000000000,3,15.7602500916,,,
24.7500000000,3,15.7948303223,,,
25.0000000000,3,15.8575897217,,,
25.2500000000,3,15.8870496750,,,
25.5000000000,3,15.9113798141,,,
25.7500000000,3,15.9190702438,,,
26.0000000000,3,15.8921699524,,,
26.2500000000,3,15.8678398132,,,
26.5000000000,3,15.8191699982,,,
26.7500000000,3,15.7858695984,,,
27.0000000000,3,15.8037996292,,,
27.2500000000,3,15.8550300598,,,
27.5000000000,3,15.9126701355,,,
27.7500000000,3,15.9613399506,,,
28.0000000000,3,15.9587697983,,,
28.2500000000,3,15.9446897507,,,
28.5000000000,3,15.9036998749,,,
28.7500000000,3,15.8537502289,,,
29.0000000000,3,15.8063602448,,,
29.2500000000,3,15.7756204605,,,
29.5000000000,3,15.7909898758,,,
29.7500000000,3,15.8127603531,,,
30.0000000000,3,15.8575897217,,,
30.2500000000,3,15.9100999832,,,
30.5000000000,3,15.9382801056,,,
30.7500000000,3,15.9241895676,,,
31.0000000000,3,15.8921699524,,,
31.2500000000,3,15.8499097824,,,
31.5000000000,3,15.8204498291,,,
31.7500000000,3,15.7666597366,,,
32.0000000000,4,15.7538499832,,,
32.2500000000,4,15.7538499832,,,
32.5000000000,4,15.7794599533,,,
32.7500000000,4,15.7756204605,,,
33.0000000000,4,15.7487201691,,,
33.2500000000,4,15.7205495834,,,
33.5000000000,4,15.7013301849,,,
33.7500000000,4,15.6667499542,,,
34.0000000000,4,15.6436996460,,,
34.2500000000,4,15.6424198151,,,
34.5000000000,4,15.6168003082,,,
34.7500000000,4,15.6180801392,,,
35.0000000000,4,15.6052799225,,,
35.2500000000,4,15.5899095535,,,
35.5000000000,4,15.5911903381,,,
35.7500000000,4,15.5681295395,,,
36.0000000000,4,15.5514802933,,,
36.2500000000,4,15.5502004623,,,
36.5000000000,4,15.5297098160,,,
36.7500000000,4,15.5245895386,,,
37.0000000000,4,15.5220203400,,,
37.2500000000,4,15.5258703232,,,
37.5000000000,4,15.5297098160,,,
37.7500000000,4,15.5489196777,,,
38.0000000000,4,15.5706901550,,,
38.2500000000,4,15.5591697693,,,
38.5000000000,4,15.5450801849,,,
38.7500000000,4,15.5463600159,,,
39.0000000000,4,15.5220203400,,,
39.2500000000,4,15.5297098160,,,
39.5000000000,4,15.5386695862,,,
39.7500000000,4,15.5194597244,,,
40.0000000000,5,15.5233001709,,,
40.2500000000,5,15.5104999542,,,
40.5000000000,5,15.5450801849,,,
40.7500000000,5,15.6462602615,,,
41.0000000000,5,15.7423200607,,,
41.2500000000,5,15.8204498291,,,
41.5000000000,5,15.8563098907,,,
41.7500000000,5,15.8665599823,,,
42.0000000000,5,15.8883304596,,,
42.2500000000,5,15.8844900131,,,
42.5000000000,5,15.8742399216,,,
42.7500000000,5,15.8640003204,,,
43.0000000000,5,15.8089199066,,,
43.2500000000,5,15.7717800140,,,
43.5000000000,5,15.7333498001,,,
43.7500000000,5,15.6731595993,,,
44.0000000000,5,15.6347303391,,,
44.2500000000,5,15.5988702774,,,
44.5000000000,5,15.5566101074,,,
44.7500000000,5,15.5514802933,,,
45.0000000000,5,15.5335502625,,,
45.2500000000,5,15.5527601242,,,
45.5000000000,5,15.5847797394,,,
45.7500000000,5,15.6219301224,,,
46.0000000000,5,15.6552295685,,,
46.2500000000,5,15.6705999374,,,
46.5000000000,5,15.6872501373,,,
46.7500000000,5,15.7128601074,,,
47.0000000000,5,15.6936502457,,,
47.2500000000,5,15.6731595993,,,
47.5000000000,5,15.6616296768,,,
47.7500000000,5,15.6488199234,,,
48.0000000000,6,15.6449804306,,,
48.2500000000,6,15.6475400925,,,
48.5000000000,6,15.6808395386,,,
48.7500000000,6,15.7205495834,,,
49.0000000000,6,15.7845897675,,,
49.2500000000,6,15.8691196442,,,
49.5000000000,6,15.9485301971,,,
49.7500000000,6,16.0010395050,,,
50.0000000000,6,16.0048809052,,,
50.2500000000,6,15.9574899673,,,
50.5000000000,6,15.9100999832,,,
50.7500000000,6,15.8652801514,,,
51.0000000000,6,15.8037996292,,,
51.2500000000,6,15.8255701065,,,
51.5000000000,6,15.9664602280,,,
51.7500000000,6,16.1713790894,,,
52.0000000000,6,16.3225193024,,,
52.2500000000,6,16.3993701935,,,
52.5000000000,6,16.4070491791,,,
52.7500000000,6,16.3609409332,,,
53.0000000000,6,16.2738494873,,,
53.2500000000,6,16.1688194275,,,
53.5000000000,6,16.0932598114,,,
53.7500000000,6,16.0458698273,,,
54.0000000000,6,15.9920701981,,,
54.2500000000,6,15.9434099197,,,
54.5000000000,6,15.9011402130,,,
54.7500000000,6,15.8511896133,,,
55.0000000000,6,15.7986803055,,,
55.2500000000,6,15.7384796143,,,
55.5000000000,6,15.6872501373,,,
55.7500000000,6,15.6577901840,,,
56.0000000000,7,15.6027097702,,,
56.2500000000,7,15.5719804764,,,
56.5000000000,7,15.5322704315,,,
56.7500000000,7,15.4976902008,,,
57.0000000000,7,15.4899997711,,,
57.2500000000,7,15.4733495712,,,
57.5000000000,7,15.4558000565,,,
57.7500000000,7,15.4634799957,,,
58.0000000000,7,15.4711599350,,,
58.2500000000,7,15.5044698715,,,
58.5000000000,7,15.5428895950,,,
58.7500000000,7,15.5441703796,,,
59.0000000000,7,15.5441703796,,,
59.2500000000,7,15.5403299332,,,
59.5000000000,7,15.5083103180,,,
59.7500000000,7,15.4826898575,,,
60.0000000000,7,15.4980602264,,,
60.2500000000,7,15.5608196259,,,
60.5000000000,7,15.6056499481,,,
60.7500000000,7,15.6530399323,,,
61.0000000000,7,15.6812095642,,,
61.2500000000,7,15.6748104095,,,
61.5000000000,7,15.6555995941,,,
61.7500000000,7,15.6363897324,,,
62.0000000000,7,15.5838699341,,,
62.2500000000,7,15.5441703796,,,
62.5000000000,7,15.4954996109,,,
62.7500000000,7,15.4493904114,,,
63.0000000000,7,15.4173698425,,,
63.2500000000,7,15.4084100723,,,
63.5000000000,7,15.3904695511,,,
63.7500000000,7,15.4237699509,,,
64.0000000000,8,15.5480098724,,,
64.2500000000,8,15.7093896866,,,
64.5000000000,8,15.8246603012,,,
64.7500000000,8,15.8912601471,,,
65.0000000000,8,15.9066295624,,,
65.2500000000,8,15.8976697922,,,
65.5000000000,8,15.8707704544,,,
65.7500000000,8,15.8336296082,,,
66.0000000000,8,15.7811203003,,,
66.2500000000,8,15.7503795624,,,
66.5000000000,8,15.7042703629,,,
66.7500000000,8,15.6658401489,,,
67.0000000000,8,15.6312599182,,,
67.2500000000,8,15.5774698257,,,
67.5000000000,8,15.5428895950,,,
67.7500000000,8,15.5044698715,,,
68.0000000000,8,15.4673204422,,,
68.2500000000,8,15.4391498566,,,
68.5000000000,8,15.4173698425,,,
68.7500000000,8,15.3917598724,,,
69.0000000000,8,15.3815097809,,,
69.2500000000,8,15.3482103348,,,
69.5000000000,8,15.3456497192,,,
69.7500000000,8,15.3392400742,,,
70.0000000000,8,15.3417997360,,,
70.2500000000,8,15.3712596893,,,
70.5000000000,8,15.4250602722,,,
70.7500000000,8,15.4634799957,,,
71.0000000000,8,15.5147104263,,,
71.2500000000,8,15.5198297501,,,
71.5000000000,8,15.5249595642,,,
71.7500000000,8,15.5121498108,,,
72.0000000000,9,15.5031795502,,,
72.2500000000,9,15.5018997192,,,
72.5000000000,9,15.4929399490,,,
72.7500000000,9,15.4622001648,,,
73.0000000000,9,15.4493904114,,,
73.2500000000,9,15.4199304581,,,
73.5000000000,9,15.4122495651,,,
73.7500000000,9,15.3917598724,,,
74.0000000000,9,15.3738203049,,,
74.2500000000,9,15.3827896118,,,
74.5000000000,9,15.3635797501,,,
74.7500000000,9,15.3558902740,,,
75.0000000000,9,15.3149099350,,,
75.2500000000,9,15.3021001816,,,
75.5000000000,9,15.2969799042,,,
75.7500000000,9,15.2918500900,,,
76.0000000000,9,15.2867298126,,,
76.2500000000,9,15.3277196884,,,
76.5000000000,9,15.3622999191,,,
76.7500000000,9,15.3968801498,,,
77.0000000000,9,15.4148101807,,,
77.2500000000,9,15.4122495651,,,
77.5000000000,9,15.4084100723,,,
77.7500000000,9,15.3815097809,,,
78.0000000000,9,15.3546104431,,,
78.2500000000,9,15.3571701050,,,
78.5000000000,9,15.3379602432,,,
78.7500000000,9,15.3520498276,,,
79.0000000000,9,15.3648595810,,,
79.2500000000,9,15.4045600891,,,
79.5000000000,9,15.4801301956,,,
79.7500000000,9,15.5313596725,,,
80.0000000000,10,15.5710697174,,,
80.2500000000,10,15.5774698257,,,
80.5000000000,10,15.5633802414,,,
80.7500000000,10,15.5454502106,,,
81.0000000000,10,15.5031795502,,,
81.2500000000,10,15.4839696884,,,
81.5000000000,10,15.5108699799,,,
81.7500000000,10,15.5800304413,,,
82.0000000000,10,15.6299800873,,,
82.2500000000,10,15.6581602097,,,
82.5000000000,10,15.6786499023,,,
82.7500000000,10,15.7132301331,,,
83.0000000000,10,15.7503795624,,,
83.2500000000,10,15.7759895325,,,
83.5000000000,10,15.7695903778,,,
83.7500000000,10,15.7247600555,,,
84.0000000000,10,15.6722497940,,,
84.2500000000,10,15.6351099014,,,
84.5000000000,10,15.5825901031,,,
84.7500000000,10,15.5352001190,,,
85.0000000000,10,15.4903802872,,,
85.2500000000,10,15.4596395493,,,
85.5000000000,10,15.4622001648,,,
85.7500000000,10,15.4839696884,,,
86.0000000000,10,15.5288000107,,,
86.2500000000,10,15.5825901031,,,
86.5000000000,10,15.5979604721,,,
86.7500000000,10,15.5902795792,,,
87.0000000000,10,15.5749101639,,,
87.2500000000,10,15.5582599640,,,
87.5000000000,10,15.5185499191,,,
87.7500000000,10,15.4711599350,,,
88.0000000000,11,15.4455499649,,,
88.2500000000,11,15.4583597183,,,
88.5000000000,11,15.4647598267,,,
88.7500000000,11,15.4775695801,,,
89.0000000000,11,15.4737300873,,,
89.2500000000,11,15.4596395493,,,
89.5000000000,11,15.4545097351,,,
89.7500000000,11,15.4352998734,,,
90.0000000000,11,15.4071197510,,,
90.2500000000,11,15.4071197510,,,
90.5000000000,11,15.4109697342,,,
90.7500000000,11,15.4942197800,,,
91.0000000000,11,15.6146097183,,,
91.2500000000,11,15.7311601639,,,
91.5000000000,11,15.7913599014,,,
91.7500000000,11,15.7952003479,,,
92.0000000000,11,15.7734298706,,,
92.2500000000,11,15.7209196091,,,
92.5000000000,11,15.6632795334,,,
92.7500000000,11,15.6094903946,,,
93.0000000000,11,15.5364799500,,,
93.2500000000,11,15.4788503647,,,
93.5000000000,11,15.4391498566,,,
93.7500000000,11,15.3879098892,,,
94.0000000000,11,15.3674201965,,,
94.2500000000,11,15.3789501190,,,
94.5000000000,11,15.4826898575,,,
94.7500000000,11,15.7017097473,,,
95.0000000000,11,15.9783601761,,,
95.2500000000,11,16.2853794098,,,
95.5000000000,11,16.4518795013,,,
95.7500000000,11,16.5069503784,,,
96.0000000000,12,16.5654506683,,,
96.2500000000,12,16.5026893616,,,
96.5000000000,12,16.3592395782,,,
96.7500000000,12,16.2106704712,,,
97.0000000000,12,16.0569801331,,,
97.2500000000,12,15.9160900116,,,
97.5000000000,12,15.7922697067,,,
97.7500000000,12,15.6808395386,,,
98.0000000000,12,15.6116800308,,,
98.2500000000,12,15.5502004623,,,
98.5000000000,12,15.5207395554,,,
98.7500000000,12,15.4951295853,,,
99.0000000000,12,15.4439001083,,,
99.2500000000,12,15.4122495651,,,
99.5000000000,12,15.4020004272,,,
99.7500000000,12,15.3725404739,,,
100.0000000000,12,15.3584499359,,,
100.2500000000,12,15.3571701050,,,
100.5000000000,12,15.3520498276,,,
100.7500000000,12,15.3827896118,,,
101.0000000000,12,15.3943195343,,,
101.2500000000,12,15.4148101807,,,
101.5000000000,12,15.4224901199,,,
101.7500000000,12,15.4237699509,,,
102.0000000000,12,15.4096899033,,,
102.2500000000,12,15.3763904572,,,
102.5000000000,12,15.3456497192,,,
102.7500000000,12,15.3456497192,,,
103.0000000000,12,15.3353996277,,,
103.2500000000,12,15.3635797501,,,
103.5000000000,12,15.4263401031,,,
103.7500000000,12,15.4519500732,,,
104.0000000000,13,15.4839696884,,,
104.2500000000,13,15.5288000107,,,
104.5000000000,13,15.5454502106,,,
104.7500000000,13,15.5569801331,,,
105.0000000000,13,15.5300798416,,,
105.2500000000,13,15.5083103180,,,
105.5000000000,13,15.4750099182,,,
105.7500000000,13,15.4352998734,,,
106.0000000000,13,15.4212102890,,,
106.2500000000,13,15.4058399200,,,
106.5000000000,13,15.3917598724,,,
106.7500000000,13,15.3712596893,,,
107.0000000000,13,15.3469295502,,,
107.2500000000,13,15.3353996277,,,
107.5000000000,13,15.3392400742,,,
107.7500000000,13,15.3776702881,,,
108.0000000000,13,15.4698801041,,,
108.2500000000,13,15.5480098724,,,
108.5000000000,13,15.5787496567,,,
108.7500000000,13,15.6107702255,,,
109.0000000000,13,15.6146097183,,,
109.2500000000,13,15.6312599182,,,
109.5000000000,13,15.6248598099,,,
109.7500000000,13,15.6415100098,,,
110.0000000000,13,15.8502798080,,,
110.2500000000,13,16.1307697296,,,
110.5000000000,13,16.6299095154,,,
110.7500000000,13,17.0547103882,,,
111.0000000000,13,17.2824401855,,,
111.2500000000,13,17.3221492767,,,
111.5000000000,13,17.2696304321,,,
111.7500000000,13,17.1569309235,,,
112.0000000000,14,16.9737701416,,,
112.2500000000,14,16.7265796661,,,
112.5000000000,14,16.4614505768,,,
112.7500000000,14,16.2708702087,,,
113.0000000000,14,16.0902805328,,,
113.2500000000,14,15.9596395493,,,
113.5000000000,14,15.8627099991,,,
113.7500000000,14,15.7781801224,,,
114.0000000000,14,15.7269496918,,,
114.2500000000,14,15.7384796143,,,
114.5000000000,14,15.8114795685,,,
114.7500000000,14,15.9536504745,,,
115.0000000000,14,16.0638008118,,,
115.2500000000,14,16.1355209351,,,
115.5000000000,14,16.1496105194,,,
115.7500000000,14,16.1214408875,,,
116.0000000000,14,16.0753307343,,,
116.2500000000,14,16.0010395050,,,
116.5000000000,14,15.9306001663,,,
116.7500000000,14,15.8588695526,,,
117.0000000000,14,15.8063602448,,,
117.2500000000,14,15.7705001831,,,
117.5000000000,14,15.7243900299,,,
117.7500000000,14,15.6923704147,,,
118.0000000000,14,15.6782798767,,,
118.2500000000,14,15.6974897385,,,
118.5000000000,14,15.7346401215,,,
118.7500000000,14,15.7564096451,,,
119.0000000000,14,15.7576904297,,,
119.2500000000,14,15.7448797226,,,
119.5000000000,14,15.7359199524,,,
119.7500000000,14,15.7039003372,,,
120.0000000000,15,15.6846799850,,,
120.2500000000,15,15.6744403839,,,
120.5000000000,15,15.6795597076,,,
120.7500000000,15,15.6552295685,,,
121.0000000000,15,15.6411399841,33025,121.2187500000,0.0000000000
121.2500000000,15,15.6155195236,33024:33025:33024,121.2812500000:121.4062500000:121.4687500000,0.0000000000:0.0000000000:0.0000000000
121.5000000000,15,15.5911903381,33025:33024,121.5937500000:121.6562500000,0.0000000000:0.0000000000
121.7500000000,15,15.5924701691,,,
122.0000000000,15,15.5822200775,,,
122.2500000000,15,15.6065597534,,,
122.5000000000,15,15.6616296768,,,
122.7500000000,15,15.7128601074,,,
123.0000000000,15,15.7474403381,,,
123.2500000000,15,15.7602500916,,,
123.5000000000,15,15.7295103073,,,
123.7500000000,15,15.7103004456,,,
124.0000000000,15,15.6654701233,,,
124.2500000000,15,15.6014299393,,,
124.5000000000,15,15.5796604156,,,
124.7500000000,15,15.5412397385,,,
125.0000000000,15,15.5258703232,,,
125.2500000000,15,15.5143404007,,,
125.5000000000,15,15.5117797852,,,
125.7500000000,15,15.5207395554,,,
126.0000000000,15,15.5130596161,,,
126.2500000000,15,15.5079402924,,,
126.5000000000,15,15.5207395554,,,
126.7500000000,15,15.5220203400,,,
127.0000000000,15,15.5258703232,,,
127.2500000000,15,15.5245895386,,,
127.5000000000,15,15.5117797852,,,
127.7500000000,15,15.5412397385,,,
128.0000000000,16,15.5604496002,,,
128.2500000000,16,15.6014299393,,,
128.5000000000,16,15.5963096619,,,
128.7500000000,16,15.5527601242,,,
129.0000000000,16,15.5361099243,,,
129.2500000000,16,15.5015296936,,,
129.5000000000,16,15.4835996628,,,
129.7500000000,16,15.4686002731,,,
130.0000000000,16,15.4647598267,,,
130.2500000000,16,15.4865303040,,,
130.5000000000,16,15.5313596725,,,
130.7500000000,16,15.6543197632,,,
131.0000000000,16,15.8310699463,,,
131.2500000000,16,16.0090999603,,,
131.5000000000,16,16.2431106567,,,
131.7500000000,16,16.2994709015,,,
132.0000000000,16,16.2712898254,,,
132.2500000000,16,16.2418308258,,,
132.5000000000,16,16.1675395966,,,
132.7500000000,16,16.0958194733,,,
133.0000000000,16,16.0842895508,,,
133.2500000000,16,16.1111907959,,,
133.5000000000,16,16.1970005035,,,
133.7500000000,16,16.2635993958,,,
134.0000000000,16,16.2674407959,,,
134.2500000000,16,16.2572002411,,,
134.5000000000,16,16.2277393341,,,
134.7500000000,16,16.1598606110,,,
135.0000000000,16,16.0650806427,,,
135.2500000000,16,15.9831104279,,,
135.5000000000,16,15.8960199356,,,
135.7500000000,16,15.8217296600,,,
136.0000000000,17,15.7615299225,,,
136.2500000000,17,15.7231101990,,,
136.5000000000,17,15.6654701233,,,
136.7500000000,17,15.6296100616,,,
137.0000000000,17,15.5899095535,,,
137.2500000000,17,15.5719804764,,,
137.5000000000,17,15.5642900467,,,
137.7500000000,17,15.5322704315,,,
138.0000000000,17,15.5053701401,,,
138.2500000000,17,15.4912900925,,,
138.5000000000,17,15.4759197235,,,
138.7500000000,17,15.4673204422,,,
139.0000000000,17,15.4545097351,,,
139.2500000000,17,15.4519500732,,,
139.5000000000,17,15.4519500732,,,
139.7500000000,17,15.4301795959,,,
140.0000000000,17,15.4212102890,,,
140.2500000000,17,15.4045600891,,,
140.5000000000,17,15.4096899033,,,
140.7500000000,17,15.4622001648,,,
141.0000000000,17,15.5134296417,,,
141.2500000000,17,15.5825901031,,,
141.5000000000,17,15.6351099014,,,
141.7500000000,17,15.6415100098,,,
142.0000000000,17,15.6338300705,,,
142.2500000000,17,15.6069297791,,,
142.5000000000,17,15.5710697174,,,
142.7500000000,17,15.5441703796,,,
143.0000000000,17,15.4954996109,,,
143.2500000000,17,15.4583597183,,,
143.5000000000,17,15.4263401031,,,
143.7500000000,17,15.4071197510,,,
144.0000000000,18,15.3981599808,,,
144.2500000000,18,15.3904695511,,,
144.5000000000,18,15.3520498276,,,
144.7500000000,18,15.3571701050,,,
145.0000000000,18,15.3366804123,,,
145.2500000000,18,15.3251495361,,,
145.5000000000,18,15.3085002899,,,
145.7500000000,18,15.2995395660,,,
146.0000000000,18,15.3046598434,,,
146.2500000000,18,15.2803297043,,,
146.5000000000,18,15.2803297043,,,
146.7500000000,18,15.2585496902,,,
147.0000000000,18,15.2559900284,,,
147.2500000000,18,15.2687997818,,,
147.5000000000,18,15.2854499817,,,
147.7500000000,18,15.2880096436,,,
148.0000000000,18,15.3008203506,,,
148.2500000000,18,15.3046598434,,,
148.5000000000,18,15.3021001816,,,
148.7500000000,18,15.3136301041,,,
149.0000000000,18,15.3097801208,,,
149.2500000000,18,15.3187503815,,,
149.5000000000,18,15.2700796127,,,
149.7500000000,18,15.2598304749,,,
150.0000000000,18,15.2521495819,,,
150.2500000000,18,15.3097801208,,,
150.5000000000,18,15.4212102890,,,
150.7500000000,18,15.5480098724,,,
151.0000000000,18,15.6171798706,,,
151.2500000000,18,15.6287002563,,,
151.5000000000,18,15.6415100098,,,
151.7500000000,18,15.6107702255,,,
152.0000000000,19,15.5416097641,,,
152.2500000000,19,15.4442701340,,,
152.5000000000,19,15.4084100723,,,
152.7500000000,19,15.3520498276,,,
153.0000000000,19,15.2969799042,,,
153.2500000000,19,15.2700796127,,,
153.5000000000,19,15.2406196594,,,
153.7500000000,19,15.2188501358,,,
154.0000000000,19,15.1881103516,,,
154.2500000000,19,15.1765804291,,,
154.5000000000,19,15.1765804291,,,
154.7500000000,19,15.1688995361,,,
155.0000000000,19,15.1535301208,,,
155.2500000000,19,15.1560897827,,,
155.5000000000,19,15.1317501068,,,
155.7500000000,19,15.1432800293,,,
156.0000000000,19,15.1240701675,,,
156.2500000000,19,15.1035804749,,,
156.5000000000,19,15.1074199677,,,
156.7500000000,19,15.0843696594,,,
157.0000000000,19,15.0754003525,,,
157.2500000000,19,15.0536298752,,,
157.5000000000,19,15.0459403992,,,
157.7500000000,19,15.0497798920,,,
158.0000000000,19,15.0459403992,,,
158.2500000000,19,15.0331296921,,,
158.5000000000,19,15.0305700302,,,
158.7500000000,19,15.0075197220,,,
159.0000000000,19,14.9998302460,,,
159.2500000000,19,15.0036802292,,,
159.5000000000,19,14.9780597687,,,
159.7500000000,19,14.9806098938,,,
160.0000000000,20,14.9806098938,,,
160.2500000000,20,14.9831695557,,,
160.5000000000,20,14.9959802628,,,
160.7500000000,20,14.9882898331,,,
161.0000000000,20,14.9806098938,,,
161.2500000000,20,14.9652395248,,,
161.5000000000,20,14.9485902786,,,
161.7500000000,20,14.9408998489,,,
162.0000000000,20,14.9383401871,,,
162.2500000000,20,14.9344997406,,,
162.5000000000,20,14.9408998489,,,
162.7500000000,20,14.9319400787,,,
163.0000000000,20,14.9434700012,,,
163.2500000000,20,14.9460296631,,,
163.5000000000,20,14.9537096024,,,
163.7500000000,20,14.9652395248,,,
164.0000000000,20,14.9665203094,,,
164.2500000000,20,14.9614000320,,,
164.5000000000,20,14.9601202011,,,
164.7500000000,20,14.9370603561,,,
165.0000000000,20,14.9216899872,,,
165.2500000000,20,14.9152898788,,,
165.5000000000,20,14.8960800171,,,
165.7500000000,20,14.8717403412,,,
166.0000000000,20,14.8653402328,,,
166.2500000000,20,14.8589296341,,,
166.5000000000,20,14.8678998947,,,
166.7500000000,20,14.8563699722,,,
167.0000000000,20,14.8461303711,,,
167.2500000000,20,14.8461303711,,,
167.5000000000,20,14.8256301880,,,
167.7500000000,20,14.8141098022,,,
168.0000000000,21,14.8013000488,,,
168.2500000000,21,14.7872104645,,,
168.5000000000,21,14.8000202179,,,
168.7500000000,21,14.7820901871,,,
169.0000000000,21,14.7641601563,,,
169.2500000000,21,14.7641601563,,,
169.5000000000,21,14.7615900040,,,
169.7500000000,21,14.7372598648,,,
170.0000000000,21,14.7334203720,,,
170.2500000000,21,14.7833700180,,,
170.5000000000,21,14.8678998947,,,
170.7500000000,21,15.0062198639,,,
171.0000000000,21,15.1496696472,,,
171.2500000000,21,15.2662200928,,,
171.5000000000,21,15.3020896912,,,
171.7500000000,21,15.2982501984,,,
172.0000000000,21,15.2610998154,,,
172.2500000000,21,15.2175598145,,,
172.5000000000,21,15.1496696472,,,
172.7500000000,21,15.1022796631,,,
173.0000000000,21,15.0933198929,,,
173.2500000000,21,15.2546997070,,,
173.5000000000,21,15.4890804291,,,
173.7500000000,21,15.7939195633,,,
174.0000000000,21,15.9476203918,,,
174.2500000000,21,16.0001296997,,,
174.5000000000,21,16.0561103821,,,
174.7500000000,21,16.0035991669,,,
175.0000000000,21,15.8883304596,,,
175.2500000000,21,15.7551298141,,,
175.5000000000,21,15.6372995377,,,
175.7500000000,21,15.6436996460,,,
176.0000000000,22,15.6962099075,,,
176.2500000000,22,15.7640895844,,,
176.5000000000,22,15.7820301056,,,
176.7500000000,22,15.7512903214,,,
177.0000000000,22,15.6923704147,,,
177.2500000000,22,15.6206502914,,,
177.5000000000,22,15.4976902008,,,
177.7500000000,22,15.3952302933,,,
178.0000000000,22,15.2790498734,,,
178.2500000000,22,15.1970701218,,,
178.5000000000,22,15.1420001984,,,
178.7500000000,22,15.0958900452,,,
179.0000000000,22,15.0497798920,,,
179.2500000000,22,15.0177602768,,,
179.5000000000,22,14.9870300293,,,
179.7500000000,22,14.9639701843,,,
180.0000000000,22,14.9396200180,,,
180.2500000000,22,14.9114503860,,,
180.5000000000,22,14.9050397873,,,
180.7500000000,22,14.8986396790,,,
181.0000000000,22,14.8845500946,,,
181.2500000000,22,14.8768596649,,,
181.5000000000,22,14.8563699722,,,
181.7500000000,22,14.8448400497,,,
182.0000000000,22,14.8281898499,,,
182.2500000000,22,14.8141098022,,,
182.5000000000,22,14.8051395416,,,
182.7500000000,22,14.7872104645,,,
183.0000000000,22,14.7782402039,,,
183.2500000000,22,14.7769603729,,,
183.5000000000,22,14.7718400955,,,
183.7500000000,22,14.7654399872,,,
184.0000000000,23,14.7564697266,,,
184.2500000000,23,14.7411003113,,,
184.5000000000,23,14.7436599731,,,
184.7500000000,23,14.7180500031,,,
185.0000000000,23,14.7001199722,,,
185.2500000000,23,14.6988296509,,,
185.5000000000,23,14.6924295425,,,
185.7500000000,23,14.6732196808,,,
186.0000000000,23,14.6629695892,,,
186.2500000000,23,14.6488800049,,,
186.5000000000,23,14.6527299881,,,
186.7500000000,23,14.6437597275,,,
187.0000000000,23,14.6283903122,,,
187.2500000000,23,14.6142997742,,,
187.5000000000,23,14.6181402206,,,
187.7500000000,23,14.6194295883,,,
188.0000000000,23,14.6104602814,,,
188.2500000000,23,14.6053400040,,,
188.5000000000,23,14.6258296967,,,
188.7500000000,23,14.6476001740,,,
189.0000000000,23,14.7129201889,,,
189.2500000000,23,14.8166704178,,,
189.5000000000,23,14.8909502029,,,
189.7500000000,23,14.9485902786,,,
190.0000000000,23,14.9831695557,,,
190.2500000000,23,15.0228700638,,,
190.5000000000,23,15.0664196014,,,
190.7500000000,23,15.0702600479,,,
191.0000000000,23,15.0497703552,,,
191.2500000000,23,15.0203104019,,,
191.5000000000,23,14.9754896164,,,
191.7500000000,23,14.9319400787,,,
192.0000000000,24,14.8986396790,,,
192.2500000000,24,14.8486900330,,,
192.5000000000,24,14.8205099106,,,
192.7500000000,24,14.7846498489,,,
193.0000000000,24,14.7475099564,,,
193.2500000000,24,14.7372598648,,,
193.5000000000,24,14.7218904495,,,
193.7500000000,24,14.6911497116,,,
194.0000000000,24,14.6834697723,,,
194.2500000000,24,14.6514501572,,,
194.5000000000,24,14.6360797882,,,
194.7500000000,24,14.6130199432,,,
195.0000000000,24,14.6066198349,,,
195.2500000000,24,14.6040601730,,,
195.5000000000,24,14.5874099731,,,
195.7500000000,24,14.5669097900,,,
196.0000000000,24,14.5810003281,,,
196.2500000000,24,14.5579500198,,,
196.5000000000,24,14.5412998199,,,
196.7500000000,24,14.5336103439,,,
197.0000000000,24,14.5233697891,,,
197.2500000000,24,14.5233697891,,,
197.5000000000,24,14.5067195892,,,
197.7500000000,24,14.5028696060,,,
198.0000000000,24,14.4939098358,,,
198.2500000000,24,14.4811000824,,,
198.5000000000,24,14.4780502319,,,
198.7500000000,24,14.4665203094,,,
199.0000000000,24,14.4575595856,,,
199.2500000000,24,14.4485902786,,,
199.5000000000,24,14.4396200180,,,
199.7500000000,24,14.4447498322,,,
200.0000000000,25,14.4344997406,,,
200.2500000000,25,14.4268198013,,,
200.5000000000,25,14.4421901703,,,
200.7500000000,25,14.4332199097,,,
201.0000000000,25,14.4242496490,,,
201.2500000000,25,14.4178495407,,,
201.5000000000,25,14.4114503860,,,
201.7500000000,25,14.4114503860,,,
202.0000000000,25,14.3922300339,,,
202.2500000000,25,14.3832702637,,,
202.5000000000,25,14.3704595566,,,
202.7500000000,25,14.3602199554,,,
203.0000000000,25,14.3602199554,,,
203.2500000000,25,14.3755798340,,,
203.5000000000,25,14.3563699722,,,
203.7500000000,25,14.3525295258,,,
204.0000000000,25,14.3243503571,,,
204.2500000000,25,14.3307600021,,,
204.5000000000,25,14.3294801712,,,
204.7500000000,25,14.3294801712,,,
205.0000000000,25,14.3499698639,,,
205.2500000000,25,14.3653402328,,,
205.5000000000,25,14.3525295258,,,
205.7500000000,25,14.3563699722,,,
206.0000000000,25,14.3397197723,,,
206.2500000000,25,14.3333196640,,,
206.5000000000,25,14.3243503571,,,
206.7500000000,25,14.3269100189,,,
207.0000000000,25,14.3256301880,,,
207.2500000000,25,14.3102598190,,,
207.5000000000,25,14.3038597107,,,
207.7500000000,25,14.3064203262,,,
208.0000000000,26,14.2961797714,,,
208.2500000000,26,14.3179502487,,,
208.5000000000,26,14.3435602188,,,
208.7500000000,26,14.3486900330,,,
209.0000000000,26,14.3589296341,,,
209.2500000000,26,14.3678998947,,,
209.5000000000,26,14.3935203552,,,
209.7500000000,26,14.3717403412,,,
210.0000000000,26,14.3538103104,,,
210.2500000000,26,14.3358802795,,,
210.5000000000,26,14.3141098022,,,
210.7500000000,26,14.2923297882,,,
211.0000000000,26,14.2743997574,,,
211.2500000000,26,14.2603101730,,,
211.5000000000,26,14.2654399872,,,
211.7500000000,26,14.2590303421,,,
212.0000000000,26,14.2513504028,,,
212.2500000000,26,14.2513504028,,,
212.5000000000,26,14.2423801422,,,
212.7500000000,26,14.2423801422,,,
213.0000000000,26,14.2295703888,,,
213.2500000000,26,14.2193298340,,,
213.5000000000,26,14.2206096649,,,
213.7500000000,26,14.2206096649,,,
214.0000000000,26,14.2052402496,,,
214.2500000000,26,14.2090797424,,,
214.5000000000,26,14.2142000198,,,
214.7500000000,26,14.2142000198,,,
215.0000000000,26,14.2013998032,,,
215.2500000000,26,14.1975498199,,,
215.5000000000,26,14.1988401413,,,
215.7500000000,26,14.1732196808,,,
216.0000000000,27,14.1591300964,,,
216.2500000000,27,14.1476001740,,,
216.5000000000,27,14.1322298050,,,
216.7500000000,27,14.1245498657,,,
217.0000000000,27,14.1091804504,,,
217.2500000000,27,14.0938100815,,,
217.5000000000,27,14.1027803421,,,
217.7500000000,27,14.0912504196,,,
218.0000000000,27,14.0784397125,,,
218.2500000000,27,14.0707597733,,,
218.5000000000,27,14.0707597733,,,
218.7500000000,27,14.0746002197,,,
219.0000000000,27,14.0592298508,,,
219.2500000000,27,14.0476999283,,,
219.5000000000,27,14.0605096817,,,
219.7500000000,27,14.0387401581,,,
220.0000000000,27,14.0425796509,,,
220.2500000000,27,14.0208101273,,,
220.5000000000,27,14.0272102356,,,
220.7500000000,27,14.0284900665,,,
221.0000000000,27,14.0323295593,,,
221.2500000000,27,14.1014995575,,,
221.5000000000,27,14.2462196350,,,
221.7500000000,27,14.4127302170,,,
222.0000000000,27,14.5805101395,,,
222.2500000000,27,14.7085895538,,,
222.5000000000,27,14.7687902451,,,
222.7500000000,27,14.7700700760,,,
223.0000000000,27,14.7662296295,,,
223.2500000000,27,14.7406101227,,,
223.5000000000,27,14.7201204300,,,
223.7500000000,27,14.6688899994,,,
224.0000000000,28,14.6330204010,,,
224.2500000000,28,14.5766696930,,,
224.5000000000,28,14.5267200470,,,
224.7500000000,28,14.4703598022,,,
225.0000000000,28,14.4114503860,,,
225.2500000000,28,14.3730201721,,,
225.5000000000,28,14.3307600021,,,
225.7500000000,28,14.2833700180,,,
226.0000000000,28,14.2641601563,,,
226.2500000000,28,14.2449398041,,,
226.5000000000,28,14.2423801422,,,
226.7500000000,28,14.2590303421,,,
227.0000000000,28,14.2347002029,,,
227.2500000000,28,14.2218904495,,,
227.5000000000,28,14.2077999115,,,
227.7500000000,28,14.1860303879,,,
228.0000000000,28,14.1668195724,,,
228.2500000000,28,14.1552896500,,,
228.5000000000,28,14.1296701431,,,
228.7500000000,28,14.1078996658,,,
229.0000000000,28,14.0912504196,,,
229.2500000000,28,14.0707597733,,,
229.5000000000,28,14.0669097900,,,
229.7500000000,28,14.0489797592,,,
230.0000000000,28,14.0374603271,,,
230.2500000000,28,14.0541095734,,,
230.5000000000,28,14.0950899124,,,
230.7500000000,28,14.1488800049,,,
231.0000000000,28,14.2193298340,,,
231.2500000000,28,14.2564697266,,,
231.5000000000,28,14.2731199265,,,
231.7500000000,28,14.2718400955,,,
232.0000000000,29,14.2462196350,,,
232.2500000000,29,14.2218904495,,,
232.5000000000,29,14.1834697723,,,
232.7500000000,29,14.1527299881,,,
233.0000000000,29,14.1386404037,,,
233.2500000000,29,14.1014995575,,,
233.5000000000,29,14.0707597733,,,
233.7500000000,29,14.0617904663,,,
234.0000000000,29,14.0387401581,,,
234.2500000000,29,14.0246496201,,,
234.5000000000,29,14.0310497284,,,
234.7500000000,29,14.0297698975,,,
235.0000000000,29,14.0374603271,,,
235.2500000000,29,14.0323295593,,,
235.5000000000,29,14.0272102356,,,
235.7500000000,29,14.0208101273,,,
236.0000000000,29,14.0220899582,,,
236.2500000000,29,14.0361700058,,,
236.5000000000,29,14.1655302048,,,
236.7500000000,29,14.4511499405,,,
237.0000000000,29,14.8149003983,,,
237.2500000000,29,15.0966701508,,,
237.5000000000,29,15.4019899368,,,
237.7500000000,29,15.4839601517,,,
238.0000000000,29,15.5339202881,,,
238.2500000000,29,15.4686002731,,,
238.5000000000,29,15.3520498276,,,
238.7500000000,29,15.1932296753,,,
239.0000000000,29,15.0164804459,,,
239.2500000000,29,14.8896903992,,,
239.5000000000,29,14.7743997574,,,
239.7500000000,29,14.7116403580,,,
240.0000000000,30,14.6693801880,,,
240.2500000000,30,14.6399202347,,,
240.5000000000,30,14.6424798965,,,
240.7500000000,30,14.7142000198,,,
241.0000000000,30,14.8871097565,,,
241.2500000000,30,15.1061296463,,,
241.5000000000,30,15.2649402618,,,
241.7500000000,30,15.3353900909,,,
242.0000000000,30,15.3353900909,,,
242.2500000000,30,15.2982501984,,,
242.5000000000,30,15.2406101227,,,
242.7500000000,30,15.1483898163,,,
243.0000000000,30,15.0638599396,,,
243.2500000000,30,15.0023803711,,,
243.5000000000,30,14.9844503403,,,
243.7500000000,30,15.0010995865,,,
244.0000000000,30,15.0241603851,,,
244.2500000000,30,15.0062198639,,,
244.5000000000,30,14.9716396332,,,
244.7500000000,30,14.9076004028,,,
245.0000000000,30,14.8269100189,,,
245.2500000000,30,14.7436599731,,,
245.5000000000,30,14.6616897583,,,
245.7500000000,30,14.5810003281,,,
246.0000000000,30,14.5233697891,,,
246.2500000000,30,14.4772596359,,,
246.5000000000,30,14.4242496490,,,
246.7500000000,30,14.4152898788,,,
247.0000000000,30,14.3896703720,,,
247.2500000000,30,14.3794298172,,,
247.5000000000,30,14.3807096481,,,
247.7500000000,30,14.3614997864,,,
248.0000000000,31,14.3525295258,,,
248.2500000000,31,14.3538103104,,,
248.5000000000,31,14.3653402328,,,
248.7500000000,31,14.4357795715,,,
249.0000000000,31,14.5805101395,,,
249.2500000000,31,14.7867202759,,,
249.5000000000,31,14.9391298294,,,
249.7500000000,31,14.9993295670,,,
250.0000000000,31,15.0741100311,,,
250.2500000000,31,15.0651397705,,,
250.5000000000,31,14.9882898331,,,
250.7500000000,31,14.8832702637,,,
251.0000000000,31,14.7667198181,,,
251.2500000000,31,14.6681003571,,,
251.5000000000,31,14.6002101898,,,
251.7500000000,31,14.5899696350,,,
252.0000000000,31,14.6693801880,,,
252.2500000000,31,14.8922300339,,,
252.5000000000,31,15.1035699844,,,
252.7500000000,31,15.2137098312,,,
253.0000000000,31,15.2687902451,,,
253.2500000000,31,15.2508602142,,,
253.5000000000,31,15.1714496613,,,
253.7500000000,31,15.0741100311,,,
254.0000000000,31,14.9408998489,,,
254.2500000000,31,14.8281898499,,,
254.5000000000,31,14.7449398041,,,
254.7500000000,31,14.7065200806,,,
255.0000000000,31,14.6578502655,,,
255.2500000000,31,14.6232700348,,,
255.5000000000,31,14.5848398209,,,
255.7500000000,31,14.5656299591,,,
256.0000000000,32,14.5220899582,,,
256.2500000000,32,14.4798202515,,,
256.5000000000,32,14.4626798630,,,
256.7500000000,32,14.4383401871,,,
257.0000000000,32,14.4242496490,,,
257.2500000000,32,14.4191303253,,,
257.5000000000,32,14.4216899872,,,
257.7500000000,32,14.4063196182,,,
258.0000000000,32,14.3883895874,,,
258.2500000000,32,14.3935203552,,,
258.5000000000,32,14.3948001862,,,
258.7500000000,32,14.3845500946,,,
259.0000000000,32,14.3755798340,,,
259.2500000000,32,14.3858299255,,,
259.5000000000,32,14.3704595566,,,
259.7500000000,32,14.3371601105,,,
260.0000000000,32,14.3153896332,,,
260.2500000000,32,14.3089799881,,,
260.5000000000,32,14.3089799881,,,
260.7500000000,32,14.3192300797,,,
261.0000000000,32,14.3243503571,,,
261.2500000000,32,14.3486900330,,,
261.5000000000,32,14.3614997864,,,
261.7500000000,32,14.3640604019,,,
262.0000000000,32,14.3730201721,,,
262.2500000000,32,14.3525295258,,,
262.5000000000,32,14.3384399414,,,
262.7500000000,32,14.3205099106,,,
263.0000000000,32,14.3000202179,,,
263.2500000000,32,14.2872104645,,,
263.5000000000,32,14.2820901871,,,
263.7500000000,32,14.2756795883,,,
264.0000000000,33,14.2820901871,,,
264.2500000000,33,14.2551898956,,,
264.5000000000,33,14.2321395874,,,
264.7500000000,33,14.2449398041,,,
265.0000000000,33,14.2193298340,,,
265.2500000000,33,14.2116403580,,,
265.5000000000,33,14.2065200806,,,
265.7500000000,33,14.2077999115,,,
266.0000000000,33,14.1924295425,,,
266.2500000000,33,14.1949901581,,,
266.5000000000,33,14.1770601273,,,
266.7500000000,33,14.1834697723,,,
267.0000000000,33,14.1693801880,,,
267.2500000000,33,14.1591300964,,,
267.5000000000,33,14.1655302048,,,
267.7500000000,33,14.1578502655,,,
268.0000000000,33,14.1745004654,,,
268.2500000000,33,14.1655302048,,,
268.5000000000,33,14.1527299881,,,
268.7500000000,33,14.1450395584,,,
269.0000000000,33,14.1373596191,,,
269.2500000000,33,14.1360797882,,,
269.5000000000,33,14.1335201263,,,
269.7500000000,33,14.1271095276,,,
270.0000000000,33,14.1232700348,,,
270.2500000000,33,14.1335201263,,,
270.5000000000,33,14.1245498657,,,
270.7500000000,33,14.1296701431,,,
271.0000000000,33,14.1450395584,,,
271.2500000000,33,14.1424798965,,,
271.5000000000,33,14.1437597275,,,
271.7500000000,33,14.1552896500,,,
272.0000000000,34,14.1322298050,,,
272.2500000000,34,14.1322298050,,,
272.5000000000,34,14.1271095276,,,
272.7500000000,34,14.1014995575,,,
273.0000000000,34,14.0938100815,,,
273.2500000000,34,14.0874099731,,,
273.5000000000,34,14.0835599899,,,
273.7500000000,34,14.0861301422,,,
274.0000000000,34,14.0886898041,,,
274.2500000000,34,14.1142997742,,,
274.5000000000,34,14.1309499741,,,
274.7500000000,34,14.1604099274,,,
275.0000000000,34,14.1898698807,,,
275.2500000000,34,14.1783399582,,,
275.5000000000,34,14.1770601273,,,
275.7500000000,34,14.2026796341,,,
276.0000000000,34,14.2295703888,,,
276.2500000000,34,14.3013000488,,,
276.5000000000,34,14.3704595566,,,
276.7500000000,34,14.4024801254,,,
277.0000000000,34,14.4280996323,,,
277.2500000000,34,14.4216899872,,,
277.5000000000,34,14.3819904327,,,
277.7500000000,34,14.3538103104,,,
278.0000000000,34,14.2923297882,,,
278.2500000000,34,14.2436599731,,,
278.5000000000,34,14.2001199722,,,
278.7500000000,34,14.1681003571,,,
279.0000000000,34,14.1540098190,,,
279.2500000000,34,14.1194295883,,,
279.5000000000,34,14.0912504196,,,
279.7500000000,34,14.0963697433,,,
280.0000000000,35,14.0746002197,,,
280.2500000000,35,14.0733203888,,,
280.5000000000,35,14.0822801590,,,
280.7500000000,35,14.0669097900,,,
281.0000000000,35,14.0720396042,,,
281.2500000000,35,14.0630702972,,,
281.5000000000,35,14.0438604355,,,
281.7500000000,35,14.0605096817,,,
282.0000000000,35,14.0348901749,,,
282.2500000000,35,14.0323295593,,,
282.5000000000,35,14.0156803131,,,
282.7500000000,35,14.0041599274,,,
283.0000000000,35,14.0092802048,,,
283.2500000000,35,14.0067195892,,,
283.5000000000,35,13.9875001907,,,
283.7500000000,35,13.9900703430,,,
284.0000000000,35,13.9772596359,,,
284.2500000000,35,13.9727897644,,,
284.5000000000,35,13.9766302109,,,
284.7500000000,35,13.9651002884,,,
285.0000000000,35,13.9625396729,,,
285.2500000000,35,13.9574203491,,,
285.5000000000,35,13.9356403351,,,
285.7500000000,35,13.9125900269,,,
286.0000000000,35,13.9023399353,,,
286.2500000000,35,13.9023399353,,,
286.5000000000,35,13.8997802734,,,
286.7500000000,35,13.9189901352,,,
287.0000000000,35,13.9740695953,,,
287.2500000000,35,14.0329799652,,,
287.5000000000,35,14.0829296112,,,
287.7500000000,35,14.1162300110,,,
288.0000000000,36,14.1149501801,,,
288.2500000000,36,14.1123895645,,,
288.5000000000,36,14.0906200409,,,
288.7500000000,36,14.0624399185,,,
289.0000000000,36,14.0406703949,,,
289.2500000000,36,14.0112104416,,,
289.5000000000,36,13.9779100418,,,
289.7500000000,36,13.9638204575,,,
290.0000000000,36,13.9343595505,,,
290.2500000000,36,13.9177103043,,,
290.5000000000,36,13.9125900269,,,
290.7500000000,36,13.8997802734,,,
291.0000000000,36,13.9100303650,,,
291.2500000000,36,13.9177103043,,,
291.5000000000,36,13.9241199493,,,
291.7500000000,36,13.9484500885,,,
292.0000000000,36,13.9599800110,,,
292.2500000000,36,13.9689397812,,,
292.5000000000,36,13.9791898727,,,
292.7500000000,36,13.9574203491,,,
293.0000000000,36,13.9471702576,,,
293.2500000000,36,13.9305200577,,,
293.5000000000,36,13.9164304733,,,
293.7500000000,36,13.9177103043,,,
294.0000000000,36,13.8959398270,,,
294.2500000000,36,13.8959398270,,,
294.5000000000,36,13.9036197662,,,
294.7500000000,36,13.8985004425,,,
295.0000000000,36,13.8959398270,,,
295.2500000000,36,13.8818502426,,,
295.5000000000,36,13.8728799820,,,
295.7500000000,36,13.8716001511,,,
296.0000000000,37,13.8600797653,,,
296.2500000000,37,13.8587999344,,,
296.5000000000,37,13.8792896271,,,
296.7500000000,37,13.8831300735,,,
297.0000000000,37,13.8690395355,,,
297.2500000000,37,13.8626403809,,,
297.5000000000,37,13.8382997513,,,
297.7500000000,37,13.8498296738,,,
298.0000000000,37,13.9036197662,,,
298.2500000000,37,14.0009603500,,,
298.5000000000,37,14.0842103958,,,
298.7500000000,37,14.1444101334,,,
299.0000000000,37,14.1546602249,,,
299.2500000000,37,14.1482496262,,,
299.5000000000,37,14.1482496262,,,
299.7500000000,37,14.1533803940,,,
300.0000000000,37,14.2263803482,,,
300.2500000000,37,14.3749504089,,,
300.5000000000,37,14.5683498383,,,
300.7500000000,37,14.8840599060,,,
301.0000000000,37,15.0172595978,,,
301.2500000000,37,15.1496696472,,,
301.5000000000,37,15.1394300461,,,
301.7500000000,37,15.0638599396,,,
302.0000000000,37,14.9460296631,,,
302.2500000000,37,14.8281898499,,,
302.5000000000,37,14.6821804047,,,
302.7500000000,37,14.5707597733,,,
303.0000000000,37,14.4606103897,,,
303.2500000000,37,14.3794298172,,,
303.5000000000,37,14.3307600021,,,
303.7500000000,37,14.2795295715,,,
304.0000000000,38,14.2372598648,,,
304.2500000000,38,14.2129201889,,,
304.5000000000,38,14.1616897583,,,
304.7500000000,38,14.1386404037,,,
305.0000000000,38,14.1591300964,,,
305.2500000000,38,14.2475099564,,,
305.5000000000,38,14.3499698639,,,
305.7500000000,38,14.4319400787,,,
306.0000000000,38,14.4690799713,,,
306.2500000000,38,14.4780502319,,,
306.5000000000,38,14.4408998489,,,
306.7500000000,38,14.3909502029,,,
307.0000000000,38,14.3205099106,,,
307.2500000000,38,14.2423801422,,,
307.5000000000,38,14.1719398499,,,
307.7500000000,38,14.1283903122,,,
308.0000000000,38,14.0720396042,,,
308.2500000000,38,14.0387401581,,,
308.5000000000,38,14.0054397583,,,
308.7500000000,38,13.9823799133,,,
309.0000000000,38,13.9625396729,,,
309.2500000000,38,13.9535703659,,,
309.5000000000,38,13.9433298111,,,
309.7500000000,38,13.9215497971,,,
310.0000000000,38,13.9100303650,,,
310.2500000000,38,13.8972196579,,,
310.5000000000,38,13.8856897354,,,
310.7500000000,38,13.8805704117,,,
311.0000000000,38,13.8447103500,,,
311.2500000000,38,13.8472700119,,,
311.5000000000,38,13.8344602585,,,
311.7500000000,38,13.8216495514,,,
312.0000000000,39,13.7973203659,,,
312.2500000000,39,13.7986001968,,,
312.5000000000,39,13.7845096588,,,
312.7500000000,39,13.7691402435,,,
313.0000000000,39,13.7588901520,,,
313.2500000000,39,13.7627401352,,,
313.5000000000,39,13.7371196747,,,
313.7500000000,39,13.7268695831,,,
314.0000000000,39,13.7320003510,,,
314.2500000000,39,13.7255897522,,,
314.5000000000,39,13.7255897522,,,
314.7500000000,39,13.7166299820,,,
315.0000000000,39,13.7166299820,,,
315.2500000000,39,13.7166299820,,,
315.5000000000,39,13.7243099213,,,
315.7500000000,39,13.7140703201,,,
316.0000000000,39,13.7255897522,,,
316.2500000000,39,13.7115001678,,,
316.5000000000,39,13.7076597214,,,
316.7500000000,39,13.7076597214,,,
317.0000000000,39,13.7358398438,,,
317.2500000000,39,13.7537698746,,,
317.5000000000,39,13.7704200745,,,
317.7500000000,39,13.7716999054,,,
318.0000000000,39,13.7819499969,,,
318.2500000000,39,13.7588901520,,,
318.5000000000,39,13.7447996140,,,
318.7500000000,39,13.7486495972,,,
319.0000000000,39,13.7806701660,,,
319.2500000000,39,13.8331804276,,,
319.5000000000,39,13.8613595963,,,
319.7500000000,39,13.8805704117,,,
320.0000000000,40,13.8997802734,,,
320.2500000000,40,13.8869695663,,,
320.5000000000,40,13.8741598129,,,
320.7500000000,40,13.8536701202,,,
321.0000000000,40,13.8318996429,,,
321.2500000000,40,13.8050003052,,,
321.5000000000,40,13.7729797363,,,
321.7500000000,40,13.7524900436,,,
322.0000000000,40,13.7358398438,,,
322.2500000000,40,13.7153501511,,,
322.5000000000,40,13.6897296906,,,
322.7500000000,40,13.6794795990,,,
323.0000000000,40,13.6577100754,,,
323.2500000000,40,13.6449003220,,,
323.5000000000,40,13.6295299530,,,
323.7500000000,40,13.6218500137,,,
324.0000000000,40,13.6205701828,,,
324.2500000000,40,13.6026401520,,,
324.5000000000,40,13.5936698914,,,
324.7500000000,40,13.5859899521,,,
325.0000000000,40,13.5757398605,,,
325.2500000000,40,13.5834197998,,,
325.5000000000,40,13.5898303986,,,
325.7500000000,40,13.5872697830,,,
326.0000000000,40,13.5885496140,,,
326.2500000000,40,13.5847101212,,,
326.5000000000,40,13.5821399689,,,
326.7500000000,40,13.5821399689,,,
327.0000000000,40,13.5731801987,,,
327.2500000000,40,13.5731801987,,,
327.5000000000,40,13.5616502762,,,
327.7500000000,40,13.5488395691,,,
