Time:4Hz,Epoch,Channel 1,Event Id,Event Date,Event Duration
0.0000000000,0,1.3003389835,,,
0.2500000000,0,1.3003389835,,,
0.5000000000,0,1.2964969873,,,
0.7500000000,0,1.3028999567,,,
1.0000000000,0,1.3028999567,,,
1.2500000000,0,1.3028999567,,,
1.5000000000,0,1.3028999567,,,
1.7500000000,0,1.3016200066,,,
2.0000000000,0,1.3003389835,,,
2.2500000000,0,1.3041809797,,,
2.5000000000,0,1.3003389835,,,
2.7500000000,0,1.3003389835,,,
3.0000000000,0,1.2926540375,,,
3.2500000000,0,1.2836890221,,,
3.5000000000,0,1.2849689722,,,
3.7500000000,0,1.2798459530,,,
4.0000000000,0,1.2760039568,,,
4.2500000000,0,1.2836890221,,,
4.5000000000,0,1.2900929451,,,
4.7500000000,0,1.3028999567,,,
5.0000000000,0,1.3080240488,,,
5.2500000000,0,1.3169889450,,,
5.5000000000,0,1.3169889450,,,
5.7500000000,0,1.3157080412,,,
6.0000000000,0,1.3131469488,,,
6.2500000000,0,1.3105850220,,,
6.5000000000,0,1.3028999567,,,
6.7500000000,0,1.2952159643,,,
7.0000000000,0,1.2849689722,,,
7.2500000000,0,1.2785650492,,,
7.5000000000,0,1.2772849798,,,
7.7500000000,0,1.2811269760,,,
8.0000000000,1,1.2849689722,,,
8.2500000000,1,1.2849689722,,,
8.5000000000,1,1.2862499952,,,
8.7500000000,1,1.2862499952,,,
9.0000000000,1,1.2862499952,,,
9.2500000000,1,1.2875310183,,,
9.5000000000,1,1.2875310183,,,
9.7500000000,1,1.2875310183,,,
10.0000000000,1,1.2824079990,,,
10.2500000000,1,1.2849689722,,,
10.5000000000,1,1.2798459530,,,
10.7500000000,1,1.2849689722,,,
11.0000000000,1,1.2772849798,,,
11.2500000000,1,1.2696000338,,,
11.5000000000,1,1.2696000338,,,
11.7500000000,1,1.2670379877,,,
12.0000000000,1,1.2670379877,,,
12.2500000000,1,1.2708810568,,,
12.5000000000,1,1.2734420300,,,
12.7500000000,1,1.2721610069,,,
13.0000000000,1,1.2772849798,,,
13.2500000000,1,1.2772849798,,,
13.5000000000,1,1.2772849798,,,
13.7500000000,1,1.2760039568,,,
14.0000000000,1,1.2683190107,,,
14.2500000000,1,1.2580729723,,,
14.5000000000,1,1.2555110455,,,
14.7500000000,1,1.2529499531,,,
15.0000000000,1,1.2465460300,,,
15.2500000000,1,1.2414230108,,,
15.5000000000,1,1.2414230108,,,
15.7500000000,1,1.2362990379,,,
16.0000000000,2,1.2337379456,,,
16.2500000000,2,1.2311760187,,,
16.5000000000,2,1.2247719765,,,
16.7500000000,2,1.2260529995,,,
17.0000000000,2,1.2209299803,,,
17.2500000000,2,1.2158069611,,,
17.5000000000,2,1.2183680534,,,
17.7500000000,2,1.2145260572,,,
18.0000000000,2,1.2119640112,,,
18.2500000000,2,1.2081220150,,,
18.5000000000,2,1.2004369497,,,
18.7500000000,2,1.1965949535,,,
19.0000000000,2,1.1965949535,,,
19.2500000000,2,1.1901910305,,,
19.5000000000,2,1.1927520037,,,
19.7500000000,2,1.1889100075,,,
20.0000000000,2,1.1876289845,,,
20.2500000000,2,1.1876289845,,,
20.5000000000,2,1.1837869883,,,
20.7500000000,2,1.1863479614,,,
21.0000000000,2,1.1850680113,,,
21.2500000000,2,1.1825059652,,,
21.5000000000,2,1.1812249422,,,
21.7500000000,2,1.1786639690,,,
22.0000000000,2,1.1812249422,,,
22.2500000000,2,1.1786639690,,,
22.5000000000,2,1.1709790230,,,
22.7500000000,2,1.1773829460,,,
23.0000000000,2,1.1735409498,,,
23.2500000000,2,1.1709790230,,,
23.5000000000,2,1.1735409498,,,
23.7500000000,2,1.1761020422,,,
24.0000000000,3,1.1825059652,,,
24.2500000000,3,1.1876289845,,,
24.5000000000,3,1.2004369497,,,
24.7500000000,3,1.1965949535,,,
25.0000000000,3,1.1978759766,,,
25.2500000000,3,1.1927520037,,,
25.5000000000,3,1.1953140497,,,
25.7500000000,3,1.1940330267,,,
26.0000000000,3,1.1914720535,,,
26.2500000000,3,1.1889100075,,,
26.5000000000,3,1.1863479614,,,
26.7500000000,3,1.1837869883,,,
27.0000000000,3,1.1812249422,,,
27.2500000000,3,1.1773829460,,,
27.5000000000,3,1.1786639690,,,
27.7500000000,3,1.1748210192,,,
28.0000000000,3,1.1709790230,,,
28.2500000000,3,1.1735409498,,,
28.5000000000,3,1.1709790230,,,
28.7500000000,3,1.1786639690,,,
29.0000000000,3,1.1837869883,,,
29.2500000000,3,1.1876289845,,,
29.5000000000,3,1.1927520037,,,
29.7500000000,3,1.1940330267,,,
30.0000000000,3,1.1953140497,,,
30.2500000000,3,1.1965949535,,,
30.5000000000,3,1.1927520037,,,
30.7500000000,3,1.1914720535,,,
31.0000000000,3,1.1901910305,,,
31.2500000000,3,1.1837869883,,,
31.5000000000,3,1.1850680113,,,
31.7500000000,3,1.1812249422,,,
32.0000000000,4,1.1799449921,,,
32.2500000000,4,1.1876289845,,,
32.5000000000,4,1.1991560459,,,
32.7500000000,4,1.2004369497,,,
33.0000000000,4,1.2004369497,,,
33.2500000000,4,1.1940330267,,,
33.5000000000,4,1.1978759766,,,
33.7500000000,4,1.1965949535,,,
34.0000000000,4,1.1965949535,,,
34.2500000000,4,1.1978759766,,,
34.5000000000,4,1.1978759766,,,
34.7500000000,4,1.2068409920,,,
35.0000000000,4,1.2094030380,,,
35.2500000000,4,1.2106829882,,,
35.5000000000,4,1.2081220150,,,
35.7500000000,4,1.2081220150,,,
36.0000000000,4,1.2106829882,,,
36.2500000000,4,1.2068409920,,,
36.5000000000,4,1.2017179728,,,
36.7500000000,4,1.1965949535,,,
37.0000000000,4,1.1940330267,,,
37.2500000000,4,1.1876289845,,,
37.5000000000,4,1.1863479614,,,
37.7500000000,4,1.1812249422,,,
38.0000000000,4,1.1825059652,,,
38.2500000000,4,1.1812249422,,,
38.5000000000,4,1.1773829460,,,
38.7500000000,4,1.1761020422,,,
39.0000000000,4,1.1671370268,,,
39.2500000000,4,1.1684169769,,,
39.5000000000,4,1.1735409498,,,
39.7500000000,4,1.1735409498,,,
40.0000000000,5,1.1837869883,,,
40.2500000000,5,1.1914720535,,,
40.5000000000,5,1.1889100075,,,
40.7500000000,5,1.1889100075,,,
41.0000000000,5,1.1876289845,,,
41.2500000000,5,1.1889100075,,,
41.5000000000,5,1.1837869883,,,
41.7500000000,5,1.1812249422,,,
42.0000000000,5,1.1837869883,,,
42.2500000000,5,1.1786639690,,,
42.5000000000,5,1.1773829460,,,
42.7500000000,5,1.1786639690,,,
43.0000000000,5,1.1786639690,,,
43.2500000000,5,1.1812249422,,,
43.5000000000,5,1.1748210192,,,
43.7500000000,5,1.1709790230,,,
44.0000000000,5,1.1709790230,,,
44.2500000000,5,1.1632939577,,,
44.5000000000,5,1.1607329845,,,
44.7500000000,5,1.1658560038,,,
45.0000000000,5,1.1581710577,,,
45.2500000000,5,1.1543289423,,,
45.5000000000,5,1.1543289423,,,
45.7500000000,5,1.1466439962,,,
46.0000000000,5,1.1504859924,,,
46.2500000000,5,1.1440819502,,,
46.5000000000,5,1.1428020000,,,
46.7500000000,5,1.1389590502,,,
47.0000000000,5,1.1338360310,,,
47.2500000000,5,1.1351170540,,,
47.5000000000,5,1.1351170540,,,
47.7500000000,5,1.1338360310,,,
48.0000000000,6,1.1402399540,,,
48.2500000000,6,1.1402399540,,,
48.5000000000,6,1.1402399540,,,
48.7500000000,6,1.1415209770,,,
49.0000000000,6,1.1428020000,,,
49.2500000000,6,1.1440819502,,,
49.5000000000,6,1.1453629732,,,
49.7500000000,6,1.1428020000,,,
50.0000000000,6,1.1453629732,,,
50.2500000000,6,1.1428020000,,,
50.5000000000,6,1.1428020000,,,
50.7500000000,6,1.1440819502,,,
51.0000000000,6,1.1402399540,,,
51.2500000000,6,1.1428020000,,,
51.5000000000,6,1.1376780272,,,
51.7500000000,6,1.1402399540,,,
52.0000000000,6,1.1440819502,,,
52.2500000000,6,1.1466439962,,,
52.5000000000,6,1.1504859924,,,
52.7500000000,6,1.1530480385,,,
53.0000000000,6,1.1466439962,,,
53.2500000000,6,1.1466439962,,,
53.5000000000,6,1.1402399540,,,
53.7500000000,6,1.1325550079,,,
54.0000000000,6,1.1325550079,,,
54.2500000000,6,1.1274319887,,,
54.5000000000,6,1.1210279465,,,
54.7500000000,6,1.1223089695,,,
55.0000000000,6,1.1184660196,,,
55.2500000000,6,1.1197470427,,,
55.5000000000,6,1.1120630503,,,
55.7500000000,6,1.1095010042,,,
56.0000000000,7,1.1056590080,,,
56.2500000000,7,1.1043779850,,,
56.5000000000,7,1.1043779850,,,
56.7500000000,7,1.1030969620,,,
57.0000000000,7,1.0966930389,,,
57.2500000000,7,1.0992549658,,,
57.5000000000,7,1.0941309929,,,
57.7500000000,7,1.0915700197,,,
58.0000000000,7,1.0954120159,,,
58.2500000000,7,1.0954120159,,,
58.5000000000,7,1.1043779850,,,
58.7500000000,7,1.1043779850,,,
59.0000000000,7,1.1069389582,,,
59.2500000000,7,1.1043779850,,,
59.5000000000,7,1.1005359888,,,
59.7500000000,7,1.0992549658,,,
60.0000000000,7,1.1005359888,,,
60.2500000000,7,1.0979739428,,,
60.5000000000,7,1.1005359888,,,
60.7500000000,7,1.0941309929,,,
61.0000000000,7,1.0864470005,,,
61.2500000000,7,1.0890079737,,,
61.5000000000,7,1.0838849545,,,
61.7500000000,7,1.0813239813,,,
62.0000000000,7,1.0826040506,,,
62.2500000000,7,1.0774810314,,,
62.5000000000,7,1.0800429583,,,
62.7500000000,7,1.0749200583,,,
63.0000000000,7,1.0736390352,,,
63.2500000000,7,1.0672349930,,,
63.5000000000,7,1.0646729469,,,
63.7500000000,7,1.0672349930,,,
64.0000000000,8,1.0646729469,,,
64.2500000000,8,1.0595500469,,,
64.5000000000,8,1.0621119738,,,
64.7500000000,8,1.0595500469,,,
65.0000000000,8,1.0544270277,,,
65.2500000000,8,1.0557080507,,,
65.5000000000,8,1.0531460047,,,
65.7500000000,8,1.0557080507,,,
66.0000000000,8,1.0518649817,,,
66.2500000000,8,1.0505850315,,,
66.5000000000,8,1.0467419624,,,
66.7500000000,8,1.0467419624,,,
67.0000000000,8,1.0480229855,,,
67.2500000000,8,1.0493040085,,,
67.5000000000,8,1.0467419624,,,
67.7500000000,8,1.0505850315,,,
68.0000000000,8,1.0557080507,,,
68.2500000000,8,1.0633929968,,,
68.5000000000,8,1.0762000084,,,
68.7500000000,8,1.0736390352,,,
69.0000000000,8,1.0762000084,,,
69.2500000000,8,1.0736390352,,,
69.5000000000,8,1.0723580122,,,
69.7500000000,8,1.0723580122,,,
70.0000000000,8,1.0672349930,,,
70.2500000000,8,1.0672349930,,,
70.5000000000,8,1.0659539700,,,
70.7500000000,8,1.0672349930,,,
71.0000000000,8,1.0736390352,,,
71.2500000000,8,1.0800429583,,,
71.5000000000,8,1.0838849545,,,
71.7500000000,8,1.0954120159,,,
72.0000000000,9,1.0979739428,,,
72.2500000000,9,1.0954120159,,,
72.5000000000,9,1.0954120159,,,
72.7500000000,9,1.0890079737,,,
73.0000000000,9,1.0877280235,,,
73.2500000000,9,1.0851659775,,,
73.5000000000,9,1.0762000084,,,
73.7500000000,9,1.0762000084,,,
74.0000000000,9,1.0672349930,,,
74.2500000000,9,1.0646729469,,,
74.5000000000,9,1.0582690239,,,
74.7500000000,9,1.0531460047,,,
75.0000000000,9,1.0569889545,,,
75.2500000000,9,1.0569889545,,,
75.5000000000,9,1.0557080507,,,
75.7500000000,9,1.0544270277,,,
76.0000000000,9,1.0557080507,,,
76.2500000000,9,1.0505850315,,,
76.5000000000,9,1.0544270277,,,
76.7500000000,9,1.0518649817,,,
77.0000000000,9,1.0531460047,,,
77.2500000000,9,1.0518649817,,,
77.5000000000,9,1.0467419624,,,
77.7500000000,9,1.0518649817,,,
78.0000000000,9,1.0454610586,,,
78.2500000000,9,1.0467419624,,,
78.5000000000,9,1.0467419624,,,
78.7500000000,9,1.0416189432,,,
79.0000000000,9,1.0416189432,,,
79.2500000000,9,1.0390570164,,,
79.5000000000,9,1.0326540470,,,
79.7500000000,9,1.0326540470,,,
80.0000000000,10,1.0288109779,,,
80.2500000000,10,1.0249689817,,,
80.5000000000,10,1.0275299549,,,
80.7500000000,10,1.0224070549,,,
81.0000000000,10,1.0236879587,,,
81.2500000000,10,1.0236879587,,,
81.5000000000,10,1.0236879587,,,
81.7500000000,10,1.0224070549,,,
82.0000000000,10,1.0224070549,,,
82.2500000000,10,1.0403380394,,,
82.5000000000,10,1.0288109779,,,
82.7500000000,10,1.0262500048,,,
83.0000000000,10,1.0275299549,,,
83.2500000000,10,1.0313730240,,,
83.5000000000,10,1.0288109779,,,
83.7500000000,10,1.0288109779,,,
84.0000000000,10,1.0262500048,,,
84.2500000000,10,1.0224070549,,,
84.5000000000,10,1.0211260319,,,
84.7500000000,10,1.0160030127,,,
85.0000000000,10,1.0160030127,,,
85.2500000000,10,1.0121610165,,,
85.5000000000,10,1.0095989704,,,
85.7500000000,10,1.0108799934,,,
86.0000000000,10,1.0095989704,,,
86.2500000000,10,1.0044759512,,,
86.5000000000,10,1.0057569742,,,
86.7500000000,10,1.0044759512,,,
87.0000000000,10,0.9980720878,,,
87.2500000000,10,0.9980720878,,,
87.5000000000,10,0.9955105782,,,
87.7500000000,10,0.9980720878,,,
88.0000000000,11,0.9980720878,,,
88.2500000000,11,0.9980720878,,,
88.5000000000,11,1.0006339550,,,
88.7500000000,11,1.0019149780,,,
89.0000000000,11,0.9993528724,,,
89.2500000000,11,0.9980720878,,,
89.5000000000,11,0.9980720878,,,
89.7500000000,11,0.9955105782,,,
90.0000000000,11,0.9980720878,,,
90.2500000000,11,0.9916682243,,,
90.5000000000,11,0.9916682243,,,
90.7500000000,11,0.9916682243,,,
91.0000000000,11,0.9891067147,,,
91.2500000000,11,0.9891067147,,,
91.5000000000,11,0.9865450263,,,
91.7500000000,11,0.9852641821,,,
92.0000000000,11,0.9878258109,,,
92.2500000000,11,0.9852641821,,,
92.5000000000,11,0.9865450263,,,
92.7500000000,11,0.9903873801,,,
93.0000000000,11,0.9903873801,,,
93.2500000000,11,0.9916682243,,,
93.5000000000,11,0.9967914224,,,
93.7500000000,11,0.9993528724,,,
94.0000000000,11,0.9993528724,,,
94.2500000000,11,1.0019149780,,,
94.5000000000,11,1.0006339550,,,
94.7500000000,11,1.0057569742,,,
95.0000000000,11,0.9993528724,,,
95.2500000000,11,0.9993528724,,,
95.5000000000,11,0.9955105782,,,
95.7500000000,11,0.9955105782,,,
96.0000000000,12,1.0006339550,,,
96.2500000000,12,1.0057569742,,,
96.5000000000,12,1.0108799934,,,
96.7500000000,12,1.0108799934,,,
97.0000000000,12,1.0070379972,,,
97.2500000000,12,1.0044759512,,,
97.5000000000,12,1.0019149780,,,
97.7500000000,12,0.9942297935,,,
98.0000000000,12,0.9955105782,,,
98.2500000000,12,0.9891067147,,,
98.5000000000,12,0.9903873801,,,
98.7500000000,12,0.9955105782,,,
99.0000000000,12,0.9903873801,,,
99.2500000000,12,0.9942297935,,,
99.5000000000,12,0.9916682243,,,
99.7500000000,12,0.9916682243,,,
100.0000000000,12,0.9942297935,,,
100.2500000000,12,0.9852641821,,,
100.5000000000,12,0.9878258109,,,
100.7500000000,12,0.9814218879,,,
101.0000000000,12,0.9788603187,,,
101.2500000000,12,0.9865450263,,,
101.5000000000,12,0.9801411033,,,
101.7500000000,12,0.9762986898,,,
102.0000000000,12,0.9814218879,,,
102.2500000000,12,0.9698948264,,,
102.5000000000,12,0.9750179052,,,
102.7500000000,12,0.9711756110,,,
103.0000000000,12,0.9698948264,,,
103.2500000000,12,0.9673331976,,,
103.5000000000,12,0.9673331976,,,
103.7500000000,12,0.9660524130,,,
104.0000000000,13,0.9673331976,,,
104.2500000000,13,0.9622099996,,,
104.5000000000,13,0.9622099996,,,
104.7500000000,13,0.9634907842,,,
105.0000000000,13,0.9583675861,,,
105.2500000000,13,0.9647716284,,,
105.5000000000,13,0.9647716284,,,
105.7500000000,13,0.9583675861,,,
106.0000000000,13,0.9609292150,,,
106.2500000000,13,0.9570869207,,,
106.5000000000,13,0.9570869207,,,
106.7500000000,13,0.9583675861,,,
107.0000000000,13,0.9596483707,,,
107.2500000000,13,0.9596483707,,,
107.5000000000,13,0.9583675861,,,
107.7500000000,13,0.9532443881,,,
108.0000000000,13,0.9558060765,,,
108.2500000000,13,0.9532443881,,,
108.5000000000,13,0.9532443881,,,
108.7500000000,13,0.9519637227,,,
109.0000000000,13,0.9506828785,,,
109.2500000000,13,0.9532443881,,,
109.5000000000,13,0.9532443881,,,
109.7500000000,13,0.9519637227,,,
110.0000000000,13,0.9596483707,,,
110.2500000000,13,0.9583675861,,,
110.5000000000,13,0.9545252919,,,
110.7500000000,13,0.9609292150,,,
111.0000000000,13,0.9737371206,,,
111.2500000000,13,1.0019149780,,,
111.5000000000,13,1.0428999662,,,
111.7500000000,13,1.0826040506,,,
112.0000000000,14,1.1248710155,,,
112.2500000000,14,1.1581710577,,,
112.5000000000,14,1.2004369497,,,
112.7500000000,14,1.2414230108,,,
113.0000000000,14,1.2414230108,,,
113.2500000000,14,1.2298949957,,,
113.5000000000,14,1.2132450342,,,
113.7500000000,14,1.1914720535,,,
114.0000000000,14,1.1825059652,,,
114.2500000000,14,1.1735409498,,,
114.5000000000,14,1.1581710577,,,
114.7500000000,14,1.1504859924,,,
115.0000000000,14,1.1428020000,,,
115.2500000000,14,1.1389590502,,,
115.5000000000,14,1.1299940348,,,
115.7500000000,14,1.1210279465,,,
116.0000000000,14,1.1159050465,,,
116.2500000000,14,1.1146240234,,,
116.5000000000,14,1.1082199812,,,
116.7500000000,14,1.1056590080,,,
117.0000000000,14,1.1018160582,,,
117.2500000000,14,1.1018160582,,,
117.5000000000,14,1.0954120159,,,
117.7500000000,14,1.0966930389,,,
118.0000000000,14,1.0928510427,,,
118.2500000000,14,1.1005359888,,,
118.5000000000,14,1.1133430004,,,
118.7500000000,14,1.1274319887,,,
119.0000000000,14,1.1440819502,,,
119.2500000000,14,1.1453629732,,,
119.5000000000,14,1.1543289423,,,
119.7500000000,14,1.1543289423,,,
120.0000000000,15,1.1530480385,,,
120.2500000000,15,1.1440819502,,,
120.5000000000,15,1.1363979578,,,
120.7500000000,15,1.1274319887,,,
121.0000000000,15,1.1210279465,,,
121.2500000000,15,1.1069389582,,,
121.5000000000,15,1.1005359888,,,
121.7500000000,15,1.0941309929,,,
122.0000000000,15,1.0864470005,,,
122.2500000000,15,1.0864470005,,,
122.5000000000,15,1.0787620544,,,
122.7500000000,15,1.0723580122,,,
123.0000000000,15,1.0710769892,33025,123.1875000000,0.0000000000
123.2500000000,15,1.0659539700,33024:33025:33024,123.2812500000:123.3750000000:123.4687500000,0.0000000000:0.0000000000:0.0000000000
123.5000000000,15,1.0633929968,33025:33024:33025,123.5625000000:123.6562500000:123.7187500000,0.0000000000:0.0000000000:0.0000000000
123.7500000000,15,1.0659539700,33024,123.8125000000,0.0000000000
124.0000000000,15,1.0595500469,,,
124.2500000000,15,1.0544270277,,,
124.5000000000,15,1.0531460047,,,
124.7500000000,15,1.0505850315,,,
125.0000000000,15,1.0505850315,,,
125.2500000000,15,1.0505850315,,,
125.5000000000,15,1.0416189432,,,
125.7500000000,15,1.0454610586,,,
126.0000000000,15,1.0390570164,,,
126.2500000000,15,1.0377769470,,,
126.5000000000,15,1.0390570164,,,
126.7500000000,15,1.0339339972,,,
127.0000000000,15,1.0288109779,,,
127.2500000000,15,1.0326540470,,,
127.5000000000,15,1.0262500048,,,
127.7500000000,15,1.0288109779,,,
128.0000000000,16,1.0275299549,,,
128.2500000000,16,1.0224070549,,,
128.5000000000,16,1.0249689817,,,
128.7500000000,16,1.0198459625,,,
129.0000000000,16,1.0211260319,,,
129.2500000000,16,1.0198459625,,,
129.5000000000,16,1.0185650587,,,
129.7500000000,16,1.0160030127,,,
130.0000000000,16,1.0198459625,,,
130.2500000000,16,1.0185650587,,,
130.5000000000,16,1.0236879587,,,
130.7500000000,16,1.0300920010,,,
131.0000000000,16,1.0275299549,,,
131.2500000000,16,1.0364960432,,,
131.5000000000,16,1.0390570164,,,
131.7500000000,16,1.0390570164,,,
132.0000000000,16,1.0467419624,,,
132.2500000000,16,1.0454610586,,,
132.5000000000,16,1.0403380394,,,
132.7500000000,16,1.0428999662,,,
133.0000000000,16,1.0377769470,,,
133.2500000000,16,1.0352150202,,,
133.5000000000,16,1.0326540470,,,
133.7500000000,16,1.0262500048,,,
134.0000000000,16,1.0262500048,,,
134.2500000000,16,1.0224070549,,,
134.5000000000,16,1.0172840357,,,
134.7500000000,16,1.0185650587,,,
135.0000000000,16,1.0147219896,,,
135.2500000000,16,1.0121610165,,,
135.5000000000,16,1.0070379972,,,
135.7500000000,16,1.0083190203,,,
136.0000000000,17,1.0044759512,,,
136.2500000000,17,1.0044759512,,,
136.5000000000,17,0.9993528724,,,
136.7500000000,17,1.0019149780,,,
137.0000000000,17,0.9980720878,,,
137.2500000000,17,0.9929490089,,,
137.5000000000,17,0.9942297935,,,
137.7500000000,17,0.9916682243,,,
138.0000000000,17,0.9916682243,,,
138.2500000000,17,0.9967914224,,,
138.5000000000,17,0.9916682243,,,
138.7500000000,17,0.9955105782,,,
139.0000000000,17,0.9993528724,,,
139.2500000000,17,0.9993528724,,,
139.5000000000,17,1.0070379972,,,
139.7500000000,17,1.0057569742,,,
140.0000000000,17,1.0083190203,,,
140.2500000000,17,1.0121610165,,,
140.5000000000,17,1.0134420395,,,
140.7500000000,17,1.0147219896,,,
141.0000000000,17,1.0134420395,,,
141.2500000000,17,1.0121610165,,,
141.5000000000,17,1.0095989704,,,
141.7500000000,17,1.0070379972,,,
142.0000000000,17,1.0044759512,,,
142.2500000000,17,1.0083190203,,,
142.5000000000,17,1.0019149780,,,
142.7500000000,17,1.0006339550,,,
143.0000000000,17,1.0006339550,,,
143.2500000000,17,0.9942297935,,,
143.5000000000,17,0.9929490089,,,
143.7500000000,17,0.9865450263,,,
144.0000000000,18,0.9839835167,,,
144.2500000000,18,0.9839835167,,,
144.5000000000,18,0.9775794744,,,
144.7500000000,18,0.9814218879,,,
145.0000000000,18,0.9827026725,,,
145.2500000000,18,0.9827026725,,,
145.5000000000,18,0.9814218879,,,
145.7500000000,18,0.9801411033,,,
146.0000000000,18,0.9775794744,,,
146.2500000000,18,0.9801411033,,,
146.5000000000,18,0.9750179052,,,
146.7500000000,18,0.9737371206,,,
147.0000000000,18,0.9775794744,,,
147.2500000000,18,0.9698948264,,,
147.5000000000,18,0.9673331976,,,
147.7500000000,18,0.9711756110,,,
148.0000000000,18,0.9660524130,,,
148.2500000000,18,0.9686139822,,,
148.5000000000,18,0.9673331976,,,
148.7500000000,18,0.9634907842,,,
149.0000000000,18,0.9647716284,,,
149.2500000000,18,0.9660524130,,,
149.5000000000,18,0.9622099996,,,
149.7500000000,18,0.9583675861,,,
150.0000000000,18,0.9570869207,,,
150.2500000000,18,0.9570869207,,,
150.5000000000,18,0.9570869207,,,
150.7500000000,18,0.9558060765,,,
151.0000000000,18,0.9583675861,,,
151.2500000000,18,0.9647716284,,,
151.5000000000,18,0.9737371206,,,
151.7500000000,18,0.9839835167,,,
152.0000000000,19,0.9903873801,,,
152.2500000000,19,0.9929490089,,,
152.5000000000,19,1.0019149780,,,
152.7500000000,19,1.0044759512,,,
153.0000000000,19,1.0070379972,,,
153.2500000000,19,1.0108799934,,,
153.5000000000,19,1.0108799934,,,
153.7500000000,19,1.0108799934,,,
154.0000000000,19,1.0108799934,,,
154.2500000000,19,1.0019149780,,,
154.5000000000,19,1.0031950474,,,
154.7500000000,19,0.9955105782,,,
155.0000000000,19,0.9916682243,,,
155.2500000000,19,0.9929490089,,,
155.5000000000,19,0.9865450263,,,
155.7500000000,19,0.9814218879,,,
156.0000000000,19,0.9827026725,,,
156.2500000000,19,0.9775794744,,,
156.5000000000,19,0.9955105782,,,
156.7500000000,19,0.9775794744,,,
157.0000000000,19,0.9724562764,,,
157.2500000000,19,0.9698948264,,,
157.5000000000,19,0.9724562764,,,
157.7500000000,19,0.9801411033,,,
158.0000000000,19,0.9750179052,,,
158.2500000000,19,0.9711756110,,,
158.5000000000,19,0.9762986898,,,
158.7500000000,19,0.9686139822,,,
159.0000000000,19,0.9660524130,,,
159.2500000000,19,0.9660524130,,,
159.5000000000,19,0.9622099996,,,
159.7500000000,19,0.9660524130,,,
160.0000000000,20,0.9558060765,,,
160.2500000000,20,0.9583675861,,,
160.5000000000,20,0.9622099996,,,
160.7500000000,20,0.9558060765,,,
161.0000000000,20,0.9596483707,,,
161.2500000000,20,0.9545252919,,,
161.5000000000,20,0.9532443881,,,
161.7500000000,20,0.9596483707,,,
162.0000000000,20,0.9698948264,,,
162.2500000000,20,0.9532443881,,,
162.5000000000,20,0.9532443881,,,
162.7500000000,20,0.9494020939,,,
163.0000000000,20,0.9506828785,,,
163.2500000000,20,0.9545252919,,,
163.5000000000,20,0.9468405247,,,
163.7500000000,20,0.9506828785,,,
164.0000000000,20,0.9442790151,,,
164.2500000000,20,0.9429981709,,,
164.5000000000,20,0.9442790151,,,
164.7500000000,20,0.9429981709,,,
165.0000000000,20,0.9417173266,,,
165.2500000000,20,0.9429981709,,,
165.5000000000,20,0.9365941882,,,
165.7500000000,20,0.9455596805,,,
166.0000000000,20,0.9455596805,,,
166.2500000000,20,0.9378749728,,,
166.5000000000,20,0.9417173266,,,
166.7500000000,20,0.9378749728,,,
167.0000000000,20,0.9365941882,,,
167.2500000000,20,0.9378749728,,,
167.5000000000,20,0.9327517748,,,
167.7500000000,20,0.9353134036,,,
168.0000000000,21,0.9378749728,,,
168.2500000000,21,0.9301902056,,,
168.5000000000,21,0.9340326190,,,
168.7500000000,21,0.9353134036,,,
169.0000000000,21,0.9353134036,,,
169.2500000000,21,0.9378749728,,,
169.5000000000,21,0.9391558170,,,
169.7500000000,21,0.9429981709,,,
170.0000000000,21,0.9391558170,,,
170.2500000000,21,0.9391558170,,,
170.5000000000,21,0.9442790151,,,
170.7500000000,21,0.9378749728,,,
171.0000000000,21,0.9365941882,,,
171.2500000000,21,0.9378749728,,,
171.5000000000,21,0.9378749728,,,
171.7500000000,21,0.9404364824,,,
172.0000000000,21,0.9404364824,,,
172.2500000000,21,0.9468405247,,,
172.5000000000,21,0.9570869207,,,
172.7500000000,21,0.9596483707,,,
173.0000000000,21,0.9660524130,,,
173.2500000000,21,0.9737371206,,,
173.5000000000,21,0.9698948264,,,
173.7500000000,21,0.9724562764,,,
174.0000000000,21,0.9698948264,,,
174.2500000000,21,0.9660524130,,,
174.5000000000,21,0.9686139822,,,
174.7500000000,21,0.9622099996,,,
175.0000000000,21,0.9647716284,,,
175.2500000000,21,0.9570869207,,,
175.5000000000,21,0.9545252919,,,
175.7500000000,21,0.9558060765,,,
176.0000000000,22,0.9494020939,,,
176.2500000000,22,0.9519637227,,,
176.5000000000,22,0.9468405247,,,
176.7500000000,22,0.9468405247,,,
177.0000000000,22,0.9481213093,,,
177.2500000000,22,0.9404364824,,,
177.5000000000,22,0.9404364824,,,
177.7500000000,22,0.9429981709,,,
178.0000000000,22,0.9391558170,,,
178.2500000000,22,0.9429981709,,,
178.5000000000,22,0.9417173266,,,
178.7500000000,22,0.9391558170,,,
179.0000000000,22,0.9391558170,,,
179.2500000000,22,0.9353134036,,,
179.5000000000,22,0.9340326190,,,
179.7500000000,22,0.9340326190,,,
180.0000000000,22,0.9340326190,,,
180.2500000000,22,0.9327517748,,,
180.5000000000,22,0.9340326190,,,
180.7500000000,22,0.9327517748,,,
181.0000000000,22,0.9365941882,,,
181.2500000000,22,0.9314709902,,,
181.5000000000,22,0.9327517748,,,
181.7500000000,22,0.9327517748,,,
182.0000000000,22,0.9263479114,,,
182.2500000000,22,0.9289094210,,,
182.5000000000,22,0.9314709902,,,
182.7500000000,22,0.9289094210,,,
183.0000000000,22,0.9289094210,,,
183.2500000000,22,0.9314709902,,,
183.5000000000,22,0.9340326190,,,
183.7500000000,22,0.9391558170,,,
184.0000000000,23,0.9314709902,,,
184.2500000000,23,0.9327517748,,,
184.5000000000,23,0.9314709902,,,
184.7500000000,23,0.9289094210,,,
185.0000000000,23,0.9327517748,,,
185.2500000000,23,0.9289094210,,,
185.5000000000,23,0.9301902056,,,
185.7500000000,23,0.9263479114,,,
186.0000000000,23,0.9225054979,,,
186.2500000000,23,0.9263479114,,,
186.5000000000,23,0.9199439287,,,
186.7500000000,23,0.9212247133,,,
187.0000000000,23,0.9225054979,,,
187.2500000000,23,0.9237862825,,,
187.5000000000,23,0.9276285768,,,
187.7500000000,23,0.9365941882,,,
188.0000000000,23,0.9391558170,,,
188.2500000000,23,0.9506828785,,,
188.5000000000,23,0.9532443881,,,
188.7500000000,23,0.9583675861,,,
189.0000000000,23,0.9647716284,,,
189.2500000000,23,0.9622099996,,,
189.5000000000,23,0.9622099996,,,
189.7500000000,23,0.9660524130,,,
190.0000000000,23,0.9622099996,,,
190.2500000000,23,0.9570869207,,,
190.5000000000,23,0.9545252919,,,
190.7500000000,23,0.9545252919,,,
191.0000000000,23,0.9570869207,,,
191.2500000000,23,0.9545252919,,,
191.5000000000,23,0.9570869207,,,
191.7500000000,23,0.9570869207,,,
192.0000000000,24,0.9558060765,,,
192.2500000000,24,0.9596483707,,,
192.5000000000,24,0.9545252919,,,
192.7500000000,24,0.9494020939,,,
193.0000000000,24,0.9519637227,,,
193.2500000000,24,0.9468405247,,,
193.5000000000,24,0.9429981709,,,
193.7500000000,24,0.9494020939,,,
194.0000000000,24,0.9481213093,,,
194.2500000000,24,0.9532443881,,,
194.5000000000,24,0.9506828785,,,
194.7500000000,24,0.9468405247,,,
195.0000000000,24,0.9481213093,,,
195.2500000000,24,0.9417173266,,,
195.5000000000,24,0.9442790151,,,
195.7500000000,24,0.9417173266,,,
196.0000000000,24,0.9378749728,,,
196.2500000000,24,0.9442790151,,,
196.5000000000,24,0.9378749728,,,
196.7500000000,24,0.9327517748,,,
197.0000000000,24,0.9353134036,,,
197.2500000000,24,0.9289094210,,,
197.5000000000,24,0.9289094210,,,
197.7500000000,24,0.9263479114,,,
198.0000000000,24,0.9212247133,,,
198.2500000000,24,0.9263479114,,,
198.5000000000,24,0.9199439287,,,
198.7500000000,24,0.9199439287,,,
199.0000000000,24,0.9212247133,,,
199.2500000000,24,0.9199439287,,,
199.5000000000,24,0.9173822999,,,
199.7500000000,24,0.9186630845,,,
200.0000000000,25,0.9161015153,,,
200.2500000000,25,0.9225054979,,,
200.5000000000,25,0.9161015153,,,
200.7500000000,25,0.9122592211,,,
201.0000000000,25,0.9161015153,,,
201.2500000000,25,0.9084168077,,,
201.5000000000,25,0.9122592211,,,
201.7500000000,25,0.9135398865,,,
202.0000000000,25,0.9084168077,,,
202.2500000000,25,0.9148206711,,,
202.5000000000,25,0.9084168077,,,
202.7500000000,25,0.9109783769,,,
203.0000000000,25,0.9096975923,,,
203.2500000000,25,0.9096975923,,,
203.5000000000,25,0.9148206711,,,
203.7500000000,25,0.9148206711,,,
204.0000000000,25,0.9109783769,,,
204.2500000000,25,0.9135398865,,,
204.5000000000,25,0.9096975923,,,
204.7500000000,25,0.9135398865,,,
205.0000000000,25,0.9122592211,,,
205.2500000000,25,0.9135398865,,,
205.5000000000,25,0.9122592211,,,
205.7500000000,25,0.9173822999,,,
206.0000000000,25,0.9173822999,,,
206.2500000000,25,0.9186630845,,,
206.5000000000,25,0.9122592211,,,
206.7500000000,25,0.9173822999,,,
207.0000000000,25,0.9148206711,,,
207.2500000000,25,0.9135398865,,,
207.5000000000,25,0.9148206711,,,
207.7500000000,25,0.9109783769,,,
208.0000000000,26,0.9109783769,,,
208.2500000000,26,0.9084168077,,,
208.5000000000,26,0.9058551788,,,
208.7500000000,26,0.9058551788,,,
209.0000000000,26,0.9020128250,,,
209.2500000000,26,0.9020128250,,,
209.5000000000,26,0.8994513154,,,
209.7500000000,26,0.8956087828,,,
210.0000000000,26,0.8994513154,,,
210.2500000000,26,0.8943281174,,,
210.5000000000,26,0.8956087828,,,
210.7500000000,26,0.8981704712,,,
211.0000000000,26,0.9007319808,,,
211.2500000000,26,0.9058551788,,,
211.5000000000,26,0.9135398865,,,
211.7500000000,26,0.9161015153,,,
212.0000000000,26,0.9250671268,,,
212.2500000000,26,0.9289094210,,,
212.5000000000,26,0.9289094210,,,
212.7500000000,26,0.9289094210,,,
213.0000000000,26,0.9301902056,,,
213.2500000000,26,0.9237862825,,,
213.5000000000,26,0.9250671268,,,
213.7500000000,26,0.9161015153,,,
214.0000000000,26,0.9161015153,,,
214.2500000000,26,0.9122592211,,,
214.5000000000,26,0.9109783769,,,
214.7500000000,26,0.9109783769,,,
215.0000000000,26,0.9071360230,,,
215.2500000000,26,0.9032936096,,,
215.5000000000,26,0.9045743942,,,
215.7500000000,26,0.8968896866,,,
216.0000000000,27,0.8956087828,,,
216.2500000000,27,0.8994513154,,,
216.5000000000,27,0.8904857039,,,
216.7500000000,27,0.8930472732,,,
217.0000000000,27,0.8930472732,,,
217.2500000000,27,0.8866434097,,,
217.5000000000,27,0.8917664886,,,
217.7500000000,27,0.8840817213,,,
218.0000000000,27,0.8840817213,,,
218.2500000000,27,0.8866434097,,,
218.5000000000,27,0.8840817213,,,
218.7500000000,27,0.8828008771,,,
219.0000000000,27,0.8828008771,,,
219.2500000000,27,0.8776777983,,,
219.5000000000,27,0.8840817213,,,
219.7500000000,27,0.8815202117,,,
220.0000000000,27,0.8815202117,,,
220.2500000000,27,0.8828008771,,,
220.5000000000,27,0.8802394271,,,
220.7500000000,27,0.8776777983,,,
221.0000000000,27,0.8763970137,,,
221.2500000000,27,0.8763970137,,,
221.5000000000,27,0.8751162291,,,
221.7500000000,27,0.8789585829,,,
222.0000000000,27,0.8789585829,,,
222.2500000000,27,0.8840817213,,,
222.5000000000,27,0.9007319808,,,
222.7500000000,27,0.8904857039,,,
223.0000000000,27,0.8956087828,,,
223.2500000000,27,0.8917664886,,,
223.5000000000,27,0.8968896866,,,
223.7500000000,27,0.8994513154,,,
224.0000000000,28,0.8968896866,,,
224.2500000000,28,0.8968896866,,,
224.5000000000,28,0.8994513154,,,
224.7500000000,28,0.8904857039,,,
225.0000000000,28,0.8943281174,,,
225.2500000000,28,0.8917664886,,,
225.5000000000,28,0.8853626251,,,
225.7500000000,28,0.8853626251,,,
226.0000000000,28,0.8802394271,,,
226.2500000000,28,0.8802394271,,,
226.5000000000,28,0.8815202117,,,
226.7500000000,28,0.8776777983,,,
227.0000000000,28,0.8802394271,,,
227.2500000000,28,0.8802394271,,,
227.5000000000,28,0.8763970137,,,
227.7500000000,28,0.8776777983,,,
228.0000000000,28,0.8776777983,,,
228.2500000000,28,0.8725546002,,,
228.5000000000,28,0.8738353848,,,
228.7500000000,28,0.8648698926,,,
229.0000000000,28,0.8687121868,,,
229.2500000000,28,0.8687121868,,,
229.5000000000,28,0.8661506772,,,
229.7500000000,28,0.8712738156,,,
230.0000000000,28,0.8699929714,,,
230.2500000000,28,0.8648698926,,,
230.5000000000,28,0.8687121868,,,
230.7500000000,28,0.8635891080,,,
231.0000000000,28,0.8661506772,,,
231.2500000000,28,0.8674315214,,,
231.5000000000,28,0.8635891080,,,
231.7500000000,28,0.8699929714,,,
232.0000000000,29,0.8712738156,,,
232.2500000000,29,0.8674315214,,,
232.5000000000,29,0.8738353848,,,
232.7500000000,29,0.8699929714,,,
233.0000000000,29,0.8712738156,,,
233.2500000000,29,0.8802394271,,,
233.5000000000,29,0.8866434097,,,
233.7500000000,29,0.8956087828,,,
234.0000000000,29,0.9096975923,,,
234.2500000000,29,0.9148206711,,,
234.5000000000,29,0.9212247133,,,
234.7500000000,29,0.9186630845,,,
235.0000000000,29,0.9148206711,,,
235.2500000000,29,0.9173822999,,,
235.5000000000,29,0.9071360230,,,
235.7500000000,29,0.9020128250,,,
236.0000000000,29,0.8981704712,,,
236.2500000000,29,0.8981704712,,,
236.5000000000,29,0.8904857039,,,
236.7500000000,29,0.8879240751,,,
237.0000000000,29,0.8828008771,,,
237.2500000000,29,0.8853626251,,,
237.5000000000,29,0.8828008771,,,
237.7500000000,29,0.8763970137,,,
238.0000000000,29,0.8751162291,,,
238.2500000000,29,0.8712738156,,,
238.5000000000,29,0.8699929714,,,
238.7500000000,29,0.8725546002,,,
239.0000000000,29,0.8674315214,,,
239.2500000000,29,0.8661506772,,,
239.5000000000,29,0.8674315214,,,
239.7500000000,29,0.8623083234,,,
240.0000000000,30,0.8674315214,,,
240.2500000000,30,0.8635891080,,,
240.5000000000,30,0.8623083234,,,
240.7500000000,30,0.8635891080,,,
241.0000000000,30,0.8597466946,,,
241.2500000000,30,0.8597466946,,,
241.5000000000,30,0.8610274792,,,
241.7500000000,30,0.8597466946,,,
242.0000000000,30,0.8584659100,,,
242.2500000000,30,0.8571851254,,,
242.5000000000,30,0.8546236157,,,
242.7500000000,30,0.8584659100,,,
243.0000000000,30,0.8559042811,,,
243.2500000000,30,0.8571851254,,,
243.5000000000,30,0.8571851254,,,
243.7500000000,30,0.8533427715,,,
244.0000000000,30,0.8571851254,,,
244.2500000000,30,0.8520619869,,,
244.5000000000,30,0.8546236157,,,
244.7500000000,30,0.8559042811,,,
245.0000000000,30,0.8507812023,,,
245.2500000000,30,0.8520619869,,,
245.5000000000,30,0.8520619869,,,
245.7500000000,30,0.8495004177,,,
246.0000000000,30,0.8507812023,,,
246.2500000000,30,0.8482195735,,,
246.5000000000,30,0.8495004177,,,
246.7500000000,30,0.8520619869,,,
247.0000000000,30,0.8482195735,,,
247.2500000000,30,0.8507812023,,,
247.5000000000,30,0.8482195735,,,
247.7500000000,30,0.8443772197,,,
248.0000000000,31,0.8456580043,,,
248.2500000000,31,0.8418157101,,,
248.5000000000,31,0.8430963755,,,
248.7500000000,31,0.8456580043,,,
249.0000000000,31,0.8418157101,,,
249.2500000000,31,0.8482195735,,,
249.5000000000,31,0.8418157101,,,
249.7500000000,31,0.8430963755,,,
250.0000000000,31,0.8443772197,,,
250.2500000000,31,0.8392540812,,,
250.5000000000,31,0.8379731774,,,
250.7500000000,31,0.8392540812,,,
251.0000000000,31,0.8392540812,,,
251.2500000000,31,0.8392540812,,,
251.5000000000,31,0.8405349255,,,
251.7500000000,31,0.8405349255,,,
252.0000000000,31,0.8418157101,,,
252.2500000000,31,0.8405349255,,,
252.5000000000,31,0.8366925120,,,
252.7500000000,31,0.8379731774,,,
253.0000000000,31,0.8366925120,,,
253.2500000000,31,0.8354117274,,,
253.5000000000,31,0.8315693140,,,
253.7500000000,31,0.8302885294,,,
254.0000000000,31,0.8328500986,,,
254.2500000000,31,0.8354117274,,,
254.5000000000,31,0.8315693140,,,
254.7500000000,31,0.8328500986,,,
255.0000000000,31,0.8341308832,,,
255.2500000000,31,0.8354117274,,,
255.5000000000,31,0.8354117274,,,
255.7500000000,31,0.8366925120,,,
256.0000000000,32,0.8302885294,,,
256.2500000000,32,0.8302885294,,,
256.5000000000,32,0.8302885294,,,
256.7500000000,32,0.8264461160,,,
257.0000000000,32,0.8328500986,,,
257.2500000000,32,0.8302885294,,,
257.5000000000,32,0.8277270198,,,
257.7500000000,32,0.8315693140,,,
258.0000000000,32,0.8238844872,,,
258.2500000000,32,0.8302885294,,,
258.5000000000,32,0.8302885294,,,
258.7500000000,32,0.8290076852,,,
259.0000000000,32,0.8277270198,,,
259.2500000000,32,0.8251652718,,,
259.5000000000,32,0.8238844872,,,
259.7500000000,32,0.8277270198,,,
260.0000000000,32,0.8238844872,,,
260.2500000000,32,0.8226038218,,,
260.5000000000,32,0.8213229775,,,
260.7500000000,32,0.8187614083,,,
261.0000000000,32,0.8251652718,,,
261.2500000000,32,0.8226038218,,,
261.5000000000,32,0.8161997795,,,
261.7500000000,32,0.8187614083,,,
262.0000000000,32,0.8213229775,,,
262.2500000000,32,0.8136382103,,,
262.5000000000,32,0.8161997795,,,
262.7500000000,32,0.8136382103,,,
263.0000000000,32,0.8136382103,,,
263.2500000000,32,0.8161997795,,,
263.5000000000,32,0.8136382103,,,
263.7500000000,32,0.8174806237,,,
264.0000000000,33,0.8123574257,,,
264.2500000000,33,0.8123574257,,,
264.5000000000,33,0.8110765815,,,
264.7500000000,33,0.8097959161,,,
265.0000000000,33,0.8136382103,,,
265.2500000000,33,0.8097959161,,,
265.5000000000,33,0.8085150719,,,
265.7500000000,33,0.8110765815,,,
266.0000000000,33,0.8085150719,,,
266.2500000000,33,0.8072342873,,,
266.5000000000,33,0.8059535027,,,
266.7500000000,33,0.8021110892,,,
267.0000000000,33,0.8072342873,,,
267.2500000000,33,0.8072342873,,,
267.5000000000,33,0.8021110892,,,
267.7500000000,33,0.8072342873,,,
268.0000000000,33,0.8008303046,,,
268.2500000000,33,0.8033918738,,,
268.5000000000,33,0.8021110892,,,
268.7500000000,33,0.8033918738,,,
269.0000000000,33,0.8072342873,,,
269.2500000000,33,0.8046727180,,,
269.5000000000,33,0.8021110892,,,
269.7500000000,33,0.8046727180,,,
270.0000000000,33,0.8033918738,,,
270.2500000000,33,0.8008303046,,,
270.5000000000,33,0.8021110892,,,
270.7500000000,33,0.8008303046,,,
271.0000000000,33,0.7982686758,,,
271.2500000000,33,0.7995495200,,,
271.5000000000,33,0.7982686758,,,
271.7500000000,33,0.8008303046,,,
272.0000000000,34,0.7982686758,,,
272.2500000000,34,0.7969880104,,,
272.5000000000,34,0.7969880104,,,
272.7500000000,34,0.7880223989,,,
273.0000000000,34,0.7905840278,,,
273.2500000000,34,0.7957072258,,,
273.5000000000,34,0.7931455970,,,
273.7500000000,34,0.7957072258,,,
274.0000000000,34,0.7905840278,,,
274.2500000000,34,0.7918648124,,,
274.5000000000,34,0.7931455970,,,
274.7500000000,34,0.7905840278,,,
275.0000000000,34,0.7931455970,,,
275.2500000000,34,0.7931455970,,,
275.5000000000,34,0.7828993201,,,
275.7500000000,34,0.7944263816,,,
276.0000000000,34,0.7854608297,,,
276.2500000000,34,0.7893031836,,,
276.5000000000,34,0.7905840278,,,
276.7500000000,34,0.7944263816,,,
277.0000000000,34,0.8008303046,,,
277.2500000000,34,0.8059535027,,,
277.5000000000,34,0.8021110892,,,
277.7500000000,34,0.8085150719,,,
278.0000000000,34,0.8059535027,,,
278.2500000000,34,0.8059535027,,,
278.5000000000,34,0.8085150719,,,
278.7500000000,34,0.8021110892,,,
279.0000000000,34,0.8046727180,,,
279.2500000000,34,0.8059535027,,,
279.5000000000,34,0.8008303046,,,
279.7500000000,34,0.8021110892,,,
280.0000000000,35,0.7969880104,,,
280.2500000000,35,0.7957072258,,,
280.5000000000,35,0.7957072258,,,
280.7500000000,35,0.7918648124,,,
281.0000000000,35,0.7905840278,,,
281.2500000000,35,0.7944263816,,,
281.5000000000,35,0.7905840278,,,
281.7500000000,35,0.7893031836,,,
282.0000000000,35,0.7841799855,,,
282.2500000000,35,0.7867416143,,,
282.5000000000,35,0.7841799855,,,
282.7500000000,35,0.7828993201,,,
283.0000000000,35,0.7841799855,,,
283.2500000000,35,0.7867416143,,,
283.5000000000,35,0.7828993201,,,
283.7500000000,35,0.7803376913,,,
284.0000000000,35,0.7841799855,,,
284.2500000000,35,0.7790567875,,,
284.5000000000,35,0.7841799855,,,
284.7500000000,35,0.7803376913,,,
285.0000000000,35,0.7803376913,,,
285.2500000000,35,0.7777761221,,,
285.5000000000,35,0.7752144933,,,
285.7500000000,35,0.7803376913,,,
286.0000000000,35,0.7764952779,,,
286.2500000000,35,0.7752144933,,,
286.5000000000,35,0.7790567875,,,
286.7500000000,35,0.7726529241,,,
287.0000000000,35,0.7726529241,,,
287.2500000000,35,0.7764952779,,,
287.5000000000,35,0.7700914145,,,
287.7500000000,35,0.7752144933,,,
288.0000000000,36,0.7739337087,,,
288.2500000000,36,0.7726529241,,,
288.5000000000,36,0.7739337087,,,
288.7500000000,36,0.7700914145,,,
289.0000000000,36,0.7713720798,,,
289.2500000000,36,0.7700914145,,,
289.5000000000,36,0.7700914145,,,
289.7500000000,36,0.7739337087,,,
290.0000000000,36,0.7764952779,,,
290.2500000000,36,0.7688105702,,,
290.5000000000,36,0.7713720798,,,
290.7500000000,36,0.7675297260,,,
291.0000000000,36,0.7688105702,,,
291.2500000000,36,0.7688105702,,,
291.5000000000,36,0.7662488818,,,
291.7500000000,36,0.7700914145,,,
292.0000000000,36,0.7662488818,,,
292.2500000000,36,0.7662488818,,,
292.5000000000,36,0.7662488818,,,
292.7500000000,36,0.7636873722,,,
293.0000000000,36,0.7611258030,,,
293.2500000000,36,0.7649682164,,,
293.5000000000,36,0.7611258030,,,
293.7500000000,36,0.7624065876,,,
294.0000000000,36,0.7624065876,,,
294.2500000000,36,0.7598450184,,,
294.5000000000,36,0.7611258030,,,
294.7500000000,36,0.7585641742,,,
295.0000000000,36,0.7572833896,,,
295.2500000000,36,0.7560026050,,,
295.5000000000,36,0.7547218204,,,
295.7500000000,36,0.7560026050,,,
296.0000000000,37,0.7572833896,,,
296.2500000000,37,0.7534409761,,,
296.5000000000,37,0.7547218204,,,
296.7500000000,37,0.7508795261,,,
297.0000000000,37,0.7508795261,,,
297.2500000000,37,0.7534409761,,,
297.5000000000,37,0.7431946993,,,
297.7500000000,37,0.7508795261,,,
298.0000000000,37,0.7508795261,,,
298.2500000000,37,0.7470371127,,,
298.5000000000,37,0.7470371127,,,
298.7500000000,37,0.7457563281,,,
299.0000000000,37,0.7444754839,,,
299.2500000000,37,0.7470371127,,,
299.5000000000,37,0.7598450184,,,
299.7500000000,37,0.7470371127,,,
300.0000000000,37,0.7419139147,,,
300.2500000000,37,0.7393522859,,,
300.5000000000,37,0.7444754839,,,
300.7500000000,37,0.7431946993,,,
301.0000000000,37,0.7470371127,,,
301.2500000000,37,0.7419139147,,,
301.5000000000,37,0.7419139147,,,
301.7500000000,37,0.7444754839,,,
302.0000000000,37,0.7419139147,,,
302.2500000000,37,0.7393522859,,,
302.5000000000,37,0.7406330705,,,
302.7500000000,37,0.7367907763,,,
303.0000000000,37,0.7393522859,,,
303.2500000000,37,0.7483178973,,,
303.5000000000,37,0.7495986819,,,
303.7500000000,37,0.7534409761,,,
304.0000000000,38,0.7598450184,,,
304.2500000000,38,0.7560026050,,,
304.5000000000,38,0.7649682164,,,
304.7500000000,38,0.7585641742,,,
305.0000000000,38,0.7585641742,,,
305.2500000000,38,0.7585641742,,,
305.5000000000,38,0.7560026050,,,
305.7500000000,38,0.7521603107,,,
306.0000000000,38,0.7521603107,,,
306.2500000000,38,0.7457563281,,,
306.5000000000,38,0.7495986819,,,
306.7500000000,38,0.7470371127,,,
307.0000000000,38,0.7444754839,,,
307.2500000000,38,0.7483178973,,,
307.5000000000,38,0.7457563281,,,
307.7500000000,38,0.7431946993,,,
308.0000000000,38,0.7444754839,,,
308.2500000000,38,0.7393522859,,,
308.5000000000,38,0.7367907763,,,
308.7500000000,38,0.7419139147,,,
309.0000000000,38,0.7329484224,,,
309.2500000000,38,0.7393522859,,,
309.5000000000,38,0.7355099916,,,
309.7500000000,38,0.7342292070,,,
310.0000000000,38,0.7355099916,,,
310.2500000000,38,0.7291060090,,,
310.5000000000,38,0.7329484224,,,
310.7500000000,38,0.7393522859,,,
311.0000000000,38,0.7367907763,,,
311.2500000000,38,0.7342292070,,,
311.5000000000,38,0.7406330705,,,
311.7500000000,38,0.7393522859,,,
312.0000000000,39,0.7444754839,,,
312.2500000000,39,0.7444754839,,,
312.5000000000,39,0.7393522859,,,
312.7500000000,39,0.7444754839,,,
313.0000000000,39,0.7393522859,,,
313.2500000000,39,0.7367907763,,,
313.5000000000,39,0.7406330705,,,
313.7500000000,39,0.7342292070,,,
314.0000000000,39,0.7291060090,,,
314.2500000000,39,0.7329484224,,,
314.5000000000,39,0.7291060090,,,
314.7500000000,39,0.7278252244,,,
315.0000000000,39,0.7316675782,,,
315.2500000000,39,0.7265443802,,,
315.5000000000,39,0.7278252244,,,
315.7500000000,39,0.7265443802,,,
316.0000000000,39,0.7214211822,,,
316.2500000000,39,0.7252637148,,,
316.5000000000,39,0.7265443802,,,
316.7500000000,39,0.7150173187,,,
317.0000000000,39,0.7252637148,,,
317.2500000000,39,0.7162981033,,,
317.5000000000,39,0.7201405168,,,
317.7500000000,39,0.7227020860,,,
318.0000000000,39,0.7175788879,,,
318.2500000000,39,0.7214211822,,,
318.5000000000,39,0.7175788879,,,
318.7500000000,39,0.7175788879,,,
319.0000000000,39,0.7201405168,,,
319.2500000000,39,0.7150173187,,,
319.5000000000,39,0.7111750245,,,
319.7500000000,39,0.7175788879,,,
