Time:64Hz,Epoch,Channel 1,Event Id,Event Date,Event Duration
0,0,0.656482697,,,
0.015625,0,0.683506012,,,
0.03125,0,0.78453058,,,
0.046875,0,0.916164398,,,
0.0625,0,0.998512328,,,
0.078125,0,0.982124329,,,
0.09375,0,0.857059479,,,
0.109375,0,0.651458681,,,
0.125,0,0.401252687,,,
0.140625,0,0.123348199,,,
0.15625,0,-0.182361603,,,
0.171875,0,-0.506980896,,,
0.1875,0,-0.79189682,,,
0.203125,0,-0.967483521,,,
0.21875,0,-0.96446991,,,
0.234375,0,-0.757850587,,,
0.25,0,-0.424747497,,,
0.265625,0,-0.099788673,,,
0.28125,0,0.073036186,,,
0.296875,0,0.02322006,,,
0.3125,0,-0.214302093,,,
0.328125,0,-0.521072388,,,
0.34375,0,-0.779193878,,,
0.359375,0,-0.931480408,,,
0.375,0,-0.995761871,,,
0.390625,0,-1.049193978,,,
0.40625,0,-1.150406003,,,
0.421875,0,-1.309985995,,,
0.4375,0,-1.481349945,,,
0.453125,0,-1.604781985,,,
0.46875,0,-1.633846045,,,
0.484375,0,-1.560093045,,,
0.5,0,-1.405761957,,,
0.515625,0,-1.194210053,,,
0.53125,0,-0.944759429,,,
0.546875,0,-0.649932921,,,
0.5625,0,-0.285331696,,,
0.578125,0,0.172184005,,,
0.59375,0,0.71157068,,,
0.609375,0,1.264876962,,,
0.625,0,1.703204989,,,
0.640625,0,1.90081799,,,
0.65625,0,1.769104004,,,
0.671875,0,1.317116022,,,
0.6875,0,0.652980804,,,
0.703125,0,-0.052131649,,,
0.71875,0,-0.633960724,,,
0.734375,0,-0.973579407,,,
0.75,0,-1.038769007,,,
0.765625,0,-0.857494414,,,
0.78125,0,-0.488380402,,,
0.796875,0,-0.004211426,,,
0.8125,0,0.528434813,,,
0.828125,0,1.040981054,,,
0.84375,0,1.462638974,,,
0.859375,0,1.720950961,,,
0.875,0,1.769793987,,,
0.890625,0,1.608265042,,,
0.90625,0,1.270431995,,,
0.921875,0,0.843917787,,,
0.9375,0,0.437393189,,,
0.953125,0,0.143489793,,,
0.96875,0,0.029361719,,,
0.984375,0,0.1001205,,,
1,0,0.319618195,,,
1.015625,0,0.607135773,,,
1.03125,0,0.870334625,,,
1.046875,0,1.04271698,,,
1.0625,0,1.111129999,,,
1.078125,0,1.090232968,,,
1.09375,0,1.013404965,,,
1.109375,0,0.913593292,,,
1.125,0,0.776691377,,,
1.140625,0,0.573497772,,,
1.15625,0,0.272556305,,,
1.171875,0,-0.104503602,,,
1.1875,0,-0.510879517,,,
1.203125,0,-0.877780914,,,
1.21875,0,-1.163647056,,,
1.234375,0,-1.380077004,,,
1.25,0,-1.57646203,,,
1.265625,0,-1.771774054,,,
1.28125,0,-1.938652039,,,
1.296875,0,-1.989227057,,,
1.3125,0,-1.828583002,,,
1.328125,0,-1.464679956,,,
1.34375,0,-0.969585419,,,
1.359375,0,-0.486598998,,,
1.375,0,-0.140121505,,,
1.390625,0,0.02093124,,,
1.40625,0,0.01742935,,,
1.421875,0,-0.080257423,,,
1.4375,0,-0.194221497,,,
1.453125,0,-0.261688203,,,
1.46875,0,-0.244544998,,,
1.484375,0,-0.123035401,,,
1.5,0,0.104118303,,,
1.515625,0,0.386062592,,,
1.53125,0,0.642253876,,,
1.546875,0,0.783370972,,,
1.5625,0,0.761123717,,,
1.578125,0,0.608821929,,,
1.59375,0,0.448619813,,,
1.609375,0,0.417957306,,,
1.625,0,0.603443086,,,
1.640625,0,0.986629486,,,
1.65625,0,1.44806695,,,
1.671875,0,1.845744968,,,
1.6875,0,2.053883076,,,
1.703125,0,2.010220051,,,
1.71875,0,1.723351002,,,
1.734375,0,1.256476998,,,
1.75,0,0.693641722,,,
1.765625,0,0.145770997,,,
1.78125,0,-0.291919708,,,
1.796875,0,-0.564201415,,,
1.8125,0,-0.655227721,,,
1.828125,0,-0.629077911,,,
1.84375,0,-0.579849184,,,
1.859375,0,-0.597278595,,,
1.875,0,-0.704208374,,,
1.890625,0,-0.858821929,,,
1.90625,0,-0.958316803,,,
1.921875,0,-0.895011902,,,
1.9375,0,-0.631286621,,,
1.953125,0,-0.1949348,,,
1.96875,0,0.318431914,,,
1.984375,0,0.802333772,,,
2,0,1.165318012,,,
2.015625,0,1.33959198,,,
2.03125,0,1.292945981,,,
2.046875,0,1.010856986,,,
2.0625,0,0.530429781,,,
2.078125,0,-0.072963707,,,
2.09375,0,-0.674476624,,,
2.109375,0,-1.126270056,,,
2.125,0,-1.304690957,,,
2.140625,0,-1.147338986,,,
2.15625,0,-0.670307219,,,
2.171875,0,0.0280571,,,
2.1875,0,0.799789429,,,
2.203125,0,1.462386966,,,
2.21875,0,1.858028054,,,
2.234375,0,1.883648038,,,
2.25,0,1.507895947,,,
2.265625,0,0.809452117,,,
2.28125,0,-0.053688049,,,
2.296875,0,-0.891136229,,,
2.3125,0,-1.521888971,,,
2.328125,0,-1.854729056,,,
2.34375,0,-1.894484997,,,
2.359375,0,-1.743370056,,,
2.375,0,-1.533854961,,,
2.390625,0,-1.36362803,,,
2.40625,0,-1.273033023,,,
2.421875,0,-1.201789975,,,
2.4375,0,-1.045647025,,,
2.453125,0,-0.728485107,,,
2.46875,0,-0.228275299,,,
2.484375,0,0.395839691,,,
2.5,0,1.005146027,,,
2.515625,0,1.418784976,,,
2.53125,0,1.498065949,,,
2.546875,0,1.186645985,,,
2.5625,0,0.558174074,,,
2.578125,0,-0.199695602,,,
2.59375,0,-0.889904022,,,
2.609375,0,-1.363461018,,,
2.625,0,-1.571635962,,,
2.640625,0,-1.588511944,,,
2.65625,0,-1.537250996,,,
2.671875,0,-1.494827032,,,
2.6875,0,-1.467125058,,,
2.703125,0,-1.369881034,,,
2.71875,0,-1.095981956,,,
2.734375,0,-0.581848085,,,
2.75,0,0.141967803,,,
2.765625,0,0.96434021,,,
2.78125,0,1.710968018,,,
2.796875,0,2.212208033,,,
2.8125,0,2.343624115,,,
2.828125,0,2.024059057,,,
2.84375,0,1.262722015,,,
2.859375,0,0.160163894,,,
2.875,0,-1.109107971,,,
2.890625,0,-2.291119099,,,
2.90625,0,-3.150890112,,,
2.921875,0,-3.511924982,,,
2.9375,0,-3.295830011,,,
2.953125,0,-2.590117931,,,
2.96875,0,-1.594017029,,,
2.984375,0,-0.577884674,,,
3,0,0.216018707,,,
3.015625,0,0.623622894,,,
3.03125,0,0.612937927,,,
3.046875,0,0.268493712,,,
3.0625,0,-0.262634307,,,
3.078125,0,-0.822597504,,,
3.09375,0,-1.303223014,,,
3.109375,0,-1.679389954,,,
3.125,0,-1.955760956,,,
3.140625,0,-2.144134998,,,
3.15625,0,-2.25374198,,,
3.171875,0,-2.237876892,,,
3.1875,0,-2.048583984,,,
3.203125,0,-1.685927987,,,
3.21875,0,-1.214787006,,,
3.234375,0,-0.741416872,,,
3.25,0,-0.389762908,,,
3.265625,0,-0.2293282,,,
3.28125,0,-0.247127503,,,
3.296875,0,-0.351093292,,,
3.3125,0,-0.428443909,,,
3.328125,0,-0.400627106,,,
3.34375,0,-0.257705689,,,
3.359375,0,-0.077682503,,,
3.375,0,0.029735571,,,
3.390625,0,-0.022399901,,,
3.40625,0,-0.254798889,,,
3.421875,0,-0.590370178,,,
3.4375,0,-0.873874724,,,
3.453125,0,-0.944080412,,,
3.46875,0,-0.676116884,,,
3.484375,0,-0.068527222,,,
3.5,0,0.767864227,,,
3.515625,0,1.660014987,,,
3.53125,0,2.442902088,,,
3.546875,0,3.011596918,,,
3.5625,0,3.344906092,,,
3.578125,0,3.465454102,,,
3.59375,0,3.411876917,,,
3.609375,0,3.211327076,,,
3.625,0,2.882790089,,,
3.640625,0,2.461329937,,,
3.65625,0,1.985080957,,,
3.671875,0,1.505195975,,,
3.6875,0,1.052994013,,,
3.703125,0,0.630634308,,,
3.71875,0,0.215019196,,,
3.734375,0,-0.195133194,,,
3.75,0,-0.584926605,,,
3.765625,0,-0.909137726,,,
3.78125,0,-1.134932995,,,
3.796875,0,-1.229820013,,,
3.8125,0,-1.180030942,,,
3.828125,0,-1.011078,,,
3.84375,0,-0.745025575,,,
3.859375,0,-0.4219971,,,
3.875,0,-0.094165802,,,
3.890625,0,0.203067794,,,
3.90625,0,0.44764331,,,
3.921875,0,0.661151886,,,
3.9375,0,0.865154326,,,
3.953125,0,1.07643497,,,
3.96875,0,1.265030026,,,
3.984375,0,1.363597989,,,
4,0,1.321285009,,,
4.015625,0,1.131762981,,,
4.03125,0,0.843700409,,,
4.046875,0,0.550006926,,,
4.0625,0,0.323947907,,,
4.078125,0,0.178996995,,,
4.09375,0,0.056804661,,,
4.109375,0,-0.129589096,,,
4.125,0,-0.444160491,,,
4.140625,0,-0.916244507,,,
4.15625,0,-1.538643003,,,
4.171875,0,-2.265239954,,,
4.1875,0,-3.012454987,,,
4.203125,0,-3.670619965,,,
4.21875,0,-4.084732056,,,
4.234375,0,-4.125834942,,,
4.25,0,-3.712600946,,,
4.265625,0,-2.881789923,,,
4.28125,0,-1.801833987,,,
4.296875,0,-0.713733673,,,
4.3125,0,0.173919693,,,
4.328125,0,0.733097076,,,
4.34375,0,0.986473084,,,
4.359375,0,1.049003959,,,
4.375,0,1.05091095,,,
4.390625,0,1.07198298,,,
4.40625,0,1.094460011,,,
4.421875,0,1.051403046,,,
4.4375,0,0.868701875,,,
4.453125,0,0.543292999,,,
4.46875,0,0.150119796,,,
4.484375,0,-0.185222596,,,
4.5,0,-0.352348298,,,
4.515625,0,-0.310779601,,,
4.53125,0,-0.097614288,,,
4.546875,0,0.219959304,,,
4.5625,0,0.595275879,,,
4.578125,0,1.04073,,,
4.59375,0,1.584022999,,,
4.609375,0,2.200088978,,,
4.625,0,2.786659002,,,
4.640625,0,3.177772999,,,
4.65625,0,3.213054895,,,
4.671875,0,2.851703882,,,
4.6875,0,2.207031012,,,
4.703125,0,1.506798029,,,
4.71875,0,1.001747012,,,
4.734375,0,0.853286684,,,
4.75,0,1.092995048,,,
4.765625,0,1.599400044,,,
4.78125,0,2.155303955,,,
4.796875,0,2.531876087,,,
4.8125,0,2.564822912,,,
4.828125,0,2.198947907,,,
4.84375,0,1.515841961,,,
4.859375,0,0.710739076,,,
4.875,0,0.003890991,,,
4.890625,0,-0.405910492,,,
4.90625,0,-0.438144714,,,
4.921875,0,-0.147613496,,,
4.9375,0,0.301281005,,,
4.953125,0,0.710788727,,,
4.96875,0,0.947006226,,,
4.984375,0,0.956749022,,,
5,0,0.803642273,,,
5.015625,0,0.600296021,,,
5.03125,0,0.483219087,,,
5.046875,0,0.549381316,,,
5.0625,0,0.859485626,,,
5.078125,0,1.382683039,,,
5.09375,0,2.025580883,,,
5.109375,0,2.629604101,,,
5.125,0,3.076503992,,,
5.140625,0,3.295452118,,,
5.15625,0,3.289206982,,,
5.171875,0,3.124080896,,,
5.1875,0,2.847378016,,,
5.203125,0,2.474380016,,,
5.21875,0,1.975154996,,,
5.234375,0,1.300101996,,,
5.25,0,0.4544563,,,
5.265625,0,-0.4841232,,,
5.28125,0,-1.399193049,,,
5.296875,0,-2.17583108,,,
5.3125,0,-2.753192902,,,
5.328125,0,-3.135971069,,,
5.34375,0,-3.358733892,,,
5.359375,0,-3.425079107,,,
5.375,0,-3.323254108,,,
5.390625,0,-3.042026997,,,
5.40625,0,-2.605488062,,,
5.421875,0,-2.13333106,,,
5.4375,0,-1.771438956,,,
5.453125,0,-1.62669003,,,
5.46875,0,-1.684607983,,,
5.484375,0,-1.800048947,,,
5.5,0,-1.78104806,,,
5.515625,0,-1.503913999,,,
5.53125,0,-0.983783722,,,
5.546875,0,-0.392673492,,,
5.5625,0,0.047897339,,,
5.578125,0,0.174720794,,,
5.59375,0,3.8147E-06,,,
5.609375,0,-0.34677121,,,
5.625,0,-0.664924622,,,
5.640625,0,-0.8163414,,,
5.65625,0,-0.795196474,,,
5.671875,0,-0.686473787,,,
5.6875,0,-0.601745606,,,
5.703125,0,-0.568710327,,,
5.71875,0,-0.518737793,,,
5.734375,0,-0.360637695,,,
5.75,0,-0.055599209,,,
5.765625,0,0.336574614,,,
5.78125,0,0.711761475,,,
5.796875,0,0.988651276,,,
5.8125,0,1.183765054,,,
5.828125,0,1.378468037,,,
5.84375,0,1.644027948,,,
5.859375,0,1.976081967,,,
5.875,0,2.273262024,,,
5.890625,0,2.388916016,,,
5.90625,0,2.254353046,,,
5.921875,0,1.916195035,,,
5.9375,0,1.511878967,,,
5.953125,0,1.191836953,,,
5.96875,0,1.001160026,,,
5.984375,0,0.878314972,,,
6,0,0.69852829,,,
6.015625,0,0.367881805,,,
6.03125,0,-0.10746,,,
6.046875,0,-0.634040773,,,
6.0625,0,-1.098075986,,,
6.078125,0,-1.451622009,,,
6.09375,0,-1.691696048,,,
6.109375,0,-1.862900019,,,
6.125,0,-1.991932035,,,
6.140625,0,-2.081115961,,,
6.15625,0,-2.099498987,,,
6.171875,0,-2.032363892,,,
6.1875,0,-1.881893039,,,
6.203125,0,-1.684867978,,,
6.21875,0,-1.496086001,,,
6.234375,0,-1.363227963,,,
6.25,0,-1.305477023,,,
6.265625,0,-1.31240797,,,
6.28125,0,-1.362064004,,,
6.296875,0,-1.430405021,,,
6.3125,0,-1.501698017,,,
6.328125,0,-1.561619043,,,
6.34375,0,-1.590034008,,,
6.359375,0,-1.52183497,,,
6.375,0,-1.278275013,,,
6.390625,0,-0.809101105,,,
6.40625,0,-0.157688096,,,
6.421875,0,0.537239075,,,
6.4375,0,1.074386954,,,
6.453125,0,1.281589985,,,
6.46875,0,1.084388971,,,
6.484375,0,0.549240112,,,
6.5,0,-0.169021606,,,
6.515625,0,-0.896972716,,,
6.53125,0,-1.507285953,,,
6.546875,0,-1.929095984,,,
6.5625,0,-2.13628006,,,
6.578125,0,-2.105240107,,,
6.59375,0,-1.835536957,,,
6.609375,0,-1.364052057,,,
6.625,0,-0.767570496,,,
6.640625,0,-0.165027604,,,
6.65625,0,0.323287994,,,
6.671875,0,0.610946715,,,
6.6875,0,0.698360384,,,
6.703125,0,0.63634491,,,
6.71875,0,0.510509491,,,
6.734375,0,0.415855408,,,
6.75,0,0.440620393,,,
6.765625,0,0.612056673,,,
6.78125,0,0.899864197,,,
6.796875,0,1.210602045,,,
6.8125,0,1.397197962,,,
6.828125,0,1.374336004,,,
6.84375,0,1.118392944,,,
6.859375,0,0.715076387,,,
6.875,0,0.305717498,,,
6.890625,0,0.041927341,,,
6.90625,0,-0.007541656,,,
6.921875,0,0.135356903,,,
6.9375,0,0.363460511,,,
6.953125,0,0.525474489,,,
6.96875,0,0.500148773,,,
6.984375,0,0.245986894,,,
7,0,-0.166206405,,,
7.015625,0,-0.597190917,,,
7.03125,0,-0.900615692,,,
7.046875,0,-0.995052278,,,
7.0625,0,-0.891044617,,,
7.078125,0,-0.675499022,,,
7.09375,0,-0.453361511,,,
7.109375,0,-0.291286498,,,
7.125,0,-0.193107605,,,
7.140625,0,-0.114337899,,,
7.15625,0,-0.01605225,,,
7.171875,0,0.098312378,,,
7.1875,0,0.200965896,,,
7.203125,0,0.2288322,,,
7.21875,0,0.157424897,,,
7.234375,0,-0.033874512,,,
7.25,0,-0.321922302,,,
7.265625,0,-0.675350189,,,
7.28125,0,-1.036391974,,,
7.296875,0,-1.323124051,,,
7.3125,0,-1.452800989,,,
7.328125,0,-1.378077984,,,
7.34375,0,-1.149265051,,,
7.359375,0,-0.88338089,,,
7.375,0,-0.738296509,,,
7.390625,0,-0.784874022,,,
7.40625,0,-0.986408174,,,
7.421875,0,-1.186244965,,,
7.4375,0,-1.245350003,,,
7.453125,0,-1.120185971,,,
7.46875,0,-0.909332275,,,
7.484375,0,-0.765670776,,,
7.5,0,-0.78741461,,,
7.515625,0,-0.948093414,,,
7.53125,0,-1.116718054,,,
7.546875,0,-1.147475958,,,
7.5625,0,-0.988037109,,,
7.578125,0,-0.71288681,,,
7.59375,0,-0.454727203,,,
7.609375,0,-0.303142488,,,
7.625,0,-0.234241501,,,
7.640625,0,-0.149787903,,,
7.65625,0,0.064582817,,,
7.671875,0,0.426937103,,,
7.6875,0,0.883052826,,,
7.703125,0,1.319435,,,
7.71875,0,1.671535015,,,
7.734375,0,1.89558804,,,
7.75,0,1.989166021,,,
7.765625,0,1.94611001,,,
7.78125,0,1.754794955,,,
7.796875,0,1.428367972,,,
7.8125,0,1.044716001,,,
7.828125,0,0.735538483,,,
7.84375,0,0.614211977,,,
7.859375,0,0.735652924,,,
7.875,0,1.051468015,,,
7.890625,0,1.427353025,,,
7.90625,0,1.714511991,,,
7.921875,0,1.805065036,,,
7.9375,0,1.662227988,,,
7.953125,0,1.331241965,,,
7.96875,0,0.879005373,,,
7.984375,0,0.388702393,,,
8,1,-0.072475433,,,
8.015625,1,-0.469844788,,,
8.03125,1,-0.816299379,,,
8.046875,1,-1.134433985,,,
8.0625,1,-1.484424949,,,
8.078125,1,-1.92594099,,,
8.09375,1,-2.487174988,,,
8.109375,1,-3.145107031,,,
8.125,1,-3.801852942,,,
8.140625,1,-4.285023212,,,
8.15625,1,-4.405265808,,,
8.171875,1,-4.037223816,,,
8.1875,1,-3.156703949,,,
8.203125,1,-1.899047971,,,
8.21875,1,-0.487850189,,,
8.234375,1,0.80437088,,,
8.25,1,1.792629004,,,
8.265625,1,2.421634913,,,
8.28125,1,2.7840271,,,
8.296875,1,3.041157007,,,
8.3125,1,3.314940929,,,
8.328125,1,3.634777069,,,
8.34375,1,3.908195019,,,
8.359375,1,3.987628937,,,
8.375,1,3.762959003,,,
8.390625,1,3.246822119,,,
8.40625,1,2.561680079,,,
8.421875,1,1.920250058,,,
8.4375,1,1.501075983,,,
8.453125,1,1.401389957,,,
8.46875,1,1.567425013,,,
8.484375,1,1.856902957,,,
8.5,1,2.106251001,,,
8.515625,1,2.246367931,,,
8.53125,1,2.272414923,,,
8.546875,1,2.26363802,,,
8.5625,1,2.259983063,,,
8.578125,1,2.247204065,,,
8.59375,1,2.152472973,,,
8.609375,1,1.913815022,,,
8.625,1,1.522503018,,,
8.640625,1,1.025539041,,,
8.65625,1,0.502151489,,,
8.671875,1,0.00037384,,,
8.6875,1,-0.451408386,,,
8.703125,1,-0.813404083,,,
8.71875,1,-0.997127473,,,
8.734375,1,-0.892269075,,,
8.75,1,-0.417430908,,,
8.765625,1,0.37160489,,,
8.78125,1,1.293568015,,,
8.796875,1,2.0947721,,,
8.8125,1,2.554404974,,,
8.828125,1,2.609530926,,,
8.84375,1,2.355499029,,,
8.859375,1,1.971752048,,,
8.875,1,1.595935941,,,
8.890625,1,1.294482946,,,
8.90625,1,1.041167975,,,
8.921875,1,0.788936615,,,
8.9375,1,0.509487212,,,
8.953125,1,0.199241594,,,
8.96875,1,-0.109004997,,,
8.984375,1,-0.379260987,,,
9,1,-0.591262817,,,
9.015625,1,-0.697647095,,,
9.03125,1,-0.67036438,,,
9.046875,1,-0.478336304,,,
9.0625,1,-0.155521393,,,
9.078125,1,0.224529296,,,
9.09375,1,0.517650604,,,
9.109375,1,0.630794525,,,
9.125,1,0.525291383,,,
9.140625,1,0.256271392,,,
9.15625,1,-0.061508179,,,
9.171875,1,-0.330738097,,,
9.1875,1,-0.520572722,,,
9.203125,1,-0.675556183,,,
9.21875,1,-0.861629486,,,
9.234375,1,-1.107040048,,,
9.25,1,-1.337875009,,,
9.265625,1,-1.457824945,,,
9.28125,1,-1.375049949,,,
9.296875,1,-1.094383001,,,
9.3125,1,-0.733326018,,,
9.328125,1,-0.469348908,,,
9.34375,1,-0.429573089,,,
9.359375,1,-0.616943419,,,
9.375,1,-0.908359528,,,
9.390625,1,-1.10393095,,,
9.40625,1,-1.035969019,,,
9.421875,1,-0.633983612,,,
9.4375,1,0.053771969,,,
9.453125,1,0.8739357,,,
9.46875,1,1.664509058,,,
9.484375,1,2.302807093,,,
9.5,1,2.698829889,,,
9.515625,1,2.819552898,,,
9.53125,1,2.670394898,,,
9.546875,1,2.321602106,,,
9.5625,1,1.86857605,,,
9.578125,1,1.43708396,,,
9.59375,1,1.09098804,,,
9.609375,1,0.824169219,,,
9.625,1,0.526374817,,,
9.640625,1,0.043819431,,,
9.65625,1,-0.747707427,,,
9.671875,1,-1.78964603,,,
9.6875,1,-2.804389954,,,
9.703125,1,-3.33645606,,,
9.71875,1,-2.988132,,,
9.734375,1,-1.693050027,,,
9.75,1,0.148796096,,,
9.765625,1,1.755275965,,,
9.78125,1,2.334342957,,,
9.796875,1,1.508324027,,,
9.8125,1,-0.457565308,,,
9.828125,1,-2.78589201,,,
9.84375,1,-4.610560894,,,
9.859375,1,-5.456122875,,,
9.875,1,-5.413665772,,,
9.890625,1,-4.902537823,,,
9.90625,1,-4.222206116,,,
9.921875,1,-3.340965033,,,
9.9375,1,-2.089859009,,,
9.953125,1,-0.626060486,,,
9.96875,1,0.406551391,,,
9.984375,1,0.222526595,,,
10,1,-1.430042028,,,
10.015625,1,-3.82745409,,,
10.03125,1,-5.500275135,,,
10.046875,1,-5.131385803,,,
10.0625,1,-2.52650094,,,
10.078125,1,1.13429296,,,
10.09375,1,3.933247089,,,
10.109375,1,4.418968201,,,
10.125,1,2.481827021,,,
10.140625,1,-0.615440428,,,
10.15625,1,-3.166439056,,,
10.171875,1,-4.094170094,,,
10.1875,1,-3.542155981,,,
10.203125,1,-2.562355042,,,
10.21875,1,-2.251446009,,,
10.234375,1,-2.979857922,,,
10.25,1,-4.248276234,,,
10.265625,1,-5.145172119,,,
10.28125,1,-4.97911787,,,
10.296875,1,-3.649017096,,,
10.3125,1,-1.625277996,,,
10.328125,1,0.384189606,,,
10.34375,1,1.809864044,,,
10.359375,1,2.421761036,,,
10.375,1,2.358849049,,,
10.390625,1,1.975692987,,,
10.40625,1,1.682602048,,,
10.421875,1,1.764271021,,,
10.4375,1,2.309588909,,,
10.453125,1,3.157409906,,,
10.46875,1,3.987098932,,,
10.484375,1,4.439624786,,,
10.5,1,4.270058155,,,
10.515625,1,3.43987298,,,
10.53125,1,2.126564026,,,
10.546875,1,0.649868012,,,
10.5625,1,-0.649871826,,,
10.578125,1,-1.524685025,,,
10.59375,1,-1.888481021,,,
10.609375,1,-1.781898022,,,
10.625,1,-1.336853027,,,
10.640625,1,-0.684234619,,,
10.65625,1,0.068229683,,,
10.671875,1,0.797481477,,,
10.6875,1,1.372269034,,,
10.703125,1,1.606536984,,,
10.71875,1,1.350051999,,,
10.734375,1,0.558734894,,,
10.75,1,-0.644733429,,,
10.765625,1,-1.971084952,,,
10.78125,1,-3.071053028,,,
10.796875,1,-3.67116189,,,
10.8125,1,-3.681900024,,,
10.828125,1,-3.18531394,,,
10.84375,1,-2.365978003,,,
10.859375,1,-1.410748005,,,
10.875,1,-0.426002502,,,
10.890625,1,0.533794403,,,
10.90625,1,1.452041984,,,
10.921875,1,2.263905048,,,
10.9375,1,2.872001886,,,
10.953125,1,3.187304974,,,
10.96875,1,3.170475006,,,
10.984375,1,2.86779809,,,
11,1,2.380917072,,,
11.015625,1,1.826789975,,,
11.03125,1,1.286067963,,,
11.046875,1,0.792396486,,,
11.0625,1,0.357505798,,,
11.078125,1,-0.008800507,,,
11.09375,1,-0.313777894,,,
11.109375,1,-0.55556488,,,
11.125,1,-0.741111815,,,
11.140625,1,-0.853362978,,,
11.15625,1,-0.857254028,,,
11.171875,1,-0.711856782,,,
11.1875,1,-0.390987396,,,
11.203125,1,0.063575737,,,
11.21875,1,0.549381316,,,
11.234375,1,0.923633575,,,
11.25,1,1.060902,,,
11.265625,1,0.888942719,,,
11.28125,1,0.43730551,,,
11.296875,1,-0.179511994,,,
11.3125,1,-0.795265198,,,
11.328125,1,-1.26187098,,,
11.34375,1,-1.483829022,,,
11.359375,1,-1.472201943,,,
11.375,1,-1.313483954,,,
11.390625,1,-1.158347964,,,
11.40625,1,-1.107395053,,,
11.421875,1,-1.178459048,,,
11.4375,1,-1.285351038,,,
11.453125,1,-1.269356012,,,
11.46875,1,-1.017204046,,,
11.484375,1,-0.541118622,,,
11.5,1,0.00774765,,,
11.515625,1,0.395210296,,,
11.53125,1,0.433048189,,,
11.546875,1,0.056945801,,,
11.5625,1,-0.634594023,,,
11.578125,1,-1.425678015,,,
11.59375,1,-2.097095013,,,
11.609375,1,-2.490421057,,,
11.625,1,-2.569835901,,,
11.640625,1,-2.371016979,,,
11.65625,1,-1.944285989,,,
11.671875,1,-1.338261008,,,
11.6875,1,-0.62412262,,,
11.703125,1,0.114650697,,,
11.71875,1,0.757541716,,,
11.734375,1,1.200188041,,,
11.75,1,1.409301996,,,
11.765625,1,1.418262005,,,
11.78125,1,1.306751013,,,
11.796875,1,1.130558014,,,
11.8125,1,0.914680481,,,
11.828125,1,0.638202727,,,
11.84375,1,0.323921204,,,
11.859375,1,0.067790993,,,
11.875,1,0.01525879,,,
11.890625,1,0.296638489,,,
11.90625,1,0.945831299,,,
11.921875,1,1.842540979,,,
11.9375,1,2.779709101,,,
11.953125,1,3.536521912,,,
11.96875,1,3.946666956,,,
11.984375,1,3.96359992,,,
12,1,3.628146887,,,
12.015625,1,3.044070959,,,
12.03125,1,2.34451294,,,
12.046875,1,1.677692056,,,
12.0625,1,1.17317605,,,
12.078125,1,0.916965485,,,
12.09375,1,0.930438995,,,
12.109375,1,1.162871957,,,
12.125,1,1.544170022,,,
12.140625,1,1.975306988,,,
12.15625,1,2.373562098,,,
12.171875,1,2.685539007,,,
12.1875,1,2.855560064,,,
12.203125,1,2.840590954,,,
12.21875,1,2.595809937,,,
12.234375,1,2.066776037,,,
12.25,1,1.237601996,,,
12.265625,1,0.152271301,,,
12.28125,1,-1.075829029,,,
12.296875,1,-2.271011114,,,
12.3125,1,-3.215950012,,,
12.328125,1,-3.766311884,,,
12.34375,1,-3.865070105,,,
12.359375,1,-3.565227985,,,
12.375,1,-2.997607946,,,
12.390625,1,-2.332099915,,,
12.40625,1,-1.684059024,,,
12.421875,1,-1.11302197,,,
12.4375,1,-0.615833283,,,
12.453125,1,-0.171344802,,,
12.46875,1,0.224052399,,,
12.484375,1,0.553627014,,,
12.5,1,0.780948579,,,
12.515625,1,0.881725311,,,
12.53125,1,0.863311827,,,
12.546875,1,0.75459671,,,
12.5625,1,0.579055786,,,
12.578125,1,0.336380005,,,
12.59375,1,0.025051121,,,
12.609375,1,-0.386684388,,,
12.625,1,-0.8891716,,,
12.640625,1,-1.406123996,,,
12.65625,1,-1.838984966,,,
12.671875,1,-2.060604096,,,
12.6875,1,-2.012084961,,,
12.703125,1,-1.720486045,,,
12.71875,1,-1.325626016,,,
12.734375,1,-0.97782898,,,
12.75,1,-0.790241182,,,
12.765625,1,-0.740333617,,,
12.78125,1,-0.727931976,,,
12.796875,1,-0.626525879,,,
12.8125,1,-0.37097171,,,
12.828125,1,0.00504303,,,
12.84375,1,0.415412903,,,
12.859375,1,0.777233124,,,
12.875,1,1.071620941,,,
12.890625,1,1.304535031,,,
12.90625,1,1.490753055,,,
12.921875,1,1.600937009,,,
12.9375,1,1.619637013,,,
12.953125,1,1.551270008,,,
12.96875,1,1.462162018,,,
12.984375,1,1.446632028,,,
13,1,1.571650982,,,
13.015625,1,1.812533975,,,
13.03125,1,2.058780909,,,
13.046875,1,2.154769898,,,
13.0625,1,1.982131958,,,
13.078125,1,1.518748999,,,
13.09375,1,0.858715117,,,
13.109375,1,0.152912095,,,
13.125,1,-0.451931,,,
13.140625,1,-0.83902359,,,
13.15625,1,-0.97265631,,,
13.171875,1,-0.860946715,,,
13.1875,1,-0.583149016,,,
13.203125,1,-0.243801102,,,
13.21875,1,0.05221558,,,
13.234375,1,0.225170106,,,
13.25,1,0.248291001,,,
13.265625,1,0.150692001,,,
13.28125,1,-0.02617264,,,
13.296875,1,-0.234588593,,,
13.3125,1,-0.435378999,,,
13.328125,1,-0.59739691,,,
13.34375,1,-0.70582962,,,
13.359375,1,-0.768055022,,,
13.375,1,-0.822441101,,,
13.390625,1,-0.899810791,,,
13.40625,1,-0.994422913,,,
13.421875,1,-1.059105039,,,
13.4375,1,-1.022968054,,,
13.453125,1,-0.840770721,,,
13.46875,1,-0.513618529,,,
13.484375,1,-0.113224,,,
13.5,1,0.275341004,,,
13.515625,1,0.570369721,,,
13.53125,1,0.74401468,,,
13.546875,1,0.80645752,,,
13.5625,1,0.79101181,,,
13.578125,1,0.734405518,,,
13.59375,1,0.672046721,,,
13.609375,1,0.629043579,,,
13.625,1,0.616481781,,,
13.640625,1,0.638214111,,,
13.65625,1,0.644996584,,,
13.671875,1,0.604915619,,,
13.6875,1,0.489242613,,,
13.703125,1,0.322357208,,,
13.71875,1,0.184955597,,,
13.734375,1,0.157608002,,,
13.75,1,0.274608612,,,
13.765625,1,0.482440889,,,
13.78125,1,0.665851593,,,
13.796875,1,0.705875397,,,
13.8125,1,0.53434372,,,
13.828125,1,0.168018296,,,
13.84375,1,-0.317123413,,,
13.859375,1,-0.825817108,,,
13.875,1,-1.266563058,,,
13.890625,1,-1.57802999,,,
13.90625,1,-1.722262979,,,
13.921875,1,-1.67060101,,,
13.9375,1,-1.437878013,,,
13.953125,1,-1.069210053,,,
13.96875,1,-0.629878998,,,
13.984375,1,-0.203041107,,,
14,1,0.149734497,,,
14.015625,1,0.401306212,,,
14.03125,1,0.566318512,,,
14.046875,1,0.675710678,,,
14.0625,1,0.764282227,,,
14.078125,1,0.828042984,,,
14.09375,1,0.847120285,,,
14.109375,1,0.769889772,,,
14.125,1,0.514842987,,,
14.140625,1,0.048053742,,,
14.15625,1,-0.618665695,,,
14.171875,1,-1.380987048,,,
14.1875,1,-2.073153973,,,
14.203125,1,-2.511441946,,,
14.21875,1,-2.599215984,,,
14.234375,1,-2.346935034,,,
14.25,1,-1.892184973,,,
14.265625,1,-1.39518702,,,
14.28125,1,-0.97769928,,,
14.296875,1,-0.657966614,,,
14.3125,1,-0.384386092,,,
14.328125,1,-0.102207199,,,
14.34375,1,0.210104004,,,
14.359375,1,0.50533098,,,
14.375,1,0.759399414,,,
14.390625,1,0.982976914,,,
14.40625,1,1.237104058,,,
14.421875,1,1.568647027,,,
14.4375,1,1.950754046,,,
14.453125,1,2.246795893,,,
14.46875,1,2.28530097,,,
14.484375,1,1.95470798,,,
14.5,1,1.254315972,,,
14.515625,1,0.327768296,,,
14.53125,1,-0.599885881,,,
14.546875,1,-1.322121024,,,
14.5625,1,-1.729807019,,,
14.578125,1,-1.841428995,,,
14.59375,1,-1.75838995,,,
14.609375,1,-1.575822949,,,
14.625,1,-1.340239048,,,
14.640625,1,-1.043894053,,,
14.65625,1,-0.668073714,,,
14.671875,1,-0.236032501,,,
14.6875,1,0.158397704,,,
14.703125,1,0.422122985,,,
14.71875,1,0.48841089,,,
14.734375,1,0.399486512,,,
14.75,1,0.241457,,,
14.765625,1,0.113670297,,,
14.78125,1,0.060668949,,,
14.796875,1,0.044319149,,,
14.8125,1,0.00501442,,,
14.828125,1,-0.098878861,,,
14.84375,1,-0.210397705,,,
14.859375,1,-0.262525588,,,
14.875,1,-0.1927834,,,
14.890625,1,-0.02080345,,,
14.90625,1,0.180442795,,,
14.921875,1,0.315965712,,,
14.9375,1,0.372501403,,,
14.953125,1,0.401748687,,,
14.96875,1,0.476680785,,,
14.984375,1,0.615245819,,,
15,1,0.745832384,,,
15.015625,1,0.732271195,,,
15.03125,1,0.469972611,,,
15.046875,1,-0.01942635,,,
15.0625,1,-0.590730727,,,
15.078125,1,-1.02343905,,,
15.09375,1,-1.157176971,,,
15.109375,1,-0.97107321,,,
15.125,1,-0.560583115,,,
15.140625,1,-0.101638801,,,
15.15625,1,0.26893419,,,
15.171875,1,0.507076323,,,
15.1875,1,0.630186081,,,
15.203125,1,0.690214217,,,
15.21875,1,0.7018013,,,
15.234375,1,0.669607222,,,
15.25,1,0.591621399,,,
15.265625,1,0.50283432,,,
15.28125,1,0.465833694,,,
15.296875,1,0.539951325,,,
15.3125,1,0.726180971,,,
15.328125,1,0.936044693,,,
15.34375,1,1.04955101,,,
15.359375,1,0.966445923,,,
15.375,1,0.658725679,,,
15.390625,1,0.1963844,,,
15.40625,1,-0.29658699,,,
15.421875,1,-0.726127625,,,
15.4375,1,-1.057973981,,,
15.453125,1,-1.314241052,,,
15.46875,1,-1.526615024,,,
15.484375,1,-1.709525943,,,
15.5,1,-1.815636039,,,
15.515625,1,-1.775277972,,,
15.53125,1,-1.54440701,,,
15.546875,1,-1.127832055,,,
15.5625,1,-0.609754622,,,
15.578125,1,-0.086307533,,,
15.59375,1,0.360717803,,,
15.609375,1,0.682201386,,,
15.625,1,0.877153397,,,
15.640625,1,0.946283281,,,
15.65625,1,0.884353578,,,
15.671875,1,0.683506012,,,
15.6875,1,0.369604111,,,
15.703125,1,0.002513885,,,
15.71875,1,-0.353027314,,,
15.734375,1,-0.644739211,,,
15.75,1,-0.89610672,,,
15.765625,1,-1.174628973,,,
15.78125,1,-1.571419001,,,
15.796875,1,-2.086427927,,,
15.8125,1,-2.614891052,,,
15.828125,1,-2.971858978,,,
15.84375,1,-2.971673966,,,
15.859375,1,-2.542136908,,,
15.875,1,-1.78689599,,,
15.890625,1,-0.949947417,,,
15.90625,1,-0.315584213,,,
15.921875,1,-0.068523407,,,
15.9375,1,-0.218998,,,
15.953125,1,-0.607626021,,,
15.96875,1,-1.012601972,,,
15.984375,1,-1.266159058,,,
16,2,-1.322499991,,,
16.015625,2,-1.23308003,,,
16.03125,2,-1.060264945,,,
16.046875,2,-0.817434311,,,
16.0625,2,-0.465881288,,,
16.078125,2,0.02767372,,,
16.09375,2,0.63920778,,,
16.109375,2,1.279541016,,,
16.125,2,1.806910992,,,
16.140625,2,2.115370035,,,
16.15625,2,2.164901972,,,
16.171875,2,1.961102009,,,
16.1875,2,1.521162033,,,
16.203125,2,0.885129929,,,
16.21875,2,0.116359703,,,
16.234375,2,-0.663412094,,,
16.25,2,-1.281437039,,,
16.265625,2,-1.547544003,,,
16.28125,2,-1.381191015,,,
16.296875,2,-0.842556,,,
16.3125,2,-0.139329895,,,
16.328125,2,0.486946106,,,
16.34375,2,0.848068178,,,
16.359375,2,0.873790681,,,
16.375,2,0.607870102,,,
16.390625,2,0.186727494,,,
16.40625,2,-0.2397957,,,
16.421875,2,-0.550115585,,,
16.4375,2,-0.673372328,,,
16.453125,2,-0.598648071,,,
16.46875,2,-0.369869202,,,
16.484375,2,-0.067659378,,,
16.5,2,0.241571397,,,
16.515625,2,0.496753693,,,
16.53125,2,0.695114076,,,
16.546875,2,0.841428816,,,
16.5625,2,0.964048386,,,
16.578125,2,1.083080053,,,
16.59375,2,1.22774899,,,
16.609375,2,1.404839039,,,
16.625,2,1.62896502,,,
16.640625,2,1.873801947,,,
16.65625,2,2.081239939,,,
16.671875,2,2.183223963,,,
16.6875,2,2.112411022,,,
16.703125,2,1.862030029,,,
16.71875,2,1.489166021,,,
16.734375,2,1.112277985,,,
16.75,2,0.851108611,,,
16.765625,2,0.809700012,,,
16.78125,2,1.015347958,,,
16.796875,2,1.437682986,,,
16.8125,2,1.956789017,,,
16.828125,2,2.425970078,,,
16.84375,2,2.68055892,,,
16.859375,2,2.654340982,,,
16.875,2,2.339490891,,,
16.890625,2,1.831608057,,,
16.90625,2,1.279744983,,,
16.921875,2,0.814601898,,,
16.9375,2,0.486745805,,,
16.953125,2,0.260789901,,,
16.96875,2,0.055707932,,,
16.984375,2,-0.2144337,,,
17,2,-0.604194582,,,
17.015625,2,-1.10472095,,,
17.03125,2,-1.670176029,,,
17.046875,2,-2.222430944,,,
17.0625,2,-2.668842077,,,
17.078125,2,-2.934118033,,,
17.09375,2,-2.969893932,,,
17.109375,2,-2.814044952,,,
17.125,2,-2.540885925,,,
17.140625,2,-2.254848003,,,
17.15625,2,-2.030838013,,,
17.171875,2,-1.889081955,,,
17.1875,2,-1.808480978,,,
17.203125,2,-1.750337958,,,
17.21875,2,-1.70596695,,,
17.234375,2,-1.680770993,,,
17.25,2,-1.674128056,,,
17.265625,2,-1.642801046,,,
17.28125,2,-1.49999404,,,
17.296875,2,-1.179239035,,,
17.3125,2,-0.685186386,,,
17.328125,2,-0.124279,,,
17.34375,2,0.334148407,,,
17.359375,2,0.576063216,,,
17.375,2,0.574239671,,,
17.390625,2,0.444829911,,,
17.40625,2,0.376037598,,,
17.421875,2,0.544073105,,,
17.4375,2,1.00041604,,,
17.453125,2,1.649230957,,,
17.46875,2,2.279205084,,,
17.484375,2,2.642961979,,,
17.5,2,2.590954065,,,
17.515625,2,2.12816,,,
17.53125,2,1.401913047,,,
17.546875,2,0.635856628,,,
17.5625,2,0.039394379,,,
17.578125,2,-0.267339706,,,
17.59375,2,-0.287281007,,,
17.609375,2,-0.143758804,,,
17.625,2,0.031757351,,,
17.640625,2,0.124891304,,,
17.65625,2,0.105564103,,,
17.671875,2,0.02178764,,,
17.6875,2,-0.058179859,,,
17.703125,2,-0.064893723,,,
17.71875,2,0.029542919,,,
17.734375,2,0.216657594,,,
17.75,2,0.458648711,,,
17.765625,2,0.684677124,,,
17.78125,2,0.832103729,,,
17.796875,2,0.829774916,,,
17.8125,2,0.647104323,,,
17.828125,2,0.321180314,,,
17.84375,2,-0.045574188,,,
17.859375,2,-0.27816391,,,
17.875,2,-0.246828094,,,
17.890625,2,0.099571228,,,
17.90625,2,0.662073076,,,
17.921875,2,1.269068003,,,
17.9375,2,1.705379009,,,
17.953125,2,1.857918024,,,
17.96875,2,1.728909969,,,
17.984375,2,1.40278995,,,
18,2,0.992231429,,,
18.015625,2,0.554073274,,,
18.03125,2,0.105983697,,,
18.046875,2,-0.372865707,,,
18.0625,2,-0.881437302,,,
18.078125,2,-1.389170051,,,
18.09375,2,-1.809306979,,,
18.109375,2,-2.076740027,,,
18.125,2,-2.112546921,,,
18.140625,2,-1.867143989,,,
18.15625,2,-1.338477969,,,
18.171875,2,-0.578525484,,,
18.1875,2,0.290424287,,,
18.203125,2,1.111045957,,,
18.21875,2,1.743054986,,,
18.234375,2,2.113894939,,,
18.25,2,2.247212887,,,
18.265625,2,2.196840048,,,
18.28125,2,2.036184073,,,
18.296875,2,1.779181957,,,
18.3125,2,1.424026012,,,
18.328125,2,0.955196381,,,
18.34375,2,0.409225494,,,
18.359375,2,-0.139547303,,,
18.375,2,-0.61195761,,,
18.390625,2,-0.96169281,,,
18.40625,2,-1.188527942,,,
18.421875,2,-1.295819998,,,
18.4375,2,-1.328961968,,,
18.453125,2,-1.319636941,,,
18.46875,2,-1.313999057,,,
18.484375,2,-1.342810035,,,
18.5,2,-1.401185989,,,
18.515625,2,-1.455965042,,,
18.53125,2,-1.442574978,,,
18.546875,2,-1.34977901,,,
18.5625,2,-1.229449987,,,
18.578125,2,-1.19944799,,,
18.59375,2,-1.347128034,,,
18.609375,2,-1.684116006,,,
18.625,2,-2.097949982,,,
18.640625,2,-2.403502941,,,
18.65625,2,-2.447841883,,,
18.671875,2,-2.186989069,,,
18.6875,2,-1.672803998,,,
18.703125,2,-1.010838985,,,
18.71875,2,-0.286790788,,,
18.734375,2,0.458591491,,,
18.75,2,1.164466977,,,
18.765625,2,1.720934033,,,
18.78125,2,1.96062696,,,
18.796875,2,1.749546051,,,
18.8125,2,1.087416053,,,
18.828125,2,0.123714402,,,
18.84375,2,-0.864694595,,,
18.859375,2,-1.614318967,,,
18.875,2,-1.971626043,,,
18.890625,2,-1.93500495,,,
18.90625,2,-1.610537052,,,
18.921875,2,-1.110183954,,,
18.9375,2,-0.502071381,,,
18.953125,2,0.210876495,,,
18.96875,2,1.009834051,,,
18.984375,2,1.836328983,,,
19,2,2.538654089,,,
19.015625,2,2.94302392,,,
19.03125,2,2.93948698,,,
19.046875,2,2.543292999,,,
19.0625,2,1.895228982,,,
19.078125,2,1.181656003,,,
19.09375,2,0.555505812,,,
19.109375,2,0.053638458,,,
19.125,2,-0.366441697,,,
19.140625,2,-0.762000978,,,
19.15625,2,-1.121548057,,,
19.171875,2,-1.356984973,,,
19.1875,2,-1.332736969,,,
19.203125,2,-0.960607529,,,
19.21875,2,-0.283817291,,,
19.234375,2,0.518835127,,,
19.25,2,1.197332025,,,
19.265625,2,1.546679974,,,
19.28125,2,1.482151032,,,
19.296875,2,1.085441947,,,
19.3125,2,0.532028198,,,
19.328125,2,-0.007497787,,,
19.34375,2,-0.434781998,,,
19.359375,2,-0.77485472,,,
19.375,2,-1.096161008,,,
19.390625,2,-1.457834005,,,
19.40625,2,-1.833075047,,,
19.421875,2,-2.115998983,,,
19.4375,2,-2.184104919,,,
19.453125,2,-1.969421029,,,
19.46875,2,-1.51137197,,,
19.484375,2,-0.910373688,,,
19.5,2,-0.314241409,,,
19.515625,2,0.166889206,,,
19.53125,2,0.471311599,,,
19.546875,2,0.59718132,,,
19.5625,2,0.567405701,,,
19.578125,2,0.434278488,,,
19.59375,2,0.261470795,,,
19.609375,2,0.104997598,,,
19.625,2,-0.000450134,,,
19.640625,2,-0.072666168,,,
19.65625,2,-0.151346207,,,
19.671875,2,-0.294790298,,,
19.6875,2,-0.530677795,,,
19.703125,2,-0.826376021,,,
19.71875,2,-1.120041013,,,
19.734375,2,-1.357107043,,,
19.75,2,-1.510524988,,,
19.765625,2,-1.588842034,,,
19.78125,2,-1.602221966,,,
19.796875,2,-1.554522038,,,
19.8125,2,-1.446117044,,,
19.828125,2,-1.285766959,,,
19.84375,2,-1.092146039,,,
19.859375,2,-0.883577287,,,
19.875,2,-0.65609932,,,
19.890625,2,-0.380205214,,,
19.90625,2,-0.02459335,,,
19.921875,2,0.420492202,,,
19.9375,2,0.92987442,,,
19.953125,2,1.462803006,,,
19.96875,2,1.959754944,,,
19.984375,2,2.405894995,,,
20,2,2.758491993,,,
20.015625,2,2.968600988,,,
20.03125,2,2.938946009,,,
20.046875,2,2.576541901,,,
20.0625,2,1.860185981,,,
20.078125,2,0.880771577,,,
20.09375,2,-0.146478698,,,
20.109375,2,-0.982606888,,,
20.125,2,-1.451027036,,,
20.140625,2,-1.552782059,,,
20.15625,2,-1.42949295,,,
20.171875,2,-1.258950949,,,
20.1875,2,-1.171375036,,,
20.203125,2,-1.144860983,,,
20.21875,2,-1.064849973,,,
20.234375,2,-0.803974211,,,
20.25,2,-0.328496903,,,
20.265625,2,0.273376495,,,
20.28125,2,0.841539383,,,
20.296875,2,1.22003901,,,
20.3125,2,1.344373941,,,
20.328125,2,1.247365952,,,
20.34375,2,1.020164013,,,
20.359375,2,0.751602173,,,
20.375,2,0.478563309,,,
20.390625,2,0.202087402,,,
20.40625,2,-0.068431847,,,
20.421875,2,-0.2849617,,,
20.4375,2,-0.365673095,,,
20.453125,2,-0.199523896,,,
20.46875,2,0.2310085,,,
20.484375,2,0.868722916,,,
20.5,2,1.534881949,,,
20.515625,2,2.00682807,,,
20.53125,2,2.125154018,,,
20.546875,2,1.853785992,,,
20.5625,2,1.322906017,,,
20.578125,2,0.757143021,,,
20.59375,2,0.3795681,,,
20.609375,2,0.309522599,,,
20.625,2,0.513696671,,,
20.640625,2,0.830238283,,,
20.65625,2,1.088143945,,,
20.671875,2,1.180029035,,,
20.6875,2,1.109699011,,,
20.703125,2,0.969997406,,,
20.71875,2,0.87335211,,,
20.734375,2,0.868154526,,,
20.75,2,0.941841126,,,
20.765625,2,1.021016955,,,
20.78125,2,1.037592053,,,
20.796875,2,0.949308395,,,
20.8125,2,0.778377473,,,
20.828125,2,0.577013016,,,
20.84375,2,0.40978241,,,
20.859375,2,0.317686111,,,
20.875,2,0.301738709,,,
20.890625,2,0.317998886,,,
20.90625,2,0.288309097,,,
20.921875,2,0.122154199,,,
20.9375,2,-0.251520187,,,
20.953125,2,-0.843133926,,,
20.96875,2,-1.59186697,,,
20.984375,2,-2.332217932,,,
21,2,-2.86163497,,,
21.015625,2,-3.00255394,,,
21.03125,2,-2.682734966,,,
21.046875,2,-1.970388055,,,
21.0625,2,-1.056754947,,,
21.078125,2,-0.164886504,,,
21.09375,2,0.532510817,,,
21.109375,2,0.958208084,,,
21.125,2,1.149230957,,,
21.140625,2,1.177538037,,,
21.15625,2,1.100697041,,,
21.171875,2,0.932712615,,,
21.1875,2,0.662330627,,,
21.203125,2,0.294736892,,,
21.21875,2,-0.1336613,,,
21.234375,2,-0.543453217,,,
21.25,2,-0.822011888,,,
21.265625,2,-0.863744676,,,
21.28125,2,-0.603065491,,,
21.296875,2,-0.082027443,,,
21.3125,2,0.588457108,,,
21.328125,2,1.224117041,,,
21.34375,2,1.663908005,,,
21.359375,2,1.81199801,,,
21.375,2,1.667976022,,,
21.390625,2,1.322321057,,,
21.40625,2,0.8885746,,,
21.421875,2,0.449443787,,,
21.4375,2,0.01874161,,,
21.453125,2,-0.402195007,,,
21.46875,2,-0.843727112,,,
21.484375,2,-1.266304016,,,
21.5,2,-1.623077035,,,
21.515625,2,-1.849207044,,,
21.53125,2,-1.915987015,,,
21.546875,2,-1.822548032,,,
21.5625,2,-1.618710995,,,
21.578125,2,-1.345703006,,,
21.59375,2,-1.043894053,,,
21.609375,2,-0.750652313,,,
21.625,2,-0.494651794,,,
21.640625,2,-0.29583171,,,
21.65625,2,-0.167888597,,,
21.671875,2,-0.123561896,,,
21.6875,2,-0.162748307,,,
21.703125,2,-0.265276015,,,
21.71875,2,-0.391231507,,,
21.734375,2,-0.473888397,,,
21.75,2,-0.449106187,,,
21.765625,2,-0.282104492,,,
21.78125,2,0.022525789,,,
21.796875,2,0.405584306,,,
21.8125,2,0.806732178,,,
21.828125,2,1.158110023,,,
21.84375,2,1.431725025,,,
21.859375,2,1.610638022,,,
21.875,2,1.673840046,,,
21.890625,2,1.596578956,,,
21.90625,2,1.364048004,,,
21.921875,2,1.011726022,,,
21.9375,2,0.5932827,,,
21.953125,2,0.207017899,,,
21.96875,2,-0.09267807,,,
21.984375,2,-0.28792569,,,
22,2,-0.432783097,,,
22.015625,2,-0.599765778,,,
22.03125,2,-0.861171722,,,
22.046875,2,-1.213351965,,,
22.0625,2,-1.621160984,,,
22.078125,2,-2.027523041,,,
22.09375,2,-2.357527018,,,
22.109375,2,-2.569050074,,,
22.125,2,-2.641699076,,,
22.140625,2,-2.560729981,,,
22.15625,2,-2.33198905,,,
22.171875,2,-1.970572949,,,
22.1875,2,-1.527657986,,,
22.203125,2,-1.059173942,,,
22.21875,2,-0.627380371,,,
22.234375,2,-0.260910004,,,
22.25,2,0.054410931,,,
22.265625,2,0.345129013,,,
22.28125,2,0.632673323,,,
22.296875,2,0.893827379,,,
22.3125,2,1.081802011,,,
22.328125,2,1.132524014,,,
22.34375,2,1.030486941,,,
22.359375,2,0.816898286,,,
22.375,2,0.580129623,,,
22.390625,2,0.403978288,,,
22.40625,2,0.338964492,,,
22.421875,2,0.372487992,,,
22.4375,2,0.447107285,,,
22.453125,2,0.4999924,,,
22.46875,2,0.490099013,,,
22.484375,2,0.430070907,,,
22.5,2,0.364833802,,,
22.515625,2,0.340055496,,,
22.53125,2,0.373413086,,,
22.546875,2,0.457406998,,,
22.5625,2,0.55345732,,,
22.578125,2,0.595659316,,,
22.59375,2,0.543094575,,,
22.609375,2,0.391460389,,,
22.625,2,0.180986404,,,
22.640625,2,-0.026731489,,,
22.65625,2,-0.143882796,,,
22.671875,2,-0.135561004,,,
22.6875,2,-0.031181339,,,
22.703125,2,0.089986801,,,
22.71875,2,0.1127415,,,
22.734375,2,-0.021467211,,,
22.75,2,-0.289037705,,,
22.765625,2,-0.590341628,,,
22.78125,2,-0.770881712,,,
22.796875,2,-0.714130402,,,
22.8125,2,-0.382827789,,,
22.828125,2,0.146182999,,,
22.84375,2,0.712007523,,,
22.859375,2,1.151085019,,,
22.875,2,1.372902036,,,
22.890625,2,1.346724033,,,
22.90625,2,1.132717013,,,
22.921875,2,0.801706314,,,
22.9375,2,0.410039902,,,
22.953125,2,-0.004793167,,,
22.96875,2,-0.438171387,,,
22.984375,2,-0.877416611,,,
23,2,-1.276949048,,,
23.015625,2,-1.604292035,,,
23.03125,2,-1.834133029,,,
23.046875,2,-1.959151983,,,
23.0625,2,-1.981585026,,,
23.078125,2,-1.868903995,,,
23.09375,2,-1.54380405,,,
23.109375,2,-0.907484114,,,
23.125,2,0.085990913,,,
23.140625,2,1.342973948,,,
23.15625,2,2.614099979,,,
23.171875,2,3.553761005,,,
23.1875,2,3.849169016,,,
23.203125,2,3.361921072,,,
23.21875,2,2.158227921,,,
23.234375,2,0.518449783,,,
23.25,2,-1.209854007,,,
23.265625,2,-2.703041077,,,
23.28125,2,-3.739922047,,,
23.296875,2,-4.214867115,,,
23.3125,2,-4.117053986,,,
23.328125,2,-3.497577906,,,
23.34375,2,-2.48972702,,,
23.359375,2,-1.301552057,,,
23.375,2,-0.149875596,,,
23.390625,2,0.754795075,,,
23.40625,2,1.31555903,,,
23.421875,2,1.567109942,,,
23.4375,2,1.629822016,,,
23.453125,2,1.640879035,,,
23.46875,2,1.658836007,,,
23.484375,2,1.632123947,,,
23.5,2,1.457095981,,,
23.515625,2,1.01828599,,,
23.53125,2,0.277662307,,,
23.546875,2,-0.696891785,,,
23.5625,2,-1.751278043,,,
23.578125,2,-2.671755076,,,
23.59375,2,-3.26672411,,,
23.609375,2,-3.394645929,,,
23.625,2,-3.029602051,,,
23.640625,2,-2.23900795,,,
23.65625,2,-1.186014056,,,
23.671875,2,-0.080274582,,,
23.6875,2,0.878871918,,,
23.703125,2,1.544769049,,,
23.71875,2,1.854190946,,,
23.734375,2,1.843410015,,,
23.75,2,1.609182,,,
23.765625,2,1.286445975,,,
23.78125,2,0.998056412,,,
23.796875,2,0.818933487,,,
23.8125,2,0.755800188,,,
23.828125,2,0.762796402,,,
23.84375,2,0.769786775,,,
23.859375,2,0.705142975,,,
23.875,2,0.566204071,,,
23.890625,2,0.403986007,,,
23.90625,2,0.2757397,,,
23.921875,2,0.223657593,,,
23.9375,2,0.223848298,,,
23.953125,2,0.2235661,,,
23.96875,2,0.149076507,,,
23.984375,2,-0.033857349,,,
24,3,-0.303281814,,,
24.015625,3,-0.599815428,,,
24.03125,3,-0.846508026,,,
24.046875,3,-0.988464415,,,
24.0625,3,-0.99795723,,,
24.078125,3,-0.89569658,,,
24.09375,3,-0.734620988,,,
24.109375,3,-0.573947907,,,
24.125,3,-0.446619004,,,
24.140625,3,-0.329822511,,,
24.15625,3,-0.155260101,,,
24.171875,3,0.169490799,,,
24.1875,3,0.671564102,,,
24.203125,3,1.280601978,,,
24.21875,3,1.808825016,,,
24.234375,3,2.032396078,,,
24.25,3,1.816177011,,,
24.265625,3,1.18688798,,,
24.28125,3,0.346815109,,,
24.296875,3,-0.426807404,,,
24.3125,3,-0.886613786,,,
24.328125,3,-0.958105087,,,
24.34375,3,-0.68214798,,,
24.359375,3,-0.228555694,,,
24.375,3,0.255483598,,,
24.390625,3,0.666101515,,,
24.40625,3,0.998016417,,,
24.421875,3,1.269788981,,,
24.4375,3,1.50782001,,,
24.453125,3,1.72972703,,,
24.46875,3,1.940304041,,,
24.484375,3,2.154047012,,,
24.5,3,2.406045914,,,
24.515625,3,2.729470968,,,
24.53125,3,3.103833914,,,
24.546875,3,3.44332695,,,
24.5625,3,3.600919962,,,
24.578125,3,3.440213919,,,
24.59375,3,2.893635035,,,
24.609375,3,2.018026114,,,
24.625,3,0.987707079,,,
24.640625,3,0.026838301,,,
24.65625,3,-0.682237625,,,
24.671875,3,-1.057167053,,,
24.6875,3,-1.131958008,,,
24.703125,3,-1.01709199,,,
24.71875,3,-0.836748123,,,
24.734375,3,-0.68907553,,,
24.75,3,-0.633140624,,,
24.765625,3,-0.696447372,,,
24.78125,3,-0.868124008,,,
24.796875,3,-1.099774957,,,
24.8125,3,-1.307119012,,,
24.828125,3,-1.408030987,,,
24.84375,3,-1.33574903,,,
24.859375,3,-1.097746015,,,
24.875,3,-0.772071779,,,
24.890625,3,-0.48648259,,,
24.90625,3,-0.357881486,,,
24.921875,3,-0.447265595,,,
24.9375,3,-0.725883484,,,
24.953125,3,-1.095157981,,,
24.96875,3,-1.410302997,,,
24.984375,3,-1.576874018,,,
25,3,-1.566501975,,,
25.015625,3,-1.433176041,,,
25.03125,3,-1.283437967,,,
25.046875,3,-1.203781009,,,
25.0625,3,-1.242627978,,,
25.078125,3,-1.358701944,,,
25.09375,3,-1.464159012,,,
25.109375,3,-1.463770032,,,
25.125,3,-1.295060992,,,
25.140625,3,-0.975578308,,,
25.15625,3,-0.593025208,,,
25.171875,3,-0.245012298,,,
25.1875,3,-0.000547409,,,
25.203125,3,0.156963304,,,
25.21875,3,0.296409607,,,
25.234375,3,0.492893189,,,
25.25,3,0.766740799,,,
25.265625,3,1.032241941,,,
25.28125,3,1.155375004,,,
25.296875,3,1.021890998,,,
25.3125,3,0.643653929,,,
25.328125,3,0.1360493,,,
25.34375,3,-0.269237489,,,
25.359375,3,-0.420202315,,,
25.375,3,-0.287689209,,,
25.390625,3,0.01773453,,,
25.40625,3,0.340011597,,,
25.421875,3,0.575975418,,,
25.4375,3,0.750530183,,,
25.453125,3,0.955459595,,,
25.46875,3,1.260643005,,,
25.484375,3,1.620393992,,,
25.5,3,1.883556008,,,
25.515625,3,1.905871987,,,
25.53125,3,1.632655978,,,
25.546875,3,1.144027948,,,
25.5625,3,0.564277589,,,
25.578125,3,-0.001695633,,,
25.59375,3,-0.533149719,,,
25.609375,3,-1.034340024,,,
25.625,3,-1.44333601,,,
25.640625,3,-1.61836803,,,
25.65625,3,-1.414515019,,,
25.671875,3,-0.803012788,,,
25.6875,3,0.043512341,,,
25.703125,3,0.812734604,,,
25.71875,3,1.209900022,,,
25.734375,3,1.116865039,,,
25.75,3,0.652513504,,,
25.765625,3,0.05815506,,,
25.78125,3,-0.456365585,,,
25.796875,3,-0.815374374,,,
25.8125,3,-1.064640045,,,
25.828125,3,-1.299222946,,,
25.84375,3,-1.543583036,,,
25.859375,3,-1.749825954,,,
25.875,3,-1.849020004,,,
25.890625,3,-1.829686999,,,
25.90625,3,-1.735085011,,,
25.921875,3,-1.62498498,,,
25.9375,3,-1.517763019,,,
25.953125,3,-1.349259973,,,
25.96875,3,-1.071585059,,,
25.984375,3,-0.69333458,,,
26,3,-0.330030412,,,
26.015625,3,-0.150926605,,,
26.03125,3,-0.295440704,,,
26.046875,3,-0.7759552,,,
26.0625,3,-1.465355039,,,
26.078125,3,-2.156703949,,,
26.09375,3,-2.64518404,,,
26.109375,3,-2.815125942,,,
26.125,3,-2.683401108,,,
26.140625,3,-2.362787008,,,
26.15625,3,-1.991049051,,,
26.171875,3,-1.64031601,,,
26.1875,3,-1.327545047,,,
26.203125,3,-1.007081986,,,
26.21875,3,-0.669517517,,,
26.234375,3,-0.379482299,,,
26.25,3,-0.263559312,,,
26.265625,3,-0.430931091,,,
26.28125,3,-0.893547118,,,
26.296875,3,-1.520395041,,,
26.3125,3,-2.101320028,,,
26.328125,3,-2.426230907,,,
26.34375,3,-2.412236929,,,
26.359375,3,-2.134390116,,,
26.375,3,-1.748090982,,,
26.390625,3,-1.392030954,,,
26.40625,3,-1.099015951,,,
26.421875,3,-0.810356081,,,
26.4375,3,-0.425296813,,,
26.453125,3,0.101453804,,,
26.46875,3,0.714658678,,,
26.484375,3,1.28520596,,,
26.5,3,1.664677024,,,
26.515625,3,1.763082981,,,
26.53125,3,1.583902001,,,
26.546875,3,1.199504972,,,
26.5625,3,0.721071184,,,
26.578125,3,0.248285294,,,
26.59375,3,-0.147689804,,,
26.609375,3,-0.411830902,,,
26.625,3,-0.484424591,,,
26.640625,3,-0.333579987,,,
26.65625,3,0.038032532,,,
26.671875,3,0.588867188,,,
26.6875,3,1.182822943,,,
26.703125,3,1.656990051,,,
26.71875,3,1.850772977,,,
26.734375,3,1.705029011,,,
26.75,3,1.265002966,,,
26.765625,3,0.691055298,,,
26.78125,3,0.176036805,,,
26.796875,3,-0.121330299,,,
26.8125,3,-0.149662003,,,
26.828125,3,0.023029329,,,
26.84375,3,0.251476288,,,
26.859375,3,0.365592986,,,
26.875,3,0.258842498,,,
26.890625,3,-0.082653053,,,
26.90625,3,-0.563373625,,,
26.921875,3,-1.047749043,,,
26.9375,3,-1.423804998,,,
26.953125,3,-1.630923986,,,
26.96875,3,-1.692592979,,,
26.984375,3,-1.661877036,,,
27,3,-1.586936951,,,
27.015625,3,-1.491546989,,,
27.03125,3,-1.385905981,,,
27.046875,3,-1.289000988,,,
27.0625,3,-1.235329032,,,
27.078125,3,-1.262946963,,,
27.09375,3,-1.38558197,,,
27.109375,3,-1.576351047,,,
27.125,3,-1.782367945,,,
27.140625,3,-1.955428958,,,
27.15625,3,-2.080451965,,,
27.171875,3,-2.144198895,,,
27.1875,3,-2.143948078,,,
27.203125,3,-2.056727886,,,
27.21875,3,-1.882240057,,,
27.234375,3,-1.657284021,,,
27.25,3,-1.494433999,,,
27.265625,3,-1.546756983,,,
27.28125,3,-1.983752966,,,
27.296875,3,-2.881453991,,,
27.3125,3,-4.195137024,,,
27.328125,3,-5.735607147,,,
27.34375,3,-7.233929157,,,
27.359375,3,-8.440376282,,,
27.375,3,-9.224727631,,,
27.390625,3,-9.6444664,,,
27.40625,3,-9.899803162,,,
27.421875,3,-10.25728989,,,
27.4375,3,-10.93527985,,,
27.453125,3,-12.03209972,,,
27.46875,3,-13.50164032,,,
27.484375,3,-15.15365982,,,
27.5,3,-16.65830994,,,
27.515625,3,-17.56627083,,,
27.53125,3,-17.35845947,,,
27.546875,3,-15.59620953,,,
27.5625,3,-12.14651966,,,
27.578125,3,-7.318321228,,,
27.59375,3,-1.905434012,,,
27.609375,3,3.018157959,,,
27.625,3,6.482201099,,,
27.640625,3,7.92771101,,,
27.65625,3,7.402191162,,,
27.671875,3,5.386580944,,,
27.6875,3,2.500252008,,,
27.703125,3,-0.807869017,,,
27.71875,3,-4.409386158,,,
27.734375,3,-8.346366882,,,
27.75,3,-12.64562035,,,
27.765625,3,-17.10445023,,,
27.78125,3,-21.34357071,,,
27.796875,3,-24.93215942,,,
27.8125,3,-27.63157082,,,
27.828125,3,-29.52664948,,,
27.84375,3,-31.03967094,,,
27.859375,3,-32.77840042,,,
27.875,3,-35.29182053,,,
27.890625,3,-38.84197998,,,
27.90625,3,-43.22322845,,,
27.921875,3,-47.8037796,,,
27.9375,3,-51.74972916,,,
27.953125,3,-54.3190918,,,
27.96875,3,-55.24657059,,,
27.984375,3,-54.84091949,,,
28,3,-53.90074921,,,
28.015625,3,-53.29563141,,,
28.03125,3,-53.49158096,,,
28.046875,3,-54.26121902,,,
28.0625,3,-54.63941956,,,
28.078125,3,-53.02669144,,,
28.09375,3,-47.38933945,,,
28.109375,3,-35.66540909,,,
28.125,3,-16.42234993,,,
28.140625,3,10.30797005,,,
28.15625,3,42.4156189,,,
28.171875,3,75.70697021,,,
28.1875,3,104.8865967,,,
28.203125,3,125.2349014,,,
28.21875,3,134.1954041,,,
28.234375,3,132.1842957,,,
28.25,3,122.1048965,,,
28.265625,3,107.9549026,,,
28.28125,3,93.29322815,,,
28.296875,3,80.33570862,,,
28.3125,3,69.90386963,,,
28.328125,3,62.02453995,,,
28.34375,3,56.53475952,,,
28.359375,3,53.24710083,,,
28.375,3,51.74280167,,,
28.390625,3,51.10251999,,,
28.40625,3,49.96065903,,,
28.421875,3,46.87627029,,,
28.4375,3,40.8171196,,,
28.453125,3,31.59878922,,,
28.46875,3,19.93844986,,,
28.484375,3,7.390090942,,,
28.5,3,-4.117996216,,,
28.515625,3,-12.84239006,,,
28.53125,3,-17.73984909,,,
28.546875,3,-18.86502075,,,
28.5625,3,-17.32106018,,,
28.578125,3,-14.84704971,,,
28.59375,3,-13.0671196,,,
28.609375,3,-12.80167961,,,
28.625,3,-13.72560024,,,
28.640625,3,-14.52760029,,,
28.65625,3,-13.42333984,,,
28.671875,3,-8.733657837,,,
28.6875,3,0.734268189,,,
28.703125,3,15.58565044,,,
28.71875,3,35.80867004,,,
28.734375,3,60.77666855,,,
28.75,3,89.20052338,,,
28.765625,3,119.1537018,,,
28.78125,3,148.3950043,,,
28.796875,3,174.9785004,,,
28.8125,3,197.8975067,,,
28.828125,3,217.3141022,,,
28.84375,3,234.2884064,,,
28.859375,3,250.054306,,,
28.875,3,265.2593994,,,
28.890625,3,279.59021,,,
28.90625,3,291.9653931,,,
28.921875,3,301.1272888,,,
28.9375,3,306.1711121,,,
28.953125,3,306.8037109,,,
28.96875,3,303.0996094,,,
28.984375,3,295.2062073,,,
29,3,283.1217041,,,
29.015625,3,266.7961121,,,
29.03125,3,246.4539032,,,
29.046875,3,222.8694,,,
29.0625,3,197.3755035,,,
29.078125,3,171.5682983,,,
29.09375,3,146.8603058,,,
29.109375,3,123.9876022,,,
29.125,3,102.8299026,,,
29.140625,3,82.57383728,,,
29.15625,3,62.13216019,,,
29.171875,3,40.69884872,,,
29.1875,3,18.14957047,,,
29.203125,3,-4.893981934,,,
29.21875,3,-27.38961983,,,
29.234375,3,-48.36294937,,,
29.25,3,-67.38372803,,,
29.265625,3,-84.72255707,,,
29.28125,3,-101.2785034,,,
29.296875,3,-118.2969971,,,
29.3125,3,-137.1345062,,,
29.328125,3,-158.975296,,,
29.34375,3,-184.5182037,,,
29.359375,3,-213.4640961,,,
29.375,3,-244.0919037,,,
29.390625,3,-273.1741943,,,
29.40625,3,-296.609314,,,
29.421875,3,-310.6242981,,,
29.4375,3,-313.1572876,,,
29.453125,3,-304.6567078,,,
29.46875,3,-287.9057922,,,
29.484375,3,-266.901886,,,
29.5,3,-245.3798065,,,
29.515625,3,-225.684906,,,
29.53125,3,-208.5554962,,,
29.546875,3,-193.6204987,,,
29.5625,3,-180.1988068,,,
29.578125,3,-167.8596954,,,
29.59375,3,-156.4642029,,,
29.609375,3,-145.8937073,,,
29.625,3,-135.8227997,,,
29.640625,3,-125.7029037,,,
29.65625,3,-115.0537033,,,
29.671875,3,-103.7850037,,,
29.6875,3,-92.26342773,,,
29.703125,3,-81.23474121,,,
29.71875,3,-71.49487305,,,
29.734375,3,-63.51787949,,,
29.75,3,-57.24462891,,,
29.765625,3,-52.09899902,,,
29.78125,3,-47.23675919,,,
29.796875,3,-41.89337158,,,
29.8125,3,-35.78179932,,,
29.828125,3,-29.2215004,,,
29.84375,3,-23.07941055,,,
29.859375,3,-18.35712051,,,
29.875,3,-15.79162979,,,
29.890625,3,-15.46105957,,,
29.90625,3,-16.75415039,,,
29.921875,3,-18.5836792,,,
29.9375,3,-19.8312397,,,
29.953125,3,-19.76696968,,,
29.96875,3,-18.23389053,,,
29.984375,3,-15.61853027,,,
30,3,-12.57689953,,,
30.015625,3,-9.712402344,,,
30.03125,3,-7.369812012,,,
30.046875,3,-5.593688965,,,
30.0625,3,-4.231566906,,,
30.078125,3,-3.092529059,,,
30.09375,3,-2.073668957,,,
30.109375,3,-1.163696051,,,
30.125,3,-0.423339814,,,
30.140625,3,0.101318397,,,
30.15625,3,0.39666751,,,
30.171875,3,0.471923798,,,
30.1875,3,0.324890107,,,
30.203125,3,-0.057861332,,,
30.21875,3,-0.67376709,,,
30.234375,3,-1.470641971,,,
30.25,3,-2.305114985,,,
30.265625,3,-2.996277094,,,
30.28125,3,-3.380553961,,,
30.296875,3,-3.368896008,,,
30.3125,3,-2.989258051,,,
30.328125,3,-2.338684082,,,
30.34375,3,-1.549988031,,,
30.359375,3,-0.741577089,,,
30.375,3,-0.03771973,,,
30.390625,3,0.446044892,,,
30.40625,3,0.550598085,,,
30.421875,3,0.211852998,,,
30.4375,3,-0.508056581,,,
30.453125,3,-1.396850944,,,
30.46875,3,-2.157654047,,,
30.484375,3,-2.599060059,,,
30.5,3,-2.732177973,,,
30.515625,3,-2.763977051,,,
30.53125,3,-2.928467035,,,
30.546875,3,-3.315001965,,,
30.5625,3,-3.767944098,,,
30.578125,3,-3.987183094,,,
30.59375,3,-3.699462891,,,
30.609375,3,-2.87963891,,,
30.625,3,-1.763123035,,,
30.640625,3,-0.737182617,,,
30.65625,3,-0.118225098,,,
30.671875,3,0.03125,,,
30.6875,3,-0.098999023,,,
30.703125,3,-0.211914107,,,
30.71875,3,-0.090698242,,,
30.734375,3,0.266967803,,,
30.75,3,0.669189513,,,
30.765625,3,0.86907959,,,
30.78125,3,0.71081543,,,
30.796875,3,0.201110795,,,
30.8125,3,-0.480651885,,,
30.828125,3,-1.121399045,,,
30.84375,3,-1.531494021,,,
30.859375,3,-1.668395996,,,
30.875,3,-1.614501953,,,
30.890625,3,-1.462463021,,,
30.90625,3,-1.309386969,,,
30.921875,3,-1.153992057,,,
30.9375,3,-0.952880919,,,
30.953125,3,-0.661804199,,,
30.96875,3,-0.310790986,,,
30.984375,3,-0.001708984,,,
31,3,0.108276397,,,
31.015625,3,-0.111694299,,,
31.03125,3,-0.704223573,,,
31.046875,3,-1.575562,,,
31.0625,3,-2.491455078,,,
31.078125,3,-3.175292969,,,
31.09375,3,-3.398437977,,,
31.109375,3,-3.071594,,,
31.125,3,-2.299254894,,,
31.140625,3,-1.333130002,,,
31.15625,3,-0.447753906,,,
31.171875,3,0.149902299,,,
31.1875,3,0.409057587,,,
31.203125,3,0.414916992,,,
31.21875,3,0.301757813,,,
31.234375,3,0.198730499,,,
31.25,3,0.142028794,,,
31.265625,3,0.1045532,,,
31.28125,3,0.025146481,,,
31.296875,3,-0.146728501,,,
31.3125,3,-0.413452089,,,
31.328125,3,-0.736083984,,,
31.34375,3,-1.034240961,,,
31.359375,3,-1.225098014,,,
31.375,3,-1.279418945,,,
31.390625,3,-1.199890018,,,
31.40625,3,-1.049805045,,,
31.421875,3,-0.911621094,,,
31.4375,3,-0.836853027,,,
31.453125,3,-0.815246582,,,
31.46875,3,-0.799926817,,,
31.484375,3,-0.732543886,,,
31.5,3,-0.60321039,,,
31.515625,3,-0.474731386,,,
31.53125,3,-0.444152802,,,
31.546875,3,-0.602478027,,,
31.5625,3,-0.971679688,,,
31.578125,3,-1.492125988,,,
31.59375,3,-2.03790307,,,
31.609375,3,-2.488646984,,,
31.625,3,-2.764281988,,,
31.640625,3,-2.846069098,,,
31.65625,3,-2.760925055,,,
31.671875,3,-2.558532953,,,
31.6875,3,-2.254395008,,,
31.703125,3,-1.851624012,,,
31.71875,3,-1.339416981,,,
31.734375,3,-0.72491461,,,
31.75,3,-0.063476563,,,
31.765625,3,0.554199219,,,
31.78125,3,1.023499012,,,
31.796875,3,1.263489008,,,
31.8125,3,1.250365973,,,
31.828125,3,1.030518055,,,
31.84375,3,0.696716309,,,
31.859375,3,0.33984381,,,
31.875,3,0.036437988,,,
31.890625,3,-0.163207993,,,
31.90625,3,-0.237182602,,,
31.921875,3,-0.166931197,,,
31.9375,3,0.043762211,,,
31.953125,3,0.358337402,,,
31.96875,3,0.682189882,,,
31.984375,3,0.887206972,,,
32,4,0.862854004,,,
32.015625,4,0.581726074,,,
32.03125,4,0.123901397,,,
32.046875,4,-0.341308594,,,
32.0625,4,-0.652893126,,,
32.078125,4,-0.725219727,,,
32.09375,4,-0.601074219,,,
32.109375,4,-0.399047911,,,
32.125,4,-0.244140595,,,
32.140625,4,-0.206420898,,,
32.15625,4,-0.279724091,,,
32.171875,4,-0.444152802,,,
32.1875,4,-0.685424805,,,
32.203125,4,-1.014160037,,,
32.21875,4,-1.398620963,,,
32.234375,4,-1.746399045,,,
32.25,4,-1.901489019,,,
32.265625,4,-1.733520985,,,
32.28125,4,-1.247252941,,,
32.296875,4,-0.573974609,,,
32.3125,4,0.080444343,,,
32.328125,4,0.522643983,,,
32.34375,4,0.710693419,,,
32.359375,4,0.70715332,,,
32.375,4,0.619628906,,,
32.390625,4,0.521057129,,,
32.40625,4,0.396484405,,,
32.421875,4,0.171203598,,,
32.4375,4,-0.201232895,,,
32.453125,4,-0.700744629,,,
32.46875,4,-1.239318967,,,
32.484375,4,-1.688231945,,,
32.5,4,-1.96508801,,,
32.515625,4,-2.010071039,,,
32.53125,4,-1.786620975,,,
32.546875,4,-1.302001953,,,
32.5625,4,-0.600280821,,,
32.578125,4,0.198486298,,,
32.59375,4,0.901733398,,,
32.609375,4,1.301208019,,,
32.625,4,1.289916992,,,
32.640625,4,0.888427675,,,
32.65625,4,0.274963409,,,
32.671875,4,-0.287658691,,,
32.6875,4,-0.600219727,,,
32.703125,4,-0.600219727,,,
32.71875,4,-0.343261689,,,
32.734375,4,0.02197266,,,
32.75,4,0.397583008,,,
32.765625,4,0.742797911,,,
32.78125,4,1.034423947,,,
32.796875,4,1.252257943,,,
32.8125,4,1.354431033,,,
32.828125,4,1.283568978,,,
32.84375,4,1.021728993,,,
32.859375,4,0.638000488,,,
32.875,4,0.221740693,,,
32.890625,4,-0.129943803,,,
32.90625,4,-0.35321039,,,
32.921875,4,-0.425231904,,,
32.9375,4,-0.365478486,,,
32.953125,4,-0.184875503,,,
32.96875,4,0.080566414,,,
32.984375,4,0.410522491,,,
33,4,0.75012207,,,
33.015625,4,1.034240961,,,
33.03125,4,1.200073004,,,
33.046875,4,1.213683963,,,
33.0625,4,1.061951041,,,
33.078125,4,0.773254395,,,
33.09375,4,0.385437012,,,
33.109375,4,-0.034057621,,,
33.125,4,-0.426513702,,,
33.140625,4,-0.720153809,,,
33.15625,4,-0.889465272,,,
33.171875,4,-0.919250488,,,
33.1875,4,-0.815307617,,,
33.203125,4,-0.594421387,,,
33.21875,4,-0.262023896,,,
33.234375,4,0.143127397,,,
33.25,4,0.566650391,,,
33.265625,4,0.912658691,,,
33.28125,4,1.084838986,,,
33.296875,4,1.018615961,,,
33.3125,4,0.751464784,,,
33.328125,4,0.394714385,,,
33.34375,4,0.079406738,,,
33.359375,4,-0.118896499,,,
33.375,4,-0.210143998,,,
33.390625,4,-0.311096191,,,
33.40625,4,-0.524475098,,,
33.421875,4,-0.862793028,,,
33.4375,4,-1.226989985,,,
33.453125,4,-1.426025033,,,
33.46875,4,-1.315734983,,,
33.484375,4,-0.867370606,,,
33.5,4,-0.227111802,,,
33.515625,4,0.391113311,,,
33.53125,4,0.792175293,,,
33.546875,4,0.904296875,,,
33.5625,4,0.787475586,,,
33.578125,4,0.549011171,,,
33.59375,4,0.268005401,,,
33.609375,4,-0.03546143,,,
33.625,4,-0.378051788,,,
33.640625,4,-0.750305176,,,
33.65625,4,-1.113708019,,,
33.671875,4,-1.402405024,,,
33.6875,4,-1.586913943,,,
33.703125,4,-1.663208008,,,
33.71875,4,-1.648620963,,,
33.734375,4,-1.566406012,,,
33.75,4,-1.406432986,,,
33.765625,4,-1.181213021,,,
33.78125,4,-0.922790527,,,
33.796875,4,-0.705383301,,,
33.8125,4,-0.602844179,,,
33.828125,4,-0.615478516,,,
33.84375,4,-0.674682617,,,
33.859375,4,-0.699157715,,,
33.875,4,-0.655273378,,,
33.890625,4,-0.606750488,,,
33.90625,4,-0.65826422,,,
33.921875,4,-0.863037109,,,
33.9375,4,-1.161437988,,,
33.953125,4,-1.411010981,,,
33.96875,4,-1.484923959,,,
33.984375,4,-1.409301996,,,
34,4,-1.396545053,,,
34.015625,4,-1.735352039,,,
34.03125,4,-2.601928949,,,
34.046875,4,-3.905518055,,,
34.0625,4,-5.284973145,,,
34.078125,4,-6.243957996,,,
34.09375,4,-6.418457031,,,
34.109375,4,-5.811645985,,,
34.125,4,-4.866088867,,,
34.140625,4,-4.31182909,,,
34.15625,4,-4.886719227,,,
34.171875,4,-6.903258801,,,
34.1875,4,-10.09424019,,,
34.203125,4,-13.61443996,,,
34.21875,4,-16.35938072,,,
34.234375,4,-17.46056938,,,
34.25,4,-16.69866943,,,
34.265625,4,-14.69104004,,,
34.28125,4,-12.65692043,,,
34.296875,4,-11.93054008,,,
34.3125,4,-13.32520008,,,
34.328125,4,-16.7435894,,,
34.34375,4,-21.12177086,,,
34.359375,4,-24.85687065,,,
34.375,4,-26.48736954,,,
34.390625,4,-25.375,,,
34.40625,4,-22.16198921,,,
34.421875,4,-18.75268936,,,
34.4375,4,-17.88104057,,,
34.453125,4,-22.16173935,,,
34.46875,4,-32.89947891,,,
34.484375,4,-49.08288956,,,
34.5,4,-67.02655029,,,
34.515625,4,-80.94110107,,,
34.53125,4,-84.44641113,,,
34.546875,4,-72.59570313,,,
34.5625,4,-43.82001114,,,
34.578125,4,-0.78918457,,,
34.59375,4,49.99988174,,,
34.609375,4,99.88989258,,,
34.625,4,140.3822937,,,
34.640625,4,165.3643951,,,
34.65625,4,172.4958038,,,
34.671875,4,163.4985046,,,
34.6875,4,143.2315063,,,
34.703125,4,117.8901978,,,
34.71875,4,93.06903076,,,
34.734375,4,72.21044922,,,
34.75,4,55.96234131,,,
34.765625,4,42.65996933,,,
34.78125,4,29.70690918,,,
34.796875,4,15.12646008,,,
34.8125,4,-1.363281012,,,
34.828125,4,-18.35137939,,,
34.84375,4,-33.53638077,,,
34.859375,4,-44.89233017,,,
34.875,4,-51.49224854,,,
34.890625,4,-53.6154213,,,
34.90625,4,-52.19849014,,,
34.921875,4,-48.05157089,,,
34.9375,4,-41.55157089,,,
34.953125,4,-32.83269882,,,
34.96875,4,-22.26501083,,,
34.984375,4,-10.80737019,,,
35,4,0.051147461,,,
35.015625,4,8.755493164,,,
35.03125,4,14.3624897,,,
35.046875,4,16.97374916,,,
35.0625,4,17.61523056,,,
35.078125,4,17.76074028,,,
35.09375,4,18.61730957,,,
35.109375,4,20.65679932,,,
35.125,4,23.45618057,,,
35.140625,4,26.00317001,,,
35.15625,4,27.20111084,,,
35.171875,4,26.35058975,,,
35.1875,4,23.41809082,,,
35.203125,4,18.86706924,,,
35.21875,4,13.34088039,,,
35.234375,4,7.277893066,,,
35.25,4,0.78314209,,,
35.265625,4,-6.199462891,,,
35.28125,4,-13.5667696,,,
35.296875,4,-20.79320908,,,
35.3125,4,-26.96228027,,,
35.328125,4,-31.11339951,,,
35.34375,4,-32.65459824,,,
35.359375,4,-31.64911079,,,
35.375,4,-28.73888969,,,
35.390625,4,-24.8626709,,,
35.40625,4,-20.87738037,,,
35.421875,4,-17.36138916,,,
35.4375,4,-14.58362007,,,
35.453125,4,-12.60326958,,,
35.46875,4,-11.40625,,,
35.484375,4,-10.9402504,,,
35.5,4,-11.1016798,,,
35.515625,4,-11.76776028,,,
35.53125,4,-12.77844048,,,
35.546875,4,-13.95604992,,,
35.5625,4,-15.12780952,,,
35.578125,4,-16.09613037,,,
35.59375,4,-16.67114067,,,
35.609375,4,-16.67731094,,,
35.625,4,-16.06171036,,,
35.640625,4,-14.87639999,,,
35.65625,4,-13.25603962,,,
35.671875,4,-11.30023003,,,
35.6875,4,-9.067382813,,,
35.703125,4,-6.617797852,,,
35.71875,4,-4.126525879,,,
35.734375,4,-1.989562988,,,
35.75,4,-0.767822325,,,
35.765625,4,-0.997314513,,,
35.78125,4,-2.864624023,,,
35.796875,4,-6.047484875,,,
35.8125,4,-9.755859375,,,
35.828125,4,-13.08209038,,,
35.84375,4,-15.39000988,,,
35.859375,4,-16.62915039,,,
35.875,4,-17.29870987,,,
35.890625,4,-18.18066025,,,
35.90625,4,-19.92053032,,,
35.921875,4,-22.66942978,,,
35.9375,4,-25.98541069,,,
35.953125,4,-29.01654053,,,
35.96875,4,-30.91003037,,,
35.984375,4,-31.29639053,,,
36,4,-30.58806992,,,
36.015625,4,-29.94091988,,,
36.03125,4,-30.77508926,,,
36.046875,4,-34.07244873,,,
36.0625,4,-39.78557968,,,
36.078125,4,-46.71667099,,,
36.09375,4,-52.97668076,,,
36.109375,4,-56.8274498,,,
36.125,4,-57.38763046,,,
36.140625,4,-54.83295059,,,
36.15625,4,-50.13739014,,,
36.171875,4,-44.57067871,,,
36.1875,4,-39.35235977,,,
36.203125,4,-35.52611923,,,
36.21875,4,-33.80340958,,,
36.234375,4,-34.25542831,,,
36.25,4,-35.86780167,,,
36.265625,4,-36.22192001,,,
36.28125,4,-31.6937294,,,
36.296875,4,-18.40979004,,,
36.3125,4,6.285155773,,,
36.328125,4,42.40478897,,,
36.34375,4,86.73858643,,,
36.359375,4,133.4445038,,,
36.375,4,175.6896057,,,
36.390625,4,207.5671997,,,
36.40625,4,225.6419983,,,
36.421875,4,229.5144958,,,
36.4375,4,221.3336029,,,
36.453125,4,204.7622986,,,
36.46875,4,183.8045044,,,
36.484375,4,161.9514008,,,
36.5,4,141.9651031,,,
36.515625,4,126.0008011,,,
36.53125,4,115.7113037,,,
36.546875,4,112.0203018,,,
36.5625,4,114.5821991,,,
36.578125,4,121.4187012,,,
36.59375,4,129.2198029,,,
36.609375,4,134.2371063,,,
36.625,4,133.4779968,,,
36.640625,4,125.6007996,,,
36.65625,4,111.0217972,,,
36.671875,4,91.36591339,,,
36.6875,4,68.59783936,,,
36.703125,4,44.27661133,,,
36.71875,4,19.33465958,,,
36.734375,4,-5.689636231,,,
36.75,4,-30.28174019,,,
36.765625,4,-53.72705078,,,
36.78125,4,-75.18865967,,,
36.796875,4,-93.92133331,,,
36.8125,4,-109.5361023,,,
36.828125,4,-121.9670029,,,
36.84375,4,-131.3535004,,,
36.859375,4,-137.8466949,,,
36.875,4,-141.5034027,,,
36.890625,4,-142.438797,,,
36.90625,4,-140.8845978,,,
36.921875,4,-137.2310028,,,
36.9375,4,-132.0225067,,,
36.953125,4,-125.8261032,,,
36.96875,4,-119.055603,,,
36.984375,4,-112.0009003,,,
37,4,-104.8816986,,,
37.015625,4,-97.87988281,,,
37.03125,4,-91.09246826,,,
37.046875,4,-84.3583374,,,
37.0625,4,-77.21862793,,,
37.078125,4,-69.12078857,,,
37.09375,4,-59.76079941,,,
37.109375,4,-49.42181015,,,
37.125,4,-39.01708984,,,
37.140625,4,-29.69592094,,,
37.15625,4,-22.26782036,,,
37.171875,4,-16.81183052,,,
37.1875,4,-12.72210979,,,
37.203125,4,-9.196838379,,,
37.21875,4,-5.8125,,,
37.234375,4,-2.756531,,,
37.25,4,-0.616516113,,,
37.265625,4,0.134826705,,,
37.28125,4,-0.455810487,,,
37.296875,4,-1.716918945,,,
37.3125,4,-2.731688976,,,
37.328125,4,-2.821410894,,,
37.34375,4,-1.892456055,,,
37.359375,4,-0.40814209,,,
37.375,4,0.970458984,,,
37.390625,4,1.707275033,,,
37.40625,4,1.573241949,,,
37.421875,4,0.597717285,,,
37.4375,4,-1.127501965,,,
37.453125,4,-3.546020985,,,
37.46875,4,-6.563660145,,,
37.484375,4,-9.895019531,,,
37.5,4,-12.92998981,,,
37.515625,4,-14.88525009,,,
37.53125,4,-15.12427044,,,
37.546875,4,-13.55095959,,,
37.5625,4,-10.7643404,,,
37.578125,4,-7.926331043,,,
37.59375,4,-6.279053211,,,
37.609375,4,-6.649353027,,,
37.625,4,-9.076538086,,,
37.640625,4,-12.69909954,,,
37.65625,4,-15.95409966,,,
37.671875,4,-16.96270943,,,
37.6875,4,-14.12341022,,,
37.703125,4,-6.640441895,,,
37.71875,4,5.064696789,,,
37.734375,4,19.30414009,,,
37.75,4,33.53699112,,,
37.765625,4,45.11193848,,,
37.78125,4,52.0864296,,,
37.796875,4,53.82703018,,,
37.8125,4,51.07843018,,,
37.828125,4,45.56921005,,,
37.84375,4,39.22167969,,,
37.859375,4,33.51177979,,,
37.875,4,29.03046036,,,
37.890625,4,25.55109024,,,
37.90625,4,22.37060928,,,
37.921875,4,18.82538033,,,
37.9375,4,14.62292004,,,
37.953125,4,9.961242676,,,
37.96875,4,5.350159168,,,
37.984375,4,1.268982053,,,
38,4,-2.042968988,,,
38.015625,4,-4.700255871,,,
38.03125,4,-6.983214855,,,
38.046875,4,-9.109619141,,,
38.0625,4,-11.05286026,,,
38.078125,4,-12.5946703,,,
38.09375,4,-13.50806046,,,
38.109375,4,-13.79199028,,,
38.125,4,-13.76080036,,,
38.140625,4,-13.91656017,,,
38.15625,4,-14.67047024,,,
38.171875,4,-16.01453018,,,
38.1875,4,-17.4836998,,,
38.203125,4,-18.34148979,,,
38.21875,4,-18.02178955,,,
38.234375,4,-16.53210068,,,
38.25,4,-14.58837986,,,
38.265625,4,-13.31116009,,,
38.28125,4,-13.67809963,,,
38.296875,4,-15.98151016,,,
38.3125,4,-19.57897949,,,
38.328125,4,-23.17419052,,,
38.34375,4,-25.47772026,,,
38.359375,4,-25.79260063,,,
38.375,4,-24.2784996,,,
38.390625,4,-21.84795952,,,
38.40625,4,-19.64806938,,,
38.421875,4,-18.68895912,,,
38.4375,4,-19.68120956,,,
38.453125,4,-22.93145943,,,
38.46875,4,-28.10699081,,,
38.484375,4,-33.79285049,,,
38.5,4,-37.21173096,,,
38.515625,4,-34.81182861,,,
38.53125,4,-23.72020912,,,
38.546875,4,-3.571350098,,,
38.5625,4,22.46483994,,,
38.578125,4,48.26391983,,,
38.59375,4,66.9989624,,,
38.609375,4,73.96765137,,,
38.625,4,68.52570343,,,
38.640625,4,54.04986954,,,
38.65625,4,36.10570908,,,
38.671875,4,19.89385986,,,
38.6875,4,8.422058106,,,
38.703125,4,2.108458996,,,
38.71875,4,-0.312744111,,,
38.734375,4,-0.43573001,,,
38.75,4,0.65222168,,,
38.765625,4,2.485352039,,,
38.78125,4,4.814696789,,,
38.796875,4,7.23449707,,,
38.8125,4,9.233581543,,,
38.828125,4,10.51648045,,,
38.84375,4,11.22089005,,,
38.859375,4,11.98346043,,,
38.875,4,13.69396973,,,
38.890625,4,17.00531006,,,
38.90625,4,21.98138046,,,
38.921875,4,27.99994087,,,
38.9375,4,33.89989853,,,
38.953125,4,38.43109131,,,
38.96875,4,40.70288086,,,
38.984375,4,40.52386093,,,
39,4,38.48865128,,,
39.015625,4,35.73443985,,,
39.03125,4,33.52698135,,,
39.046875,4,32.78461075,,,
39.0625,4,33.75109863,,,
39.078125,4,35.8460083,,,
39.09375,4,37.85155869,,,
39.109375,4,38.38280869,,,
39.125,4,36.49193954,,,
39.140625,4,32.03203964,,,
39.15625,4,25.65839005,,,
39.171875,4,18.3725605,,,
39.1875,4,11.00977039,,,
39.203125,4,3.920166016,,,
39.21875,4,-2.924683094,,,
39.234375,4,-9.530883789,,,
39.25,4,-15.59442043,,,
39.265625,4,-20.55999947,,,
39.28125,4,-23.97436905,,,
39.296875,4,-25.89520073,,,
39.3125,4,-26.97234917,,,
39.328125,4,-28.09070015,,,
39.34375,4,-29.86388969,,,
39.359375,4,-32.254879,,,
39.375,4,-34.66571045,,,
39.390625,4,-36.42412949,,,
39.40625,4,-37.23138046,,,
39.421875,4,-37.29693985,,,
39.4375,4,-37.0177002,,,
39.453125,4,-36.5911293,,,
39.46875,4,-35.77978897,,,
39.484375,4,-34.03876114,,,
39.5,4,-30.85515976,,,
39.515625,4,-26.06702042,,,
39.53125,4,-19.93091011,,,
39.546875,4,-13.00512981,,,
39.5625,4,-5.862244129,,,
39.578125,4,0.978881776,,,
39.59375,4,7.057250977,,,
39.609375,4,11.91662979,,,
39.625,4,15.12353992,,,
39.640625,4,16.41949081,,,
39.65625,4,15.86835003,,,
39.671875,4,13.88860989,,,
39.6875,4,11.12384033,,,
39.703125,4,8.193908691,,,
39.71875,4,5.479125977,,,
39.734375,4,3.070312977,,,
39.75,4,0.921325684,,,
39.765625,4,-0.983215272,,,
39.78125,4,-2.51739502,,,
39.796875,4,-3.496337891,,,
39.8125,4,-3.804503918,,,
39.828125,4,-3.502929926,,,
39.84375,4,-2.845215082,,,
39.859375,4,-2.137938976,,,
39.875,4,-1.607727051,,,
39.890625,4,-1.294800043,,,
39.90625,4,-1.103698969,,,
39.921875,4,-0.875976622,,,
39.9375,4,-0.483337402,,,
39.953125,4,0.082275391,,,
39.96875,4,0.755493224,,,
39.984375,4,1.448729992,,,
40,5,2.203613043,,,
40.015625,5,3.222472906,,,
40.03125,5,4.838867188,,,
40.046875,5,7.324951172,,,
40.0625,5,10.70495987,,,
40.078125,5,14.62627983,,,
40.09375,5,18.45080948,,,
40.109375,5,21.48089981,,,
40.125,5,23.27185059,,,
40.140625,5,23.84485054,,,
40.15625,5,23.66119003,,,
40.171875,5,23.35631943,,,
40.1875,5,23.3737793,,,
40.203125,5,23.7623291,,,
40.21875,5,24.16278076,,,
40.234375,5,24.10277939,,,
40.25,5,23.26256943,,,
40.265625,5,21.62578964,,,
40.28125,5,19.38817978,,,
40.296875,5,16.77411079,,,
40.3125,5,13.87994003,,,
40.328125,5,10.74384022,,,
40.34375,5,7.557982922,,,
40.359375,5,4.727416992,,,
40.375,5,2.699523926,,,
40.390625,5,1.602234006,,,
40.40625,5,0.954040527,,,
40.421875,5,-0.211303696,,,
40.4375,5,-2.825927973,,,
40.453125,5,-7.173706055,,,
40.46875,5,-12.56505966,,,
40.484375,5,-17.66534042,,,
40.5,5,-21.27746964,,,
40.515625,5,-23.05743027,,,
40.53125,5,-23.68188095,,,
40.546875,5,-24.36651993,,,
40.5625,5,-26.05681992,,,
40.578125,5,-28.81078911,,,
40.59375,5,-31.83209038,,,
40.609375,5,-34.03911972,,,
40.625,5,-34.74090958,,,
40.640625,5,-34.07666016,,,
40.65625,5,-32.92058945,,,
40.671875,5,-32.46435928,,,
40.6875,5,-33.73175049,,,
40.703125,5,-37.21361923,,,
40.71875,5,-42.71569824,,,
40.734375,5,-49.3810997,,,
40.75,5,-55.99914932,,,
40.765625,5,-61.34991074,,,
40.78125,5,-64.60217285,,,
40.796875,5,-65.51409912,,,
40.8125,5,-64.44434357,,,
40.828125,5,-62.08319092,,,
40.84375,5,-59.21875,,,
40.859375,5,-56.65166855,,,
40.875,5,-55.12097168,,,
40.890625,5,-55.05804062,,,
40.90625,5,-56.18323135,,,
40.921875,5,-57.36737061,,,
40.9375,5,-57.00719833,,,
40.953125,5,-53.9973793,,,
40.96875,5,-48.87744141,,,
40.984375,5,-44.3772583,,,
41,5,-44.62694931,,,
41.015625,5,-53.32049942,,,
41.03125,5,-71.54083252,,,
41.046875,5,-96.64044189,,,
41.0625,5,-122.9051971,,,
41.078125,5,-143.7695007,,,
41.09375,5,-154.4864044,,,
41.109375,5,-153.729599,,,
41.125,5,-143.5437927,,,
41.140625,5,-127.7393036,,,
41.15625,5,-109.8467026,,,
41.171875,5,-91.71179199,,,
41.1875,5,-73.13262939,,,
41.203125,5,-52.53992081,,,
41.21875,5,-27.87158012,,,
41.234375,5,2.471985102,,,
41.25,5,38.83826065,,,
41.265625,5,79.85314941,,,
41.28125,5,122.4906006,,,
41.296875,5,162.5868988,,,
41.3125,5,195.686203,,,
41.328125,5,218.1148071,,,
41.34375,5,227.8878937,,,
41.359375,5,225.2234955,,,
41.375,5,212.399704,,,
41.390625,5,193.0890961,,,
41.40625,5,171.5016937,,,
41.421875,5,151.5070953,,,
41.4375,5,135.936203,,,
41.453125,5,126.1981964,,,
41.46875,5,122.3283997,,,
41.484375,5,123.1287994,,,
41.5,5,126.7846985,,,
41.515625,5,131.4445953,,,
41.53125,5,135.7769928,,,
41.546875,5,139.3256989,,,
41.5625,5,142.4790955,,,
41.578125,5,146.2317047,,,
41.59375,5,151.593399,,,
41.609375,5,159.079895,,,
41.625,5,168.0263977,,,
41.640625,5,176.4067993,,,
41.65625,5,181.1652069,,,
41.671875,5,179.1569061,,,
41.6875,5,168.3735046,,,
41.703125,5,148.6425934,,,
41.71875,5,121.5951004,,,
41.734375,5,89.8347168,,,
41.75,5,55.8927002,,,
41.765625,5,21.57122993,,,
41.78125,5,-11.98816013,,,
41.796875,5,-43.73804092,,,
41.8125,5,-72.25183105,,,
41.828125,5,-95.77606201,,,
41.84375,5,-112.8836975,,,
41.859375,5,-123.1563034,,,
41.875,5,-127.5122986,,,
41.890625,5,-127.8013,,,
41.90625,5,-125.9832001,,,
41.921875,5,-123.3057022,,,
41.9375,5,-120.023201,,,
41.953125,5,-115.6964035,,,
41.96875,5,-109.8000031,,,
41.984375,5,-102.3145981,,,
42,5,-93.84539795,,,
42.015625,5,-85.34442139,,,
42.03125,5,-77.65527344,,,
42.046875,5,-71.13123322,,,
42.0625,5,-65.60253906,,,
42.078125,5,-60.59259033,,,
42.09375,5,-55.65985107,,,
42.109375,5,-50.61420059,,,
42.125,5,-45.58612061,,,
42.140625,5,-40.90179062,,,
42.15625,5,-36.85900879,,,
42.171875,5,-33.57519913,,,
42.1875,5,-30.95972061,,,
42.203125,5,-28.7350502,,,
42.21875,5,-26.58898926,,,
42.234375,5,-24.29401016,,,
42.25,5,-21.77832031,,,
42.265625,5,-19.1114502,,,
42.28125,5,-16.44507027,,,
42.296875,5,-13.92450047,,,
42.3125,5,-11.62438965,,,
42.328125,5,-9.522644043,,,
42.34375,5,-7.601624012,,,
42.359375,5,-5.843140125,,,
42.375,5,-4.307495117,,,
42.390625,5,-3.082458019,,,
42.40625,5,-2.265259028,,,
42.421875,5,-1.861022949,,,
42.4375,5,-1.781859994,,,
42.453125,5,-1.849670053,,,
42.46875,5,-1.883056998,,,
42.484375,5,-1.780518055,,,
42.5,5,-1.541931033,,,
42.515625,5,-1.249390006,,,
42.53125,5,-0.998596191,,,
42.546875,5,-0.829101622,,,
42.5625,5,-0.709594727,,,
42.578125,5,-0.599182129,,,
42.59375,5,-0.450378388,,,
42.609375,5,-0.307006806,,,
42.625,5,-0.234802201,,,
42.640625,5,-0.29083249,,,
42.65625,5,-0.475952089,,,
42.671875,5,-0.735717773,,,
42.6875,5,-1.009032965,,,
42.703125,5,-1.298462033,,,
42.71875,5,-1.644348025,,,
42.734375,5,-2.073668957,,,
42.75,5,-2.527832031,,,
42.765625,5,-2.840209961,,,
42.78125,5,-2.812072992,,,
42.796875,5,-2.369019032,,,
42.8125,5,-1.611876965,,,
42.828125,5,-0.803222716,,,
42.84375,5,-0.228698701,,,
42.859375,5,-0.036315922,,,
42.875,5,-0.190368697,,,
42.890625,5,-0.502807617,,,
42.90625,5,-0.765991211,,,
42.921875,5,-0.857666016,,,
42.9375,5,-0.78314209,,,
42.953125,5,-0.616333008,,,
42.96875,5,-0.424865693,,,
42.984375,5,-0.225768998,,,
43,5,0.006164551,,,
43.015625,5,0.275878906,,,
43.03125,5,0.555664122,,,
43.046875,5,0.765136719,,,
43.0625,5,0.849853516,,,
43.078125,5,0.760620117,,,
43.09375,5,0.534973085,,,
43.109375,5,0.240844697,,,
43.125,5,-0.004821777,,,
43.140625,5,-0.110534698,,,
43.15625,5,-0.01208496,,,
43.171875,5,0.258239687,,,
43.1875,5,0.591918886,,,
43.203125,5,0.818908691,,,
43.21875,5,0.799499512,,,
43.234375,5,0.468505889,,,
43.25,5,-0.109680198,,,
43.265625,5,-0.763244629,,,
43.28125,5,-1.29608202,,,
43.296875,5,-1.551758051,,,
43.3125,5,-1.468688965,,,
43.328125,5,-1.082396984,,,
43.34375,5,-0.524841309,,,
43.359375,5,0.070678711,,,
43.375,5,0.581115723,,,
43.390625,5,0.947143614,,,
43.40625,5,1.166808963,,,
43.421875,5,1.278748035,,,
43.4375,5,1.330016971,,,
43.453125,5,1.347107053,,,
43.46875,5,1.319946051,,,
43.484375,5,1.177368045,,,
43.5,5,0.855041504,,,
43.515625,5,0.317748994,,,
43.53125,5,-0.404907197,,,
43.546875,5,-1.197875977,,,
43.5625,5,-1.899047971,,,
43.578125,5,-2.362670898,,,
43.59375,5,-2.510680914,,,
43.609375,5,-2.364989996,,,
43.625,5,-2.031493902,,,
43.640625,5,-1.627624989,,,
43.65625,5,-1.218994021,,,
43.671875,5,-0.807800293,,,
43.6875,5,-0.3125,,,
43.703125,5,0.312194794,,,
43.71875,5,1.053771973,,,
43.734375,5,1.773681998,,,
43.75,5,2.283751965,,,
43.765625,5,2.444092035,,,
43.78125,5,2.249816895,,,
43.796875,5,1.844115973,,,
43.8125,5,1.399780035,,,
43.828125,5,1.026366949,,,
43.84375,5,0.702087402,,,
43.859375,5,0.337280303,,,
43.875,5,-0.1212769,,,
43.890625,5,-0.545104981,,,
43.90625,5,-0.716247618,,,
43.921875,5,-0.383972198,,,
43.9375,5,0.494140595,,,
43.953125,5,1.725952029,,,
43.96875,5,2.940856934,,,
43.984375,5,3.761414051,,,
44,5,3.980773926,,,
44.015625,5,3.590514898,,,
44.03125,5,2.712646008,,,
44.046875,5,1.479858041,,,
44.0625,5,0.01385498,,,
44.078125,5,-1.551697016,,,
44.09375,5,-3.016174078,,,
44.109375,5,-4.085937977,,,
44.125,5,-4.499573231,,,
44.140625,5,-4.175292969,,,
44.15625,5,-3.241210938,,,
44.171875,5,-2.012695074,,,
44.1875,5,-0.847168028,,,
44.203125,5,0.004699707,,,
44.21875,5,0.470214814,,,
44.234375,5,0.602966309,,,
44.25,5,0.542297423,,,
44.265625,5,0.391113311,,,
44.28125,5,0.220458999,,,
44.296875,5,0.064453133,,,
44.3125,5,-0.053466801,,,
44.328125,5,-0.129333496,,,
44.34375,5,-0.154052705,,,
44.359375,5,-0.130248994,,,
44.375,5,-0.09185791,,,
44.390625,5,-0.062255859,,,
44.40625,5,-0.087402336,,,
44.421875,5,-0.153198198,,,
44.4375,5,-0.201721206,,,
44.453125,5,-0.110412598,,,
44.46875,5,0.2188721,,,
44.484375,5,0.828430176,,,
44.5,5,1.607117057,,,
44.515625,5,2.332642078,,,
44.53125,5,2.71154809,,,
44.546875,5,2.543030024,,,
44.5625,5,1.805907965,,,
44.578125,5,0.680908203,,,
44.59375,5,-0.541687012,,,
44.609375,5,-1.596740961,,,
44.625,5,-2.298827887,,,
44.640625,5,-2.614562988,,,
44.65625,5,-2.569031,,,
44.671875,5,-2.20300293,,,
44.6875,5,-1.551697016,,,
44.703125,5,-0.706298828,,,
44.71875,5,0.161560103,,,
44.734375,5,0.81237793,,,
44.75,5,1.047302008,,,
44.765625,5,0.803466797,,,
44.78125,5,0.252380401,,,
44.796875,5,-0.288024902,,,
44.8125,5,-0.476013213,,,
44.828125,5,-0.155395493,,,
44.84375,5,0.594177187,,,
44.859375,5,1.477295041,,,
44.875,5,2.160094976,,,
44.890625,5,2.427062988,,,
44.90625,5,2.249083996,,,
44.921875,5,1.755249023,,,
44.9375,5,1.123108029,,,
44.953125,5,0.495849609,,,
44.96875,5,-0.065856934,,,
44.984375,5,-0.504760683,,,
45,5,-0.767761171,,,
45.015625,5,-0.778015077,,,
45.03125,5,-0.491272003,,,
45.046875,5,0.045837399,,,
45.0625,5,0.673034728,,,
45.078125,5,1.178467035,,,
45.09375,5,1.372802973,,,
45.109375,5,1.180480957,,,
45.125,5,0.680786073,,,
45.140625,5,0.04541016,,,
45.15625,5,-0.520385683,,,
45.171875,5,-0.87902832,,,
45.1875,5,-0.982849121,,,
45.203125,5,-0.864624023,,,
45.21875,5,-0.585510314,,,
45.234375,5,-0.224792495,,,
45.25,5,0.174499497,,,
45.265625,5,0.544433594,,,
45.28125,5,0.831726074,,,
45.296875,5,0.952270508,,,
45.3125,5,0.860656679,,,
45.328125,5,0.53894043,,,
45.34375,5,0.042602539,,,
45.359375,5,-0.549804688,,,
45.375,5,-1.115234017,,,
45.390625,5,-1.573668957,,,
45.40625,5,-1.854614019,,,
45.421875,5,-1.918151975,,,
45.4375,5,-1.734557986,,,
45.453125,5,-1.309020996,,,
45.46875,5,-0.709106386,,,
45.484375,5,-0.045715328,,,
45.5,5,0.516479492,,,
45.515625,5,0.85333252,,,
45.53125,5,0.916625977,,,
45.546875,5,0.795776427,,,
45.5625,5,0.626342773,,,
45.578125,5,0.54083252,,,
45.59375,5,0.563781679,,,
45.609375,5,0.617736816,,,
45.625,5,0.58166498,,,
45.640625,5,0.349975586,,,
45.65625,5,-0.069274902,,,
45.671875,5,-0.571166992,,,
45.6875,5,-0.994812012,,,
45.703125,5,-1.219666004,,,
45.71875,5,-1.216735959,,,
45.734375,5,-1.047729015,,,
45.75,5,-0.796814024,,,
45.765625,5,-0.520202577,,,
45.78125,5,-0.204650894,,,
45.796875,5,0.192382798,,,
45.8125,5,0.699523926,,,
45.828125,5,1.257385016,,,
45.84375,5,1.751831055,,,
45.859375,5,2.011841059,,,
45.875,5,1.928527951,,,
45.890625,5,1.497009039,,,
45.90625,5,0.852539122,,,
45.921875,5,0.219787598,,,
45.9375,5,-0.1680298,,,
45.953125,5,-0.184143096,,,
45.96875,5,0.122741699,,,
45.984375,5,0.567627013,,,
46,5,0.937866211,,,
46.015625,5,1.100708008,,,
46.03125,5,1.057250977,,,
46.046875,5,0.947814882,,,
46.0625,5,0.909179688,,,
46.078125,5,0.990844727,,,
46.09375,5,1.071899056,,,
46.109375,5,0.969787598,,,
46.125,5,0.541992188,,,
46.140625,5,-0.148986802,,,
46.15625,5,-0.890380919,,,
46.171875,5,-1.400513053,,,
46.1875,5,-1.515807986,,,
46.203125,5,-1.279358029,,,
46.21875,5,-0.89642328,,,
46.234375,5,-0.587158203,,,
46.25,5,-0.46685791,,,
46.265625,5,-0.517700195,,,
46.28125,5,-0.631530821,,,
46.296875,5,-0.750915527,,,
46.3125,5,-0.863220215,,,
46.328125,5,-0.991333008,,,
46.34375,5,-1.128600955,,,
46.359375,5,-1.214843988,,,
46.375,5,-1.179625988,,,
46.390625,5,-1.002257943,,,
46.40625,5,-0.763183594,,,
46.421875,5,-0.597717285,,,
46.4375,5,-0.627624512,,,
46.453125,5,-0.852111816,,,
46.46875,5,-1.157837033,,,
46.484375,5,-1.374572992,,,
46.5,5,-1.352234006,,,
46.515625,5,-1.037415028,,,
46.53125,5,-0.521911621,,,
46.546875,5,0.026245121,,,
46.5625,5,0.452819794,,,
46.578125,5,0.680481017,,,
46.59375,5,0.746460021,,,
46.609375,5,0.761657715,,,
46.625,5,0.808837891,,,
46.640625,5,0.896850586,,,
46.65625,5,0.926452577,,,
46.671875,5,0.786315918,,,
46.6875,5,0.437683106,,,
46.703125,5,-0.02020264,,,
46.71875,5,-0.38659671,,,
46.734375,5,-0.466003388,,,
46.75,5,-0.199768096,,,
46.765625,5,0.285461396,,,
46.78125,5,0.793151915,,,
46.796875,5,1.118103027,,,
46.8125,5,1.197937012,,,
46.828125,5,1.104675055,,,
46.84375,5,0.970153809,,,
46.859375,5,0.888183594,,,
46.875,5,0.871398926,,,
46.890625,5,0.856445313,,,
46.90625,5,0.797973573,,,
46.921875,5,0.702941895,,,
46.9375,5,0.641113281,,,
46.953125,5,0.706420898,,,
46.96875,5,0.943359375,,,
46.984375,5,1.298462033,,,
47,5,1.654845953,,,
47.015625,5,1.904114008,,,
47.03125,5,1.966308951,,,
47.046875,5,1.844238043,,,
47.0625,5,1.601135016,,,
47.078125,5,1.331421018,,,
47.09375,5,1.092772961,,,
47.109375,5,0.932006776,,,
47.125,5,0.82434082,,,
47.140625,5,0.726257324,,,
47.15625,5,0.587646484,,,
47.171875,5,0.361206114,,,
47.1875,5,0.063049316,,,
47.203125,5,-0.274658203,,,
47.21875,5,-0.611999512,,,
47.234375,5,-0.903320313,,,
47.25,5,-1.155212045,,,
47.265625,5,-1.414062977,,,
47.28125,5,-1.716248035,,,
47.296875,5,-2.057739019,,,
47.3125,5,-2.351196051,,,
47.328125,5,-2.464478016,,,
47.34375,5,-2.274475098,,,
47.359375,5,-1.787719965,,,
47.375,5,-1.099486947,,,
47.390625,5,-0.397277802,,,
47.40625,5,0.1677856,,,
47.421875,5,0.524108887,,,
47.4375,5,0.711303711,,,
47.453125,5,0.821228027,,,
47.46875,5,0.914672911,,,
47.484375,5,0.992614687,,,
47.5,5,0.972717285,,,
47.515625,5,0.781677187,,,
47.53125,5,0.400024414,,,
47.546875,5,-0.096923828,,,
47.5625,5,-0.559936523,,,
47.578125,5,-0.808898926,,,
47.59375,5,-0.72668457,,,
47.609375,5,-0.286682099,,,
47.625,5,0.416015595,,,
47.640625,5,1.179137945,,,
47.65625,5,1.796447992,,,
47.671875,5,2.074645996,,,
47.6875,5,1.93670702,,,
47.703125,5,1.423156977,,,
47.71875,5,0.67980957,,,
47.734375,5,-0.108154297,,,
47.75,5,-0.778747618,,,
47.765625,5,-1.245849967,,,
47.78125,5,-1.486510992,,,
47.796875,5,-1.514893055,,,
47.8125,5,-1.375671029,,,
47.828125,5,-1.103271008,,,
47.84375,5,-0.744506776,,,
47.859375,5,-0.382080108,,,
47.875,5,-0.088073731,,,
47.890625,5,0.080078133,,,
47.90625,5,0.129943803,,,
47.921875,5,0.103332497,,,
47.9375,5,0.094177254,,,
47.953125,5,0.135376006,,,
47.96875,5,0.199096695,,,
47.984375,5,0.209533706,,,
48,6,0.092895508,,,
48.015625,6,-0.164123505,,,
48.03125,6,-0.484802187,,,
48.046875,6,-0.735412598,,,
48.0625,6,-0.796264589,,,
48.078125,6,-0.596984923,,,
48.09375,6,-0.158996597,,,
48.109375,6,0.440551788,,,
48.125,6,1.105041981,,,
48.140625,6,1.702942014,,,
48.15625,6,2.133239985,,,
48.171875,6,2.298949957,,,
48.1875,6,2.188720942,,,
48.203125,6,1.857360959,,,
48.21875,6,1.403442025,,,
48.234375,6,0.951599121,,,
48.25,6,0.591796875,,,
48.265625,6,0.353759795,,,
48.28125,6,0.204528794,,,
48.296875,6,0.108154297,,,
48.3125,6,0.01226807,,,
48.328125,6,-0.113586403,,,
48.34375,6,-0.313293487,,,
48.359375,6,-0.596801817,,,
48.375,6,-0.929260314,,,
48.390625,6,-1.204956055,,,
48.40625,6,-1.284180045,,,
48.421875,6,-1.084167004,,,
48.4375,6,-0.61895752,,,
48.453125,6,-0.056091309,,,
48.46875,6,0.396240205,,,
48.484375,6,0.567077577,,,
48.5,6,0.434692413,,,
48.515625,6,0.100097701,,,
48.53125,6,-0.311035186,,,
48.546875,6,-0.697997987,,,
48.5625,6,-1.040099978,,,
48.578125,6,-1.308716059,,,
48.59375,6,-1.436951041,,,
48.609375,6,-1.317687988,,,
48.625,6,-0.879333496,,,
48.640625,6,-0.190307602,,,
48.65625,6,0.5390625,,,
48.671875,6,1.040099978,,,
48.6875,6,1.131531,,,
48.703125,6,0.862548828,,,
48.71875,6,0.449768096,,,
48.734375,6,0.147216797,,,
48.75,6,0.103210397,,,
48.765625,6,0.264343292,,,
48.78125,6,0.453125,,,
48.796875,6,0.512451172,,,
48.8125,6,0.397338897,,,
48.828125,6,0.220947295,,,
48.84375,6,0.109130897,,,
48.859375,6,0.122985803,,,
48.875,6,0.190124497,,,
48.890625,6,0.1795654,,,
48.90625,6,-0.0166626,,,
48.921875,6,-0.38116461,,,
48.9375,6,-0.76727289,,,
48.953125,6,-1.001891971,,,
48.96875,6,-0.963195801,,,
48.984375,6,-0.684753418,,,
49,6,-0.308532715,,,
49.015625,6,-0.021057131,,,
49.03125,6,0.047119141,,,
49.046875,6,-0.118042,,,
49.0625,6,-0.430419892,,,
49.078125,6,-0.754150391,,,
49.09375,6,-0.966369629,,,
49.109375,6,-1.019042969,,,
49.125,6,-0.913146973,,,
49.140625,6,-0.69140631,,,
49.15625,6,-0.402526885,,,
49.171875,6,-0.060241699,,,
49.1875,6,0.315429688,,,
49.203125,6,0.702270508,,,
49.21875,6,1.059326053,,,
49.234375,6,1.333191037,,,
49.25,6,1.473083019,,,
49.265625,6,1.425171018,,,
49.28125,6,1.19769299,,,
49.296875,6,0.842529297,,,
49.3125,6,0.421447814,,,
49.328125,6,0.039855961,,,
49.34375,6,-0.249633804,,,
49.359375,6,-0.43133539,,,
49.375,6,-0.539794922,,,
49.390625,6,-0.63079828,,,
49.40625,6,-0.717407227,,,
49.421875,6,-0.75592041,,,
49.4375,6,-0.669555724,,,
49.453125,6,-0.431213409,,,
49.46875,6,-0.050720211,,,
49.484375,6,0.359069794,,,
49.5,6,0.716003418,,,
49.515625,6,0.965637207,,,
49.53125,6,1.136353016,,,
49.546875,6,1.303467035,,,
49.5625,6,1.494689941,,,
49.578125,6,1.663329959,,,
49.59375,6,1.692443967,,,
49.609375,6,1.437988043,,,
49.625,6,0.828674316,,,
49.640625,6,-0.095458977,,,
49.65625,6,-1.185791016,,,
49.671875,6,-2.20501709,,,
49.6875,6,-2.888123035,,,
49.703125,6,-3.035033941,,,
49.71875,6,-2.584899902,,,
49.734375,6,-1.666015983,,,
49.75,6,-0.559326172,,,
49.765625,6,0.358093292,,,
49.78125,6,0.803283691,,,
49.796875,6,0.716796875,,,
49.8125,6,0.267028809,,,
49.828125,6,-0.198791504,,,
49.84375,6,-0.370666504,,,
49.859375,6,-0.142211899,,,
49.875,6,0.353881806,,,
49.890625,6,0.824890077,,,
49.90625,6,0.999023378,,,
49.921875,6,0.79498291,,,
49.9375,6,0.360168487,,,
49.953125,6,-0.039428711,,,
49.96875,6,-0.149780303,,,
49.984375,6,0.086669922,,,
50,6,0.55670172,,,
50.015625,6,1.036193967,,,
50.03125,6,1.341918945,,,
50.046875,6,1.399413943,,,
50.0625,6,1.251464963,,,
50.078125,6,1.014404059,,,
50.09375,6,0.763916016,,,
50.109375,6,0.534423828,,,
50.125,6,0.315856904,,,
50.140625,6,0.101867698,,,
50.15625,6,-0.07800293,,,
50.171875,6,-0.176086396,,,
50.1875,6,-0.175170898,,,
50.203125,6,-0.114440903,,,
50.21875,6,-0.071411133,,,
50.234375,6,-0.134948701,,,
50.25,6,-0.309387207,,,
50.265625,6,-0.528686523,,,
50.28125,6,-0.683532715,,,
50.296875,6,-0.654663086,,,
50.3125,6,-0.425231904,,,
50.328125,6,-0.058776859,,,
50.34375,6,0.318054199,,,
50.359375,6,0.608093321,,,
50.375,6,0.749816895,,,
50.390625,6,0.786804199,,,
50.40625,6,0.77142328,,,
50.421875,6,0.742492676,,,
50.4375,6,0.670593321,,,
50.453125,6,0.484436005,,,
50.46875,6,0.147033706,,,
50.484375,6,-0.301330596,,,
50.5,6,-0.73059082,,,
50.515625,6,-0.984985411,,,
50.53125,6,-0.929992676,,,
50.546875,6,-0.555419922,,,
50.5625,6,0.051391602,,,
50.578125,6,0.752990723,,,
50.59375,6,1.381042004,,,
50.609375,6,1.810119987,,,
50.625,6,1.956421018,,,
50.640625,6,1.801085949,,,
50.65625,6,1.378234983,,,
50.671875,6,0.800964415,,,
50.6875,6,0.198364303,,,
50.703125,6,-0.287658691,,,
50.71875,6,-0.558776915,,,
50.734375,6,-0.598022521,,,
50.75,6,-0.450012207,,,
50.765625,6,-0.190002397,,,
50.78125,6,0.086853027,,,
50.796875,6,0.311523408,,,
50.8125,6,0.447814912,,,
50.828125,6,0.474487305,,,
50.84375,6,0.383850098,,,
50.859375,6,0.181579605,,,
50.875,6,-0.137207001,,,
50.890625,6,-0.544616699,,,
50.90625,6,-0.970153809,,,
50.921875,6,-1.336060047,,,
50.9375,6,-1.559203982,,,
50.953125,6,-1.598816037,,,
50.96875,6,-1.466796994,,,
50.984375,6,-1.215149045,,,
51,6,-0.917907715,,,
51.015625,6,-0.636535585,,,
51.03125,6,-0.393127412,,,
51.046875,6,-0.188110396,,,
51.0625,6,0.008972168,,,
51.078125,6,0.225524902,,,
51.09375,6,0.481079102,,,
51.109375,6,0.771667481,,,
51.125,6,1.075500011,,,
51.140625,6,1.331969976,,,
51.15625,6,1.47894299,,,
51.171875,6,1.45599401,,,
51.1875,6,1.251587033,,,
51.203125,6,0.899414122,,,
51.21875,6,0.484985411,,,
51.234375,6,0.096435547,,,
51.25,6,-0.215576202,,,
51.265625,6,-0.43585211,,,
51.28125,6,-0.586547911,,,
51.296875,6,-0.68170172,,,
51.3125,6,-0.723327577,,,
51.328125,6,-0.695556581,,,
51.34375,6,-0.596069276,,,
51.359375,6,-0.43170169,,,
51.375,6,-0.221984893,,,
51.390625,6,0.002563477,,,
51.40625,6,0.213928193,,,
51.421875,6,0.386047393,,,
51.4375,6,0.485839814,,,
51.453125,6,0.506103516,,,
51.46875,6,0.460998505,,,
51.484375,6,0.38861081,,,
51.5,6,0.330627412,,,
51.515625,6,0.311401397,,,
51.53125,6,0.320068389,,,
51.546875,6,0.32208249,,,
51.5625,6,0.324768096,,,
51.578125,6,0.360961914,,,
51.59375,6,0.512023926,,,
51.609375,6,0.817321777,,,
51.625,6,1.262938976,,,
51.640625,6,1.682556033,,,
51.65625,6,1.869263053,,,
51.671875,6,1.661193967,,,
51.6875,6,1.045043945,,,
51.703125,6,0.161560103,,,
51.71875,6,-0.745544374,,,
51.734375,6,-1.467895985,,,
51.75,6,-1.905578971,,,
51.765625,6,-2.096497059,,,
51.78125,6,-2.140014887,,,
51.796875,6,-2.122680903,,,
51.8125,6,-2.065063,,,
51.828125,6,-1.915954948,,,
51.84375,6,-1.608397961,,,
51.859375,6,-1.130797982,,,
51.875,6,-0.538818419,,,
51.890625,6,0.053771969,,,
51.90625,6,0.541931212,,,
51.921875,6,0.868408203,,,
51.9375,6,1.020141959,,,
51.953125,6,0.985595703,,,
51.96875,6,0.781066895,,,
51.984375,6,0.434082001,,,
52,6,0.002380371,,,
52.015625,6,-0.399719209,,,
52.03125,6,-0.653869629,,,
52.046875,6,-0.675170898,,,
52.0625,6,-0.455200195,,,
52.078125,6,-0.060241699,,,
52.09375,6,0.401245087,,,
52.109375,6,0.803161621,,,
52.125,6,1.068603993,,,
52.140625,6,1.178588986,,,
52.15625,6,1.145324945,,,
52.171875,6,1.008972049,,,
52.1875,6,0.826293886,,,
52.203125,6,0.633850098,,,
52.21875,6,0.458740205,,,
52.234375,6,0.289245606,,,
52.25,6,0.087646477,,,
52.265625,6,-0.213073701,,,
52.28125,6,-0.627502382,,,
52.296875,6,-1.092162967,,,
52.3125,6,-1.445556998,,,
52.328125,6,-1.493530035,,,
52.34375,6,-1.114989996,,,
52.359375,6,-0.353942901,,,
52.375,6,0.559570313,,,
52.390625,6,1.32922399,,,
52.40625,6,1.690979004,,,
52.421875,6,1.592102051,,,
52.4375,6,1.186339974,,,
52.453125,6,0.749755919,,,
52.46875,6,0.531005919,,,
52.484375,6,0.608947814,,,
52.5,6,0.877197325,,,
52.515625,6,1.123718023,,,
52.53125,6,1.193176031,,,
52.546875,6,1.074890018,,,
52.5625,6,0.883483887,,,
52.578125,6,0.759216309,,,
52.59375,6,0.770446777,,,
52.609375,6,0.844421387,,,
52.625,6,0.848388672,,,
52.640625,6,0.671325684,,,
52.65625,6,0.290344209,,,
52.671875,6,-0.224487305,,,
52.6875,6,-0.742492676,,,
52.703125,6,-1.132750988,,,
52.71875,6,-1.301635981,,,
52.734375,6,-1.245116949,,,
52.75,6,-1.006775022,,,
52.765625,6,-0.718261719,,,
52.78125,6,-0.535400391,,,
52.796875,6,-0.59539789,,,
52.8125,6,-0.942810118,,,
52.828125,6,-1.474060059,,,
52.84375,6,-1.979125977,,,
52.859375,6,-2.213196039,,,
52.875,6,-2.044800043,,,
52.890625,6,-1.476624012,,,
52.90625,6,-0.662231386,,,
52.921875,6,0.217590302,,,
52.9375,6,0.976989687,,,
52.953125,6,1.527892947,,,
52.96875,6,1.837157965,,,
52.984375,6,1.912781,,,
53,6,1.800415039,,,
53.015625,6,1.568848014,,,
53.03125,6,1.330260992,,,
53.046875,6,1.174376965,,,
53.0625,6,1.157287955,,,
53.078125,6,1.251281977,,,
53.09375,6,1.404235959,,,
53.109375,6,1.536072016,,,
53.125,6,1.618163943,,,
53.140625,6,1.647034049,,,
53.15625,6,1.655272961,,,
53.171875,6,1.644652963,,,
53.1875,6,1.612182975,,,
53.203125,6,1.525390983,,,
53.21875,6,1.377686024,,,
53.234375,6,1.165282965,,,
53.25,6,0.900268614,,,
53.265625,6,0.592712402,,,
53.28125,6,0.258972198,,,
53.296875,6,-0.089477539,,,
53.3125,6,-0.443054199,,,
53.328125,6,-0.787475586,,,
53.34375,6,-1.115723014,,,
53.359375,6,-1.414000988,,,
53.375,6,-1.671447992,,,
53.390625,6,-1.84661901,,,
53.40625,6,-1.880249023,,,
53.421875,6,-1.708984017,,,
53.4375,6,-1.335083008,,,
53.453125,6,-0.840942383,,,
53.46875,6,-0.391174287,,,
53.484375,6,-0.162292495,,,
53.5,6,-0.261535615,,,
53.515625,6,-0.656310976,,,
53.53125,6,-1.195862055,,,
53.546875,6,-1.647583008,,,
53.5625,6,-1.839722037,,,
53.578125,6,-1.699280024,,,
53.59375,6,-1.294373035,,,
53.609375,6,-0.753845215,,,
53.625,6,-0.193237305,,,
53.640625,6,0.309020996,,,
53.65625,6,0.770690918,,,
53.671875,6,1.194152951,,,
53.6875,6,1.562378049,,,
53.703125,6,1.766602039,,,
53.71875,6,1.703430057,,,
53.734375,6,1.342285037,,,
53.75,6,0.789978027,,,
53.765625,6,0.246704102,,,
53.78125,6,-0.081298828,,,
53.796875,6,-0.140319794,,,
53.8125,6,-0.027282709,,,
53.828125,6,0.05847168,,,
53.84375,6,-0.030273439,,,
53.859375,6,-0.266967803,,,
53.875,6,-0.4920654,,,
53.890625,6,-0.517700195,,,
53.90625,6,-0.26763919,,,
53.921875,6,0.177917495,,,
53.9375,6,0.642028809,,,
53.953125,6,1.000854015,,,
53.96875,6,1.239685059,,,
53.984375,6,1.434326053,,,
54,6,1.645385981,,,
54.015625,6,1.827270985,,,
54.03125,6,1.833922982,,,
54.046875,6,1.539612055,,,
54.0625,6,0.955566406,,,
54.078125,6,0.231811494,,,
54.09375,6,-0.385314912,,,
54.109375,6,-0.735107422,,,
54.125,6,-0.796203613,,,
54.140625,6,-0.687316895,,,
54.15625,6,-0.538574219,,,
54.171875,6,-0.454162598,,,
54.1875,6,-0.429443389,,,
54.203125,6,-0.482543886,,,
54.21875,6,-0.622314513,,,
54.234375,6,-0.89465332,,,
54.25,6,-1.281067014,,,
54.265625,6,-1.691895008,,,
54.28125,6,-1.966918945,,,
54.296875,6,-1.977416992,,,
54.3125,6,-1.697998047,,,
54.328125,6,-1.257689953,,,
54.34375,6,-0.884155273,,,
54.359375,6,-0.784973085,,,
54.375,6,-1.046630979,,,
54.390625,6,-1.567566037,,,
54.40625,6,-2.126159906,,,
54.421875,6,-2.43859911,,,
54.4375,6,-2.335144043,,,
54.453125,6,-1.802672982,,,
54.46875,6,-1.006896973,,,
54.484375,6,-0.217041001,,,
54.5,6,0.348693788,,,
54.515625,6,0.598999023,,,
54.53125,6,0.616333008,,,
54.546875,6,0.567077577,,,
54.5625,6,0.576416016,,,
54.578125,6,0.627746582,,,
54.59375,6,0.613464415,,,
54.609375,6,0.395812988,,,
54.625,6,-0.039428711,,,
54.640625,6,-0.552307129,,,
54.65625,6,-0.920349121,,,
54.671875,6,-0.991699219,,,
54.6875,6,-0.743896484,,,
54.703125,6,-0.342346191,,,
54.71875,6,-0.007324219,,,
54.734375,6,0.082092293,,,
54.75,6,-0.132018998,,,
54.765625,6,-0.550048828,,,
54.78125,6,-0.968261719,,,
54.796875,6,-1.214172006,,,
54.8125,6,-1.183716059,,,
54.828125,6,-0.896667481,,,
54.84375,6,-0.467407197,,,
54.859375,6,-0.02618408,,,
54.875,6,0.364440888,,,
54.890625,6,0.71295172,,,
54.90625,6,1.047363043,,,
54.921875,6,1.395385981,,,
54.9375,6,1.668640018,,,
54.953125,6,1.77758801,,,
54.96875,6,1.657531977,,,
54.984375,6,1.380920053,,,
55,6,1.109984994,,,
55.015625,6,1.053161979,,,
55.03125,6,1.302368045,,,
55.046875,6,1.805480957,,,
55.0625,6,2.357543945,,,
55.078125,6,2.730895996,,,
55.09375,6,2.787230969,,,
55.109375,6,2.502563,,,
55.125,6,1.933716059,,,
55.140625,6,1.184752941,,,
55.15625,6,0.368164092,,,
55.171875,6,-0.400878906,,,
55.1875,6,-0.990844727,,,
55.203125,6,-1.273193002,,,
55.21875,6,-1.190979004,,,
55.234375,6,-0.769775391,,,
55.25,6,-0.161743194,,,
55.265625,6,0.438293487,,,
55.28125,6,0.883239687,,,
55.296875,6,1.108826041,,,
55.3125,6,1.18383801,,,
55.328125,6,1.245177984,,,
55.34375,6,1.406188965,,,
55.359375,6,1.670897961,,,
55.375,6,1.944336057,,,
55.390625,6,2.041564941,,,
55.40625,6,1.830078006,,,
55.421875,6,1.297363043,,,
55.4375,6,0.571044922,,,
55.453125,6,-0.115173303,,,
55.46875,6,-0.569396973,,,
55.484375,6,-0.708374023,,,
55.5,6,-0.650024414,,,
55.515625,6,-0.543273926,,,
55.53125,6,-0.502502382,,,
55.546875,6,-0.484558106,,,
55.5625,6,-0.363525391,,,
55.578125,6,-0.018005369,,,
55.59375,6,0.511230528,,,
55.609375,6,1.023131967,,,
55.625,6,1.243651986,,,
55.640625,6,0.990783691,,,
55.65625,6,0.303710908,,,
55.671875,6,-0.596618712,,,
55.6875,6,-1.417907953,,,
55.703125,6,-1.950317025,,,
55.71875,6,-2.151671886,,,
55.734375,6,-2.099060059,,,
55.75,6,-1.907593012,,,
55.765625,6,-1.638123035,,,
55.78125,6,-1.307189941,,,
55.796875,6,-0.907409728,,,
55.8125,6,-0.4610596,,,
55.828125,6,-0.016418461,,,
55.84375,6,0.363708496,,,
55.859375,6,0.624633789,,,
55.875,6,0.744750977,,,
55.890625,6,0.711486816,,,
55.90625,6,0.550720215,,,
55.921875,6,0.295898408,,,
55.9375,6,-0.02459717,,,
55.953125,6,-0.388915986,,,
55.96875,6,-0.773132324,,,
55.984375,6,-1.134155035,,,
56,7,-1.386841059,,,
56.015625,7,-1.416687012,,,
56.03125,7,-1.121886969,,,
56.046875,7,-0.486938506,,,
56.0625,7,0.345947295,,,
56.078125,7,1.148437977,,,
56.09375,7,1.663818002,,,
56.109375,7,1.765442014,,,
56.125,7,1.492310047,,,
56.140625,7,1.048035026,,,
56.15625,7,0.637817383,,,
56.171875,7,0.382324189,,,
56.1875,7,0.271057099,,,
56.203125,7,0.196411103,,,
56.21875,7,0.099060059,,,
56.234375,7,-0.041442871,,,
56.25,7,-0.206726104,,,
56.265625,7,-0.361206114,,,
56.28125,7,-0.493408203,,,
56.296875,7,-0.603149414,,,
56.3125,7,-0.656310976,,,
56.328125,7,-0.593933106,,,
56.34375,7,-0.370483398,,,
56.359375,7,0.000183106,,,
56.375,7,0.425720215,,,
56.390625,7,0.767089784,,,
56.40625,7,0.910766602,,,
56.421875,7,0.829101622,,,
56.4375,7,0.591979981,,,
56.453125,7,0.320861787,,,
56.46875,7,0.095092773,,,
56.484375,7,-0.067810059,,,
56.5,7,-0.206604004,,,
56.515625,7,-0.350036591,,,
56.53125,7,-0.462158203,,,
56.546875,7,-0.424926788,,,
56.5625,7,-0.136718795,,,
56.578125,7,0.441711396,,,
56.59375,7,1.199157953,,,
56.609375,7,1.940673947,,,
56.625,7,2.42651391,,,
56.640625,7,2.551758051,,,
56.65625,7,2.35272193,,,
56.671875,7,2.017272949,,,
56.6875,7,1.758118033,,,
56.703125,7,1.702393055,,,
56.71875,7,1.833008051,,,
56.734375,7,2.012695074,,,
56.75,7,2.0625,,,
56.765625,7,1.870483041,,,
56.78125,7,1.437561035,,,
56.796875,7,0.839782715,,,
56.8125,7,0.190917999,,,
56.828125,7,-0.394653291,,,
56.84375,7,-0.825256288,,,
56.859375,7,-1.039795041,,,
56.875,7,-1.028502941,,,
56.890625,7,-0.825012207,,,
56.90625,7,-0.514892578,,,
56.921875,7,-0.222167999,,,
56.9375,7,-0.059448239,,,
56.953125,7,-0.09173584,,,
56.96875,7,-0.337341309,,,
56.984375,7,-0.745117188,,,
57,7,-1.213806033,,,
57.015625,7,-1.595397949,,,
57.03125,7,-1.767089963,,,
57.046875,7,-1.613098025,,,
57.0625,7,-1.119689941,,,
57.078125,7,-0.352477998,,,
57.09375,7,0.503356874,,,
57.109375,7,1.243286014,,,
57.125,7,1.688477039,,,
57.140625,7,1.780395985,,,
57.15625,7,1.580932975,,,
57.171875,7,1.243530035,,,
57.1875,7,0.906189024,,,
57.203125,7,0.641784728,,,
57.21875,7,0.438842803,,,
57.234375,7,0.244628906,,,
57.25,7,0.03125,,,
57.265625,7,-0.1798096,,,
57.28125,7,-0.314941406,,,
57.296875,7,-0.311523408,,,
57.3125,7,-0.199707001,,,
57.328125,7,-0.08013916,,,
57.34375,7,-0.096984863,,,
57.359375,7,-0.344726592,,,
57.375,7,-0.776489317,,,
57.390625,7,-1.228881955,,,
57.40625,7,-1.464782953,,,
57.421875,7,-1.328734994,,,
57.4375,7,-0.833190918,,,
57.453125,7,-0.1561279,,,
57.46875,7,0.416198701,,,
57.484375,7,0.623840272,,,
57.5,7,0.376831114,,,
57.515625,7,-0.236267105,,,
57.53125,7,-1.007935047,,,
57.546875,7,-1.672363043,,,
57.5625,7,-2.047791004,,,
57.578125,7,-2.024230957,,,
57.59375,7,-1.640807986,,,
57.609375,7,-0.976745606,,,
57.625,7,-0.174621597,,,
57.640625,7,0.621460021,,,
57.65625,7,1.279418945,,,
57.671875,7,1.705872059,,,
57.6875,7,1.876891971,,,
57.703125,7,1.823608041,,,
57.71875,7,1.638306022,,,
57.734375,7,1.400573969,,,
57.75,7,1.169556022,,,
57.765625,7,0.96081543,,,
57.78125,7,0.757751524,,,
57.796875,7,0.566772521,,,
57.8125,7,0.387695313,,,
57.828125,7,0.27142331,,,
57.84375,7,0.229370102,,,
57.859375,7,0.240112305,,,
57.875,7,0.265197814,,,
57.890625,7,0.257385314,,,
57.90625,7,0.213256806,,,
57.921875,7,0.150451705,,,
57.9375,7,0.060668949,,,
57.953125,7,-0.089538567,,,
57.96875,7,-0.346374512,,,
57.984375,7,-0.757446289,,,
58,7,-1.272704959,,,
58.015625,7,-1.788756967,,,
58.03125,7,-2.190674067,,,
58.046875,7,-2.407836914,,,
58.0625,7,-2.443298101,,,
58.078125,7,-2.345947027,,,
58.09375,7,-2.165832996,,,
58.109375,7,-1.893982053,,,
58.125,7,-1.485779047,,,
58.140625,7,-0.923950195,,,
58.15625,7,-0.256774902,,,
58.171875,7,0.371826202,,,
58.1875,7,0.777954102,,,
58.203125,7,0.856811523,,,
58.21875,7,0.617126524,,,
58.234375,7,0.209289596,,,
58.25,7,-0.180114701,,,
58.265625,7,-0.402648896,,,
58.28125,7,-0.407836914,,,
58.296875,7,-0.253112793,,,
58.3125,7,-0.059204102,,,
58.328125,7,0.06048584,,,
58.34375,7,0.062011719,,,
58.359375,7,-0.00177002,,,
58.375,7,-0.05322266,,,
58.390625,7,0.00378418,,,
58.40625,7,0.218566895,,,
58.421875,7,0.569518983,,,
58.4375,7,0.996032715,,,
58.453125,7,1.424805045,,,
58.46875,7,1.807860971,,,
58.484375,7,2.070557118,,,
58.5,7,2.151366949,,,
58.515625,7,1.987548947,,,
58.53125,7,1.572875977,,,
58.546875,7,0.963317871,,,
58.5625,7,0.286132813,,,
58.578125,7,-0.316223115,,,
58.59375,7,-0.749511719,,,
58.609375,7,-1.000182986,,,
58.625,7,-1.118957996,,,
58.640625,7,-1.162536979,,,
58.65625,7,-1.172484994,,,
58.671875,7,-1.135071039,,,
58.6875,7,-1.033447027,,,
58.703125,7,-0.845947325,,,
58.71875,7,-0.606445313,,,
58.734375,7,-0.333373994,,,
58.75,7,-0.065795898,,,
58.765625,7,0.193176299,,,
58.78125,7,0.441772491,,,
58.796875,7,0.661621094,,,
58.8125,7,0.800048828,,,
58.828125,7,0.805053711,,,
58.84375,7,0.656005919,,,
58.859375,7,0.413208008,,,
58.875,7,0.128662095,,,
58.890625,7,-0.135559097,,,
58.90625,7,-0.353088409,,,
58.921875,7,-0.511047423,,,
58.9375,7,-0.599975586,,,
58.953125,7,-0.575073183,,,
58.96875,7,-0.361572295,,,
58.984375,7,0.04718018,,,
59,7,0.600768983,,,
59.015625,7,1.161864996,,,
59.03125,7,1.565857053,,,
59.046875,7,1.647765994,,,
59.0625,7,1.324890018,,,
59.078125,7,0.616333008,,,
59.09375,7,-0.369384795,,,
59.109375,7,-1.438660026,,,
59.125,7,-2.381226063,,,
59.140625,7,-2.998473883,,,
59.15625,7,-3.174804926,,,
59.171875,7,-2.909667969,,,
59.1875,7,-2.332153082,,,
59.203125,7,-1.644531012,,,
59.21875,7,-1.048339963,,,
59.234375,7,-0.621276915,,,
59.25,7,-0.331115693,,,
59.265625,7,-0.065612793,,,
59.28125,7,0.255981386,,,
59.296875,7,0.644958496,,,
59.3125,7,1.00463903,,,
59.328125,7,1.215026975,,,
59.34375,7,1.225890994,,,
59.359375,7,1.080078006,,,
59.375,7,0.870605528,,,
59.390625,7,0.684204102,,,
59.40625,7,0.551696777,,,
59.421875,7,0.480407715,,,
59.4375,7,0.420654297,,,
59.453125,7,0.376281709,,,
59.46875,7,0.387451202,,,
59.484375,7,0.48828131,,,
59.5,7,0.69732672,,,
59.515625,7,0.949706972,,,
59.53125,7,1.173218012,,,
59.546875,7,1.317870975,,,
59.5625,7,1.399230957,,,
59.578125,7,1.46331799,,,
59.59375,7,1.565857053,,,
59.609375,7,1.69946301,,,
59.625,7,1.80963099,,,
59.640625,7,1.817383051,,,
59.65625,7,1.688843012,,,
59.671875,7,1.447937012,,,
59.6875,7,1.19116199,,,
59.703125,7,1.007629037,,,
59.71875,7,0.948303223,,,
59.734375,7,1.024963021,,,
59.75,7,1.188048959,,,
59.765625,7,1.393921018,,,
59.78125,7,1.600098014,,,
59.796875,7,1.782654047,,,
59.8125,7,1.89526403,,,
59.828125,7,1.842285037,,,
59.84375,7,1.522034049,,,
59.859375,7,0.914001524,,,
59.875,7,0.101318397,,,
59.890625,7,-0.725036621,,,
59.90625,7,-1.372985959,,,
59.921875,7,-1.728638053,,,
59.9375,7,-1.844298959,,,
59.953125,7,-1.875365973,,,
59.96875,7,-2.002563,,,
59.984375,7,-2.303649902,,,
60,7,-2.672179937,,,
60.015625,7,-2.915282965,,,
60.03125,7,-2.840820074,,,
60.046875,7,-2.387573004,,,
60.0625,7,-1.657654047,,,
60.078125,7,-0.884643614,,,
60.09375,7,-0.286926299,,,
60.109375,7,0.025573731,,,
60.125,7,0.092895508,,,
60.140625,7,0.050292969,,,
60.15625,7,0.044128422,,,
60.171875,7,0.123596199,,,
60.1875,7,0.262268096,,,
60.203125,7,0.330566406,,,
60.21875,7,0.215087906,,,
60.234375,7,-0.1132202,,,
60.25,7,-0.57989502,,,
60.265625,7,-1.028015018,,,
60.28125,7,-1.298828006,,,
60.296875,7,-1.297057986,,,
60.3125,7,-1.029052973,,,
60.328125,7,-0.563781679,,,
60.34375,7,-0.01086426,,,
60.359375,7,0.55065918,,,
60.375,7,1.048095942,,,
60.390625,7,1.402405024,,,
60.40625,7,1.529235959,,,
60.421875,7,1.391906977,,,
60.4375,7,1.026610971,,,
60.453125,7,0.57824707,,,
60.46875,7,0.232238799,,,
60.484375,7,0.134460405,,,
60.5,7,0.3123779,,,
60.515625,7,0.64440918,,,
60.53125,7,0.942749023,,,
60.546875,7,1.056457996,,,
60.5625,7,0.977844179,,,
60.578125,7,0.826843321,,,
60.59375,7,0.793212891,,,
60.609375,7,1.01019299,,,
60.625,7,1.458191037,,,
60.640625,7,1.970397949,,,
60.65625,7,2.332092047,,,
60.671875,7,2.391906977,,,
60.6875,7,2.148314953,,,
60.703125,7,1.748046994,,,
60.71875,7,1.372925043,,,
60.734375,7,1.109740973,,,
60.75,7,0.926330626,,,
60.765625,7,0.632324219,,,
60.78125,7,0.070556641,,,
60.796875,7,-0.770874023,,,
60.8125,7,-1.710875988,,,
60.828125,7,-2.439208984,,,
60.84375,7,-2.710144043,,,
60.859375,7,-2.448364019,,,
60.875,7,-1.802795053,,,
60.890625,7,-1.028502941,,,
60.90625,7,-0.353637695,,,
60.921875,7,0.152038604,,,
60.9375,7,0.53314209,,,
60.953125,7,0.870910585,,,
60.96875,7,1.16168201,,,
60.984375,7,1.326843023,,,
61,7,1.233520985,,,
61.015625,7,0.842773378,,,
61.03125,7,0.246765107,,,
61.046875,7,-0.358581513,,,
61.0625,7,-0.784912109,,,
61.078125,7,-0.956054688,,,
61.09375,7,-0.917724609,,,
61.109375,7,-0.772705078,,,
61.125,7,-0.588378906,,,
61.140625,7,-0.36907959,,,
61.15625,7,-0.030761721,,,
61.171875,7,0.461181611,,,
61.1875,7,1.03955102,,,
61.203125,7,1.531067014,,,
61.21875,7,1.720337033,,,
61.234375,7,1.492859006,,,
61.25,7,0.907287598,,,
61.265625,7,0.163574204,,,
61.28125,7,-0.498901397,,,
61.296875,7,-0.947631776,,,
61.3125,7,-1.20233202,,,
61.328125,7,-1.377686024,,,
61.34375,7,-1.588623047,,,
61.359375,7,-1.847107053,,,
61.375,7,-2.066528082,,,
61.390625,7,-2.141845942,,,
61.40625,7,-2.015259028,,,
61.421875,7,-1.719177008,,,
61.4375,7,-1.362305045,,,
61.453125,7,-1.039612055,,,
61.46875,7,-0.814819276,,,
61.484375,7,-0.697021484,,,
61.5,7,-0.710388184,,,
61.515625,7,-0.894470215,,,
61.53125,7,-1.310729981,,,
61.546875,7,-1.928284049,,,
61.5625,7,-2.617064953,,,
61.578125,7,-3.136168957,,,
61.59375,7,-3.238770008,,,
61.609375,7,-2.788391113,,,
61.625,7,-1.823729992,,,
61.640625,7,-0.574829102,,,
61.65625,7,0.673583984,,,
61.671875,7,1.665465951,,,
61.6875,7,2.295104981,,,
61.703125,7,2.591552973,,,
61.71875,7,2.663878918,,,
61.734375,7,2.630310059,,,
61.75,7,2.534485102,,,
61.765625,7,2.349730969,,,
61.78125,7,2.027100086,,,
61.796875,7,1.545593023,,,
61.8125,7,0.956787109,,,
61.828125,7,0.366272003,,,
61.84375,7,-0.101989701,,,
61.859375,7,-0.375305206,,,
61.875,7,-0.452880889,,,
61.890625,7,-0.430541992,,,
61.90625,7,-0.393310487,,,
61.921875,7,-0.381286591,,,
61.9375,7,-0.348693788,,,
61.953125,7,-0.185668901,,,
61.96875,7,0.208496094,,,
61.984375,7,0.819396973,,,
62,7,1.491394043,,,
62.015625,7,1.974730969,,,
62.03125,7,2.030761957,,,
62.046875,7,1.581604004,,,
62.0625,7,0.718689024,,,
62.078125,7,-0.314575195,,,
62.09375,7,-1.249268055,,,
62.109375,7,-1.902709961,,,
62.125,7,-2.204468012,,,
62.140625,7,-2.215393066,,,
62.15625,7,-1.997742057,,,
62.171875,7,-1.607300043,,,
62.1875,7,-1.033081055,,,
62.203125,7,-0.291442901,,,
62.21875,7,0.556396484,,,
62.234375,7,1.363281012,,,
62.25,7,1.977905035,,,
62.265625,7,2.297852039,,,
62.28125,7,2.352600098,,,
62.296875,7,2.272460938,,,
62.3125,7,2.213073969,,,
62.328125,7,2.261168957,,,
62.34375,7,2.38165307,,,
62.359375,7,2.444031,,,
62.375,7,2.303710938,,,
62.390625,7,1.876220942,,,
62.40625,7,1.216187,,,
62.421875,7,0.490356386,,,
62.4375,7,-0.107055701,,,
62.453125,7,-0.466186494,,,
62.46875,7,-0.575439513,,,
62.484375,7,-0.520263672,,,
62.5,7,-0.377685487,,,
62.515625,7,-0.180602998,,,
62.53125,7,0.092346191,,,
62.546875,7,0.466308594,,,
62.5625,7,0.877807617,,,
62.578125,7,1.193909049,,,
62.59375,7,1.254271984,,,
62.609375,7,0.968261719,,,
62.625,7,0.376342803,,,
62.640625,7,-0.399658203,,,
62.65625,7,-1.184386969,,,
62.671875,7,-1.830505014,,,
62.6875,7,-2.254822016,,,
62.703125,7,-2.424499989,,,
62.71875,7,-2.320496082,,,
62.734375,7,-1.962157965,,,
62.75,7,-1.379210949,,,
62.765625,7,-0.667358398,,,
62.78125,7,0.01898193,,,
62.796875,7,0.508239687,,,
62.8125,7,0.7109375,,,
62.828125,7,0.666198671,,,
62.84375,7,0.546691895,,,
62.859375,7,0.532409728,,,
62.875,7,0.734741211,,,
62.890625,7,1.087829948,,,
62.90625,7,1.397034049,,,
62.921875,7,1.44036901,,,
62.9375,7,1.130126953,,,
62.953125,7,0.544128418,,,
62.96875,7,-0.084106453,,,
62.984375,7,-0.529418886,,,
63,7,-0.695495606,,,
63.015625,7,-0.669677675,,,
63.03125,7,-0.639526427,,,
63.046875,7,-0.716247618,,,
63.0625,7,-0.85736078,,,
63.078125,7,-0.876281679,,,
63.09375,7,-0.597839415,,,
63.109375,7,-0.01245117,,,
63.125,7,0.683532715,,,
63.140625,7,1.191100955,,,
63.15625,7,1.286072016,,,
63.171875,7,0.943969727,,,
63.1875,7,0.321166992,,,
63.203125,7,-0.369140595,,,
63.21875,7,-0.975524902,,,
63.234375,7,-1.434569955,,,
63.25,7,-1.73358202,,,
63.265625,7,-1.840209961,,,
63.28125,7,-1.676697016,,,
63.296875,7,-1.203186035,,,
63.3125,7,-0.471984893,,,
63.328125,7,0.333435088,,,
63.34375,7,1.007629037,,,
63.359375,7,1.380187988,,,
63.375,7,1.444762945,,,
63.390625,7,1.325438976,,,
63.40625,7,1.195495963,,,
63.421875,7,1.166991949,,,
63.4375,7,1.246216059,,,
63.453125,7,1.353209972,,,
63.46875,7,1.366211057,,,
63.484375,7,1.210937977,,,
63.5,7,0.876037598,,,
63.515625,7,0.431213409,,,
63.53125,7,-0.008361816,,,
63.546875,7,-0.311645508,,,
63.5625,7,-0.378845215,,,
63.578125,7,-0.171020493,,,
63.59375,7,0.26159671,,,
63.609375,7,0.823364317,,,
63.625,7,1.380370975,,,
63.640625,7,1.817199945,,,
63.65625,7,2.05407691,,,
63.671875,7,2.061768055,,,
63.6875,7,1.845703006,,,
63.703125,7,1.44580102,,,
63.71875,7,0.922363281,,,
63.734375,7,0.332275391,,,
63.75,7,-0.288085908,,,
63.765625,7,-0.940856874,,,
63.78125,7,-1.649901986,,,
63.796875,7,-2.41088891,,,
63.8125,7,-3.146483898,,,
63.828125,7,-3.710144043,,,
63.84375,7,-3.931396008,,,
63.859375,7,-3.746337891,,,
63.875,7,-3.19848609,,,
63.890625,7,-2.447998047,,,
63.90625,7,-1.676270008,,,
63.921875,7,-1.01849401,,,
63.9375,7,-0.534179688,,,
63.953125,7,-0.208129898,,,
63.96875,7,-0.02819824,,,
63.984375,7,0.025390631,,,
64,8,-0.029296881,,,
64.015625,8,-0.141540498,,,
64.03125,8,-0.245849595,,,
64.046875,8,-0.293457001,,,
64.0625,8,-0.256958008,,,
64.078125,8,-0.153198198,,,
64.09375,8,0.002380371,,,
64.109375,8,0.218322799,,,
64.125,8,0.544433594,,,
64.140625,8,0.989624023,,,
64.15625,8,1.500731945,,,
64.171875,8,1.969298959,,,
64.1875,8,2.268065929,,,
64.203125,8,2.317687988,,,
64.21875,8,2.165527105,,,
64.234375,8,1.928954959,,,
64.25,8,1.736938,,,
64.265625,8,1.671203971,,,
64.28125,8,1.710327029,,,
64.296875,8,1.792968988,,,
64.3125,8,1.80517602,,,
64.328125,8,1.631348014,,,
64.34375,8,1.173706055,,,
64.359375,8,0.390625,,,
64.375,8,-0.651184082,,,
64.390625,8,-1.772094965,,,
64.40625,8,-2.69671607,,,
64.421875,8,-3.178771973,,,
64.4375,8,-3.106323004,,,
64.453125,8,-2.567199945,,,
64.46875,8,-1.790832996,,,
64.484375,8,-1.042907953,,,
64.5,8,-0.484863311,,,
64.515625,8,-0.160644501,,,
64.53125,8,-0.033874512,,,
64.546875,8,-0.064758301,,,
64.5625,8,-0.249389604,,,
64.578125,8,-0.601013184,,,
64.59375,8,-1.089233041,,,
64.609375,8,-1.596923947,,,
64.625,8,-1.95422399,,,
64.640625,8,-1.993896008,,,
64.65625,8,-1.656859994,,,
64.671875,8,-0.999328613,,,
64.6875,8,-0.163757294,,,
64.703125,8,0.649536073,,,
64.71875,8,1.293151975,,,
64.734375,8,1.653198004,,,
64.75,8,1.735595942,,,
64.765625,8,1.618957996,,,
64.78125,8,1.447814941,,,
64.796875,8,1.376220942,,,
64.8125,8,1.488098025,,,
64.828125,8,1.767456055,,,
64.84375,8,2.081238031,,,
64.859375,8,2.236999989,,,
64.875,8,2.055541992,,,
64.890625,8,1.474853993,,,
64.90625,8,0.563781679,,,
64.921875,8,-0.4454346,,,
64.9375,8,-1.264037967,,,
64.953125,8,-1.650024056,,,
64.96875,8,-1.489501953,,,
64.984375,8,-0.898132324,,,
65,8,-0.122436501,,,
65.015625,8,0.506286621,,,
65.03125,8,0.757568419,,,
65.046875,8,0.559875488,,,
65.0625,8,0.064331047,,,
65.078125,8,-0.483764589,,,
65.09375,8,-0.870605528,,,
65.109375,8,-0.97265631,,,
65.125,8,-0.836364687,,,
65.140625,8,-0.579650879,,,
65.15625,8,-0.356750488,,,
65.171875,8,-0.256835908,,,
65.1875,8,-0.311523408,,,
65.203125,8,-0.512939513,,,
65.21875,8,-0.811279297,,,
65.234375,8,-1.144225955,,,
65.25,8,-1.438354015,,,
65.265625,8,-1.605407953,,,
65.28125,8,-1.585814953,,,
65.296875,8,-1.342041016,,,
65.3125,8,-0.910339415,,,
65.328125,8,-0.411254913,,,
65.34375,8,0.032531738,,,
65.359375,8,0.315979004,,,
65.375,8,0.425842285,,,
65.390625,8,0.440063506,,,
65.40625,8,0.475647003,,,
65.421875,8,0.632568419,,,
65.4375,8,0.899841309,,,
65.453125,8,1.157714963,,,
65.46875,8,1.241637945,,,
65.484375,8,1.035338998,,,
65.5,8,0.579406679,,,
65.515625,8,0.06091309,,,
65.53125,8,-0.289489687,,,
65.546875,8,-0.324157715,,,
65.5625,8,-0.037780762,,,
65.578125,8,0.412353486,,,
65.59375,8,0.830932617,,,
65.609375,8,1.107483029,,,
65.625,8,1.251891971,,,
65.640625,8,1.342589974,,,
65.65625,8,1.422606945,,,
65.671875,8,1.444579959,,,
65.6875,8,1.293151975,,,
65.703125,8,0.884094179,,,
65.71875,8,0.263915986,,,
65.734375,8,-0.387329102,,,
65.75,8,-0.841003418,,,
65.765625,8,-0.936401427,,,
65.78125,8,-0.684875488,,,
65.796875,8,-0.238769501,,,
65.8125,8,0.205017105,,,
65.828125,8,0.489990205,,,
65.84375,8,0.585388184,,,
65.859375,8,0.551208496,,,
65.875,8,0.488769501,,,
65.890625,8,0.449340791,,,
65.90625,8,0.425415009,,,
65.921875,8,0.372741699,,,
65.9375,8,0.25176999,,,
65.953125,8,0.072570801,,,
65.96875,8,-0.1046753,,,
65.984375,8,-0.210693404,,,
66,8,-0.228881806,,,
66.015625,8,-0.201110795,,,
66.03125,8,-0.231750503,,,
66.046875,8,-0.406005889,,,
66.0625,8,-0.713928223,,,
66.078125,8,-1.031738043,,,
66.09375,8,-1.155395985,,,
66.109375,8,-0.928771973,,,
66.125,8,-0.329284698,,,
66.140625,8,0.472412109,,,
66.15625,8,1.200683951,,,
66.171875,8,1.597290039,,,
66.1875,8,1.533385992,,,
66.203125,8,1.039734006,,,
66.21875,8,0.240051299,,,
66.234375,8,-0.701354981,,,
66.25,8,-1.621582031,,,
66.265625,8,-2.357422113,,,
66.28125,8,-2.742187977,,,
66.296875,8,-2.614319086,,,
66.3125,8,-1.920166016,,,
66.328125,8,-0.77154541,,,
66.34375,8,0.549499512,,,
66.359375,8,1.728332996,,,
66.375,8,2.543152094,,,
66.390625,8,2.949035883,,,
66.40625,8,3.065795898,,,
66.421875,8,3.058289051,,,
66.4375,8,3.044188976,,,
66.453125,8,3.001952887,,,
66.46875,8,2.849976063,,,
66.484375,8,2.499145985,,,
66.5,8,1.924193978,,,
66.515625,8,1.217529059,,,
66.53125,8,0.516601622,,,
66.546875,8,-0.03167725,,,
66.5625,8,-0.348083496,,,
66.578125,8,-0.437133789,,,
66.59375,8,-0.394165009,,,
66.609375,8,-0.351928711,,,
66.625,8,-0.388061494,,,
66.640625,8,-0.495361298,,,
66.65625,8,-0.593689024,,,
66.671875,8,-0.590210021,,,
66.6875,8,-0.465270996,,,
66.703125,8,-0.303466797,,,
66.71875,8,-0.266357392,,,
66.734375,8,-0.477539092,,,
66.75,8,-0.914306581,,,
66.765625,8,-1.430907965,,,
66.78125,8,-1.828186035,,,
66.796875,8,-1.954406977,,,
66.8125,8,-1.770691037,,,
66.828125,8,-1.325194955,,,
66.84375,8,-0.721069276,,,
66.859375,8,-0.05023193,,,
66.875,8,0.596679688,,,
66.890625,8,1.167847037,,,
66.90625,8,1.639099002,,,
66.921875,8,2.037781,,,
66.9375,8,2.419739008,,,
66.953125,8,2.813843012,,,
66.96875,8,3.198853016,,,
66.984375,8,3.470885992,,,
67,8,3.483154059,,,
67.015625,8,3.148010016,,,
67.03125,8,2.489624023,,,
67.046875,8,1.632689953,,,
67.0625,8,0.76953131,,,
67.078125,8,0.05065918,,,
67.09375,8,-0.44342041,,,
67.109375,8,-0.738098085,,,
67.125,8,-0.885192871,,,
67.140625,8,-0.957092285,,,
67.15625,8,-1.022217035,,,
67.171875,8,-1.133545041,,,
67.1875,8,-1.339539051,,,
67.203125,8,-1.602295041,,,
67.21875,8,-1.841552973,,,
67.234375,8,-1.921447992,,,
67.25,8,-1.751404047,,,
67.265625,8,-1.359984994,,,
67.28125,8,-0.890441895,,,
67.296875,8,-0.552612305,,,
67.3125,8,-0.481933594,,,
67.328125,8,-0.659423828,,,
67.34375,8,-0.923278809,,,
67.359375,8,-1.036560059,,,
67.375,8,-0.836120606,,,
67.390625,8,-0.317687988,,,
67.40625,8,0.390380889,,,
67.421875,8,1.108520985,,,
67.4375,8,1.661864996,,,
67.453125,8,1.976256967,,,
67.46875,8,2.005676031,,,
67.484375,8,1.747437,,,
67.5,8,1.197388053,,,
67.515625,8,0.402404785,,,
67.53125,8,-0.511413574,,,
67.546875,8,-1.329406977,,,
67.5625,8,-1.795287967,,,
67.578125,8,-1.757385016,,,
67.59375,8,-1.225890994,,,
67.609375,8,-0.401062012,,,
67.625,8,0.421081513,,,
67.640625,8,0.985839784,,,
67.65625,8,1.167358041,,,
67.671875,8,1.006103993,,,
67.6875,8,0.639160216,,,
67.703125,8,0.193115205,,,
67.71875,8,-0.26751709,,,
67.734375,8,-0.74597168,,,
67.75,8,-1.23547399,,,
67.765625,8,-1.685852051,,,
67.78125,8,-1.997252941,,,
67.796875,8,-2.06713891,,,
67.8125,8,-1.867859006,,,
67.828125,8,-1.438660026,,,
67.84375,8,-0.88897711,,,
67.859375,8,-0.32977289,,,
67.875,8,0.166381806,,,
67.890625,8,0.555236816,,,
67.90625,8,0.781982422,,,
67.921875,8,0.831420898,,,
67.9375,8,0.704528809,,,
67.953125,8,0.485778809,,,
67.96875,8,0.273010314,,,
67.984375,8,0.168395996,,,
68,8,0.176330596,,,
68.015625,8,0.208923295,,,
68.03125,8,0.150207505,,,
68.046875,8,-0.055786129,,,
68.0625,8,-0.360168487,,,
68.078125,8,-0.625060976,,,
68.09375,8,-0.719543517,,,
68.109375,8,-0.562805176,,,
68.125,8,-0.174865693,,,
68.140625,8,0.367004395,,,
68.15625,8,0.97076422,,,
68.171875,8,1.543578982,,,
68.1875,8,1.994750977,,,
68.203125,8,2.20233202,,,
68.21875,8,2.083312988,,,
68.234375,8,1.590819955,,,
68.25,8,0.795959473,,,
68.265625,8,-0.156860396,,,
68.28125,8,-1.115417004,,,
68.296875,8,-1.976806998,,,
68.3125,8,-2.68859911,,,
68.328125,8,-3.201477051,,,
68.34375,8,-3.464721918,,,
68.359375,8,-3.382262945,,,
68.375,8,-2.932677984,,,
68.390625,8,-2.20776391,,,
68.40625,8,-1.407227039,,,
68.421875,8,-0.719665527,,,
68.4375,8,-0.246520996,,,
68.453125,8,0.079345703,,,
68.46875,8,0.397644013,,,
68.484375,8,0.835143983,,,
68.5,8,1.413146973,,,
68.515625,8,2.031554937,,,
68.53125,8,2.537597895,,,
68.546875,8,2.844727039,,,
68.5625,8,2.933898926,,,
68.578125,8,2.855895996,,,
68.59375,8,2.670836926,,,
68.609375,8,2.417479992,,,
68.625,8,2.104979992,,,
68.640625,8,1.73358202,,,
68.65625,8,1.311279059,,,
68.671875,8,0.854003906,,,
68.6875,8,0.363403291,,,
68.703125,8,-0.162536606,,,
68.71875,8,-0.696472228,,,
68.734375,8,-1.175048947,,,
68.75,8,-1.515015006,,,
68.765625,8,-1.663390994,,,
