Time:64Hz,Epoch,Channel 1,Event Id,Event Date,Event Duration
0.0000000000,0,-0.9268798828,,,
0.0156250000,0,-0.8252257705,,,
0.0312500000,0,-0.6612548828,,,
0.0468750000,0,-0.4775696099,,,
0.0625000000,0,-0.3114928901,,,
0.0781250000,0,-0.1786499023,,,
0.0937500000,0,-0.0827026367,,,
0.1093750000,0,-0.0108947800,,,
0.1250000000,0,0.0546264611,,,
0.1406250000,0,0.1281432956,,,
0.1562500000,0,0.2025756985,,,
0.1718750000,0,0.2658385932,,,
0.1875000000,0,0.2922667861,,,
0.2031250000,0,0.2655028999,,,
0.2187500000,0,0.2182922065,,,
0.2343750000,0,0.1782532036,,,
0.2500000000,0,0.2089844048,,,
0.2656250000,0,0.3290100098,,,
0.2812500000,0,0.5184326172,,,
0.2968750000,0,0.6987609863,,,
0.3125000000,0,0.7809448242,,,
0.3281250000,0,0.7130736709,,,
0.3437500000,0,0.5145264268,,,
0.3593750000,0,0.2710875869,,,
0.3750000000,0,0.0755615234,,,
0.3906250000,0,-0.0274353009,,,
0.4062500000,0,-0.0679931566,,,
0.4218750000,0,-0.1374817044,,,
0.4375000000,0,-0.2957153022,,,
0.4531250000,0,-0.5184630752,,,
0.4687500000,0,-0.7040709853,,,
0.4843750000,0,-0.7247313857,,,
0.5000000000,0,-0.5126647949,,,
0.5156250000,0,-0.1152649000,,,
0.5312500000,0,0.3420715034,,,
0.5468750000,0,0.7112426758,,,
0.5625000000,0,0.9172363281,,,
0.5781250000,0,0.9732056260,,,
0.5937500000,0,0.9197083116,,,
0.6093750000,0,0.7705078125,,,
0.6250000000,0,0.4904175103,,,
0.6406250000,0,0.0366821289,,,
0.6562500000,0,-0.5539246202,,,
0.6718750000,0,-1.1407779455,,,
0.6875000000,0,-1.5479429960,,,
0.7031250000,0,-1.6693120003,,,
0.7187500000,0,-1.5132139921,,,
0.7343750000,0,-1.2090150118,,,
0.7500000000,0,-0.8955382705,,,
0.7656250000,0,-0.6320189834,,,
0.7812500000,0,-0.3796387017,,,
0.7968750000,0,-0.0660705566,,,
0.8125000000,0,0.3324890137,,,
0.8281250000,0,0.7241516113,,,
0.8437500000,0,0.9776306152,,,
0.8593750000,0,1.0159610510,,,
0.8750000000,0,0.8716735840,,,
0.8906250000,0,0.7036132813,,,
0.9062500000,0,0.6779479980,,,
0.9218750000,0,0.8653870225,,,
0.9375000000,0,1.1892700195,,,
0.9531250000,0,1.4764399529,,,
0.9687500000,0,1.5525510311,,,
0.9843750000,0,1.3521729708,,,
1.0000000000,0,0.9603270888,,,
1.0156250000,0,0.5371704102,,,
1.0312500000,0,0.2463683933,,,
1.0468750000,0,0.1469420940,,,
1.0625000000,0,0.1642456055,,,
1.0781250000,0,0.1557922065,,,
1.0937500000,0,0.0060424800,,,
1.1093750000,0,-0.2957153022,,,
1.1250000000,0,-0.6373596191,,,
1.1406250000,0,-0.8883361816,,,
1.1562500000,0,-0.9797058105,,,
1.1718750000,0,-0.9648743272,,,
1.1875000000,0,-0.9707642198,,,
1.2031250000,0,-1.1136469841,,,
1.2187500000,0,-1.4000240564,,,
1.2343750000,0,-1.7006230354,,,
1.2500000000,0,-1.8309940100,,,
1.2656250000,0,-1.6581120491,,,
1.2812500000,0,-1.1774899960,,,
1.2968750000,0,-0.5140076280,,,
1.3125000000,0,0.1622008979,,,
1.3281250000,0,0.7125244141,,,
1.3437500000,0,1.0919489861,,,
1.3593750000,0,1.3434449434,,,
1.3750000000,0,1.5245970488,,,
1.3906250000,0,1.6970520020,,,
1.4062500000,0,1.8822330236,,,
1.4218750000,0,2.0592958927,,,
1.4375000000,0,2.1788330078,,,
1.4531250000,0,2.1855769157,,,
1.4687500000,0,2.0321660042,,,
1.4843750000,0,1.7219239473,,,
1.5000000000,0,1.3110959530,,,
1.5156250000,0,0.8848571777,,,
1.5312500000,0,0.5182189941,,,
1.5468750000,0,0.2374877930,,,
1.5625000000,0,0.0023498540,,,
1.5781250000,0,-0.2554320991,,,
1.5937500000,0,-0.5704041123,,,
1.6093750000,0,-0.9180603027,,,
1.6250000000,0,-1.2129520178,,,
1.6406250000,0,-1.3603210449,,,
1.6562500000,0,-1.2984620333,,,
1.6718750000,0,-1.0616459846,,,
1.6875000000,0,-0.7376403809,,,
1.7031250000,0,-0.4291687012,,,
1.7187500000,0,-0.2092285007,,,
1.7343750000,0,-0.0857238770,,,
1.7500000000,0,-0.0490112305,,,
1.7656250000,0,-0.1070557013,,,
1.7812500000,0,-0.2779236138,,,
1.7968750000,0,-0.5915833116,,,
1.8125000000,0,-1.0313719511,,,
1.8281250000,0,-1.5101319551,,,
1.8437500000,0,-1.8851929903,,,
1.8593750000,0,-2.0247800350,,,
1.8750000000,0,-1.8559880257,,,
1.8906250000,0,-1.4048769474,,,
1.9062500000,0,-0.8056945801,,,
1.9218750000,0,-0.2299194038,,,
1.9375000000,0,0.1715697944,,,
1.9531250000,0,0.3305054009,,,
1.9687500000,0,0.2804565132,,,
1.9843750000,0,0.1214905009,,,
2.0000000000,0,-0.0242919903,,,
2.0156250000,0,-0.0663452074,,,
2.0312500000,0,0.0217895508,,,
2.0468750000,0,0.2133179009,,,
2.0625000000,0,0.4502258003,,,
2.0781250000,0,0.6694946289,,,
2.0937500000,0,0.8179321289,,,
2.1093750000,0,0.8794249892,,,
2.1250000000,0,0.8689879775,,,
2.1406250000,0,0.8343201280,,,
2.1562500000,0,0.8402709961,,,
2.1718750000,0,0.9208374023,,,
2.1875000000,0,1.0728759766,,,
2.2031250000,0,1.2367249727,,,
2.2187500000,0,1.3142089844,,,
2.2343750000,0,1.2223210335,,,
2.2500000000,0,0.9368590713,,,
2.2656250000,0,0.5026245117,,,
2.2812500000,0,0.0191955604,,,
2.2968750000,0,-0.4306640923,,,
2.3125000000,0,-0.8101196289,,,
2.3281250000,0,-1.1380920410,,,
2.3437500000,0,-1.4363399744,,,
2.3593750000,0,-1.6955870390,,,
2.3750000000,0,-1.9003599882,,,
2.3906250000,0,-2.0244140625,,,
2.4062500000,0,-2.0832819939,,,
2.4218750000,0,-2.1101679802,,,
2.4375000000,0,-2.1182250977,,,
2.4531250000,0,-2.0755620003,,,
2.4687500000,0,-1.8908690214,,,
2.4843750000,0,-1.4856569767,,,
2.5000000000,0,-0.8530883789,,,
2.5156250000,0,-0.0813598633,,,
2.5312500000,0,0.6585999131,,,
2.5468750000,0,1.1898800135,,,
2.5625000000,0,1.4052120447,,,
2.5781250000,0,1.3144530058,,,
2.5937500000,0,1.0237729549,,,
2.6093750000,0,0.6871948242,,,
2.6250000000,0,0.4208678901,,,
2.6406250000,0,0.2836304009,,,
2.6562500000,0,0.2408751994,,,
2.6718750000,0,0.2273865044,,,
2.6875000000,0,0.1890868992,,,
2.7031250000,0,0.1250000000,,,
2.7187500000,0,0.0872802734,,,
2.7343750000,0,0.1363220066,,,
2.7500000000,0,0.2995604873,,,
2.7656250000,0,0.5348206162,,,
2.7812500000,0,0.7622681260,,,
2.7968750000,0,0.9129639268,,,
2.8125000000,0,0.9770812988,,,
2.8281250000,0,0.9908751845,,,
2.8437500000,0,0.9970092773,,,
2.8593750000,0,1.0092159510,,,
2.8750000000,0,0.9816895127,,,
2.8906250000,0,0.8490601182,,,
2.9062500000,0,0.5828856826,,,
2.9218750000,0,0.2028809041,,,
2.9375000000,0,-0.2265014946,,,
2.9531250000,0,-0.6336975098,,,
2.9687500000,0,-0.9831542969,,,
2.9843750000,0,-1.2593690157,,,
3.0000000000,0,-1.4614870548,,,
3.0156250000,0,-1.5824580193,,,
3.0312500000,0,-1.5843199492,,,
3.0468750000,0,-1.4390870333,,,
3.0625000000,0,-1.1360780001,,,
3.0781250000,0,-0.7036132813,,,
3.0937500000,0,-0.1931152046,,,
3.1093750000,0,0.3284912109,,,
3.1250000000,0,0.7826538086,,,
3.1406250000,0,1.0977779627,,,
3.1562500000,0,1.2049260139,,,
3.1718750000,0,1.0803530216,,,
3.1875000000,0,0.7409667969,,,
3.2031250000,0,0.2893066108,,,
3.2187500000,0,-0.1440735012,,,
3.2343750000,0,-0.4252929986,,,
3.2500000000,0,-0.4850463867,,,
3.2656250000,0,-0.3531188965,,,
3.2812500000,0,-0.1477966011,,,
3.2968750000,0,-0.0238037091,,,
3.3125000000,0,-0.0924072266,,,
3.3281250000,0,-0.3626708984,,,
3.3437500000,0,-0.7236328125,,,
3.3593750000,0,-1.0060729980,,,
3.3750000000,0,-1.0575259924,,,
3.3906250000,0,-0.8527832031,,,
3.4062500000,0,-0.4841003120,,,
3.4218750000,0,-0.1309814006,,,
3.4375000000,0,0.0423583984,,,
3.4531250000,0,-0.0311279297,,,
3.4687500000,0,-0.3114319146,,,
3.4843750000,0,-0.6745300293,,,
3.5000000000,0,-0.9812011719,,,
3.5156250000,0,-1.1463929415,,,
3.5312500000,0,-1.1511230469,,,
3.5468750000,0,-1.0321960449,,,
3.5625000000,0,-0.8347473145,,,
3.5781250000,0,-0.6021729112,,,
3.5937500000,0,-0.3447875977,,,
3.6093750000,0,-0.0559081994,,,
3.6250000000,0,0.2753295898,,,
3.6406250000,0,0.6477050781,,,
3.6562500000,0,1.0398249626,,,
3.6718750000,0,1.4188539982,,,
3.6875000000,0,1.7594300508,,,
3.7031250000,0,2.0573120117,,,
3.7187500000,0,2.3155210018,,,
3.7343750000,0,2.5368349552,,,
3.7500000000,0,2.6830139160,,,
3.7656250000,0,2.6869199276,,,
3.7812500000,0,2.4981079102,,,
3.7968750000,0,2.1098020077,,,
3.8125000000,0,1.5809329748,,,
3.8281250000,0,1.0229489803,,,
3.8437500000,0,0.5364990234,,,
3.8593750000,0,0.1551818997,,,
3.8750000000,0,-0.1407776028,,,
3.8906250000,0,-0.4130249023,,,
3.9062500000,0,-0.6796569824,,,
3.9218750000,0,-0.9034119248,,,
3.9375000000,0,-0.9985352159,,,
3.9531250000,0,-0.9156798720,,,
3.9687500000,0,-0.6889647841,,,
3.9843750000,0,-0.4452820122,,,
4.0000000000,0,-0.3342896104,,,
4.0156250000,0,-0.4282532036,,,
4.0312500000,0,-0.6842041016,,,
4.0468750000,0,-0.9559020996,,,
4.0625000000,0,-1.0898129940,,,
4.0781250000,0,-1.0056760311,,,
4.0937500000,0,-0.7477111816,,,
4.1093750000,0,-0.4585875869,,,
4.1250000000,0,-0.2934570014,,,
4.1406250000,0,-0.3468017876,,,
4.1562500000,0,-0.5939025879,,,
4.1718750000,0,-0.9330139160,,,
4.1875000000,0,-1.2181400061,,,
4.2031250000,0,-1.3510440588,,,
4.2187500000,0,-1.2941590548,,,
4.2343750000,0,-1.0858759880,,,
4.2500000000,0,-0.8104248047,,,
4.2656250000,0,-0.5322266221,,,
4.2812500000,0,-0.2951050103,,,
4.2968750000,0,-0.0979614332,,,
4.3125000000,0,0.0836791992,,,
4.3281250000,0,0.2561950982,,,
4.3437500000,0,0.3869628906,,,
4.3593750000,0,0.4085693061,,,
4.3750000000,0,0.2563782036,,,
4.3906250000,0,-0.0547485389,,,
4.4062500000,0,-0.4059143066,,,
4.4218750000,0,-0.6120604873,,,
4.4375000000,0,-0.5077819824,,,
4.4531250000,0,-0.0506591797,,,
4.4687500000,0,0.6319580078,,,
4.4843750000,0,1.2949219942,,,
4.5000000000,0,1.7091979980,,,
4.5156250000,0,1.7707209587,,,
4.5312500000,0,1.5377810001,,,
4.5468750000,0,1.1716610193,,,
4.5625000000,0,0.8338013291,,,
4.5781250000,0,0.6035460830,,,
4.5937500000,0,0.4624938965,,,
4.6093750000,0,0.3721618950,,,
4.6250000000,0,0.3295592964,,,
4.6406250000,0,0.3792724907,,,
4.6562500000,0,0.5847473145,,,
4.6718750000,0,0.9262694716,,,
4.6875000000,0,1.2716059685,,,
4.7031250000,0,1.4239809513,,,
4.7187500000,0,1.2502750158,,,
4.7343750000,0,0.7626647949,,,
4.7500000000,0,0.1385498047,,,
4.7656250000,0,-0.3588866889,,,
4.7812500000,0,-0.5378417969,,,
4.7968750000,0,-0.3815307915,,,
4.8125000000,0,-0.0407104492,,,
4.8281250000,0,0.2686156929,,,
4.8437500000,0,0.3936156929,,,
4.8593750000,0,0.3224487007,,,
4.8750000000,0,0.1607360989,,,
4.8906250000,0,0.0591430701,,,
4.9062500000,0,0.0931091309,,,
4.9218750000,0,0.2371826023,,,
4.9375000000,0,0.3925170898,,,
4.9531250000,0,0.4767456055,,,
4.9687500000,0,0.4540709853,,,
4.9843750000,0,0.3285827935,,,
5.0000000000,0,0.0928649902,,,
5.0156250000,0,-0.2792663872,,,
5.0312500000,0,-0.7935485840,,,
5.0468750000,0,-1.3944400549,,,
5.0625000000,0,-1.9431149960,,,
5.0781250000,0,-2.2735900879,,,
5.0937500000,0,-2.3004150391,,,
5.1093750000,0,-2.0778501034,,,
5.1250000000,0,-1.7602839470,,,
5.1406250000,0,-1.5188900232,,,
5.1562500000,0,-1.4067080021,,,
5.1718750000,0,-1.3383480310,,,
5.1875000000,0,-1.1564940214,,,
5.2031250000,0,-0.7833251953,,,
5.2187500000,0,-0.2865295112,,,
5.2343750000,0,0.1517944038,,,
5.2500000000,0,0.3569945991,,,
5.2656250000,0,0.2848815918,,,
5.2812500000,0,0.0622863807,,,
5.2968750000,0,-0.1059264988,,,
5.3125000000,0,-0.0909729004,,,
5.3281250000,0,0.1033324972,,,
5.3437500000,0,0.3441162109,,,
5.3593750000,0,0.4776611030,,,
5.3750000000,0,0.4364928901,,,
5.3906250000,0,0.2808837891,,,
5.4062500000,0,0.1455383003,,,
5.4218750000,0,0.1379089057,,,
5.4375000000,0,0.2693481147,,,
5.4531250000,0,0.4598694146,,,
5.4687500000,0,0.6135559082,,,
5.4843750000,0,0.6841735840,,,
5.5000000000,0,0.6846619248,,,
5.5156250000,0,0.6633605957,,,
5.5312500000,0,0.6352539063,,,
5.5468750000,0,0.5752257705,,,
5.5625000000,0,0.4397583008,,,
5.5781250000,0,0.2113952935,,,
5.5937500000,0,-0.0594482385,,,
5.6093750000,0,-0.2913512886,,,
5.6250000000,0,-0.3992615044,,,
5.6406250000,0,-0.3516541123,,,
5.6562500000,0,-0.1870422065,,,
5.6718750000,0,-0.0008239746,,,
5.6875000000,0,0.1383666992,,,
5.7031250000,0,0.1901855022,,,
5.7187500000,0,0.1494141072,,,
5.7343750000,0,0.0563049316,,,
5.7500000000,0,-0.0448303185,,,
5.7656250000,0,-0.1406860054,,,
5.7812500000,0,-0.2183227986,,,
5.7968750000,0,-0.3049621880,,,
5.8125000000,0,-0.4425964057,,,
5.8281250000,0,-0.6731262207,,,
5.8437500000,0,-0.9986572266,,,
5.8593750000,0,-1.3603819609,,,
5.8750000000,0,-1.6471860409,,,
5.8906250000,0,-1.7415159941,,,
5.9062500000,0,-1.5726009607,,,
5.9218750000,0,-1.1593320370,,,
5.9375000000,0,-0.6069641113,,,
5.9531250000,0,-0.0496826209,,,
5.9687500000,0,0.4216003120,,,
5.9843750000,0,0.7961121202,,,
6.0000000000,0,1.1195679903,,,
6.0156250000,0,1.4301760197,,,
6.0312500000,0,1.6944580078,,,
6.0468750000,0,1.8197629452,,,
6.0625000000,0,1.7142640352,,,
6.0781250000,0,1.3635250330,,,
6.0937500000,0,0.8753967285,,,
6.1093750000,0,0.4218750000,,,
6.1250000000,0,0.1335753947,,,
6.1406250000,0,0.0250549298,,,
6.1562500000,0,-0.0026245120,,,
6.1718750000,0,-0.0899963379,,,
6.1875000000,0,-0.2929688096,,,
6.2031250000,0,-0.5609741211,,,
6.2187500000,0,-0.7849121094,,,
6.2343750000,0,-0.8945618272,,,
6.2500000000,0,-0.9180603027,,,
6.2656250000,0,-0.9827576280,,,
6.2812500000,0,-1.1716610193,,,
6.2968750000,0,-1.4682919979,,,
6.3125000000,0,-1.6922910213,,,
6.3281250000,0,-1.6333620548,,,
6.3437500000,0,-1.1844480038,,,
6.3593750000,0,-0.4359436035,,,
6.3750000000,0,0.3713988960,,,
6.3906250000,0,0.9538574219,,,
6.4062500000,0,1.1539609432,,,
6.4218750000,0,1.0089420080,,,
6.4375000000,0,0.6961364746,,,
6.4531250000,0,0.4115295112,,,
6.4687500000,0,0.2637023926,,,
6.4843750000,0,0.2351074070,,,
6.5000000000,0,0.2320251018,,,
6.5156250000,0,0.1856994927,,,
6.5312500000,0,0.0830078125,,,
6.5468750000,0,-0.0282897893,,,
6.5625000000,0,-0.0739440918,,,
6.5781250000,0,-0.0454101600,,,
6.5937500000,0,0.0026550291,,,
6.6093750000,0,-0.0161743201,,,
6.6250000000,0,-0.1619262993,,,
6.6406250000,0,-0.4256286919,,,
6.6562500000,0,-0.7282714844,,,
6.6718750000,0,-0.9766234756,,,
6.6875000000,0,-1.0997010469,,,
6.7031250000,0,-1.0770570040,,,
6.7187500000,0,-0.9393311143,,,
6.7343750000,0,-0.7350159287,,,
6.7500000000,0,-0.4916382134,,,
6.7656250000,0,-0.2340393066,,,
6.7812500000,0,0.0502929688,,,
6.7968750000,0,0.3627929986,,,
6.8125000000,0,0.7160034180,,,
6.8281250000,0,1.0979609489,,,
6.8437500000,0,1.4862669706,,,
6.8593750000,0,1.8222349882,,,
6.8750000000,0,2.0602109432,,,
6.8906250000,0,2.1600949764,,,
6.9062500000,0,2.1068120003,,,
6.9218750000,0,1.9100949764,,,
6.9375000000,0,1.6119689941,,,
6.9531250000,0,1.2713619471,,,
6.9687500000,0,0.9571228027,,,
6.9843750000,0,0.7259520888,,,
7.0000000000,0,0.6157531738,,,
7.0156250000,0,0.6403809190,,,
7.0312500000,0,0.7900084853,,,
7.0468750000,0,1.0271300077,,,
7.0625000000,0,1.3014529943,,,
7.0781250000,0,1.5469969511,,,
7.0937500000,0,1.7027280331,,,
7.1093750000,0,1.7210079432,,,
7.1250000000,0,1.5624690056,,,
7.1406250000,0,1.1971130371,,,
7.1562500000,0,0.6277161241,,,
7.1718750000,0,-0.1057739034,,,
7.1875000000,0,-0.9050292969,,,
7.2031250000,0,-1.6186519861,,,
7.2187500000,0,-2.0985410213,,,
7.2343750000,0,-2.2574160099,,,
7.2500000000,0,-2.1074221134,33025,7.2500000000,0.0000000000
7.2656250000,0,-1.7628480196,,,
7.2812500000,0,-1.3785710335,,,
7.2968750000,0,-1.0865169764,,,
7.3125000000,0,-0.9306945801,,,
7.3281250000,0,-0.8728026748,,,
7.3437500000,0,-0.8244934082,,,
7.3593750000,0,-0.7313842773,,,
7.3750000000,0,-0.5862426758,,,
7.3906250000,0,-0.4152526855,,,
7.4062500000,0,-0.2674255073,33024,7.4062500000,0.0000000000
7.4218750000,0,-0.1632384956,,,
7.4375000000,0,-0.0942993164,,,
7.4531250000,0,-0.0368957482,,,
7.4687500000,0,0.0242614709,,,
7.4843750000,0,0.0912170410,,,
7.5000000000,0,0.1625366062,,,
7.5156250000,0,0.2168273926,,,
7.5312500000,0,0.2430724949,,,
7.5468750000,0,0.2309264988,,,
7.5625000000,0,0.1881103963,,,
7.5781250000,0,0.1493529975,,,
7.5937500000,0,0.1589355022,,,
7.6093750000,0,0.2559813857,,,
7.6250000000,0,0.4450072944,,,
7.6406250000,0,0.6619873047,,,
7.6562500000,0,0.8084105849,,,
7.6718750000,0,0.8051146865,,,
7.6875000000,0,0.6328430176,,,
7.7031250000,0,0.3405457139,,,
7.7187500000,0,0.0060119629,,,
7.7343750000,0,-0.3077392876,,,
7.7500000000,0,-0.5838013291,,,
7.7656250000,0,-0.8313903809,,,
7.7812500000,0,-1.0675350428,,,
7.7968750000,0,-1.2648930550,,,
7.8125000000,0,-1.3635859489,,,
7.8281250000,0,-1.3018490076,,,
7.8437500000,0,-1.0637209415,,,
7.8593750000,0,-0.7031250000,,,
7.8750000000,0,-0.3428040147,,,
7.8906250000,0,-0.0981445313,,,
7.9062500000,0,-0.0436401404,,,
7.9218750000,0,-0.1830749959,,,
7.9375000000,0,-0.4492188096,,,
7.9531250000,0,-0.7560729980,,,
7.9687500000,0,-1.0414429903,,,
7.9843750000,0,-1.2786560059,,,
8.0000000000,1,-1.4752810001,,,
8.0156250000,1,-1.6635440588,,,
8.0312500000,1,-1.8554079533,,,
8.0468750000,1,-2.0228879452,,,
8.0625000000,1,-2.0959169865,,,
8.0781250000,1,-1.9990229607,,,
8.0937500000,1,-1.6983029842,,,
8.1093750000,1,-1.2366939783,,,
8.1250000000,1,-0.7101746202,,,
8.1406250000,1,-0.2227173001,,,
8.1562500000,1,0.1724548042,,,
8.1718750000,1,0.4826354980,,,
8.1875000000,1,0.7819519043,,,
8.2031250000,1,1.1522829533,,,
8.2187500000,1,1.6222840548,,,
8.2343750000,1,2.1381230354,,,
8.2500000000,1,2.5900878906,,,
8.2656250000,1,2.8810119629,,,
8.2812500000,1,2.9486999512,,,
8.2968750000,1,2.8219599724,,,
8.3125000000,1,2.5770568848,,,
8.3281250000,1,2.3206479549,,,
8.3437500000,1,2.0894470215,,,
8.3593750000,1,1.8740229607,,,
8.3750000000,1,1.6090999842,,,
8.3906250000,1,1.2377619743,,,
8.4062500000,1,0.7677307129,,,
8.4218750000,1,0.2684020996,,,
8.4375000000,1,-0.1448668987,,,
8.4531250000,1,-0.3685607910,,,
8.4687500000,1,-0.3844909966,,,
8.4843750000,1,-0.2555237114,,,
8.5000000000,1,-0.0820922926,,,
8.5156250000,1,0.0685119629,,,
8.5312500000,1,0.1988220066,,,
8.5468750000,1,0.3405151069,,,
8.5625000000,1,0.5464782715,,,
8.5781250000,1,0.8202208877,,,
8.5937500000,1,1.0979000330,,,
8.6093750000,1,1.3096619844,,,
8.6250000000,1,1.4124759436,,,
8.6406250000,1,1.4163819551,,,
8.6562500000,1,1.3741459846,,,
8.6718750000,1,1.3155820370,,,
8.6875000000,1,1.2134089470,,,
8.7031250000,1,0.9980468750,,,
8.7187500000,1,0.5834044814,,,
8.7343750000,1,-0.0299682599,,,
8.7500000000,1,-0.7424926758,,,
8.7656250000,1,-1.3783869743,,,
8.7812500000,1,-1.7702330351,,,
8.7968750000,1,-1.8385310173,,,
8.8125000000,1,-1.6510930061,,,
8.8281250000,1,-1.3429260254,,,
8.8437500000,1,-1.0667419434,,,
8.8593750000,1,-0.9091796875,,,
8.8750000000,1,-0.8426514268,,,
8.8906250000,1,-0.7851868272,,,
8.9062500000,1,-0.6754760742,,,
8.9218750000,1,-0.5130310059,,,
8.9375000000,1,-0.3853454888,,,
8.9531250000,1,-0.4086608887,,,
8.9687500000,1,-0.6400452256,,,
8.9843750000,1,-1.0436099768,,,
9.0000000000,1,-1.5176090002,,,
9.0156250000,1,-1.9263310432,,,
9.0312500000,1,-2.1692500114,,,
9.0468750000,1,-2.2366940975,,,
9.0625000000,1,-2.1780400276,,,
9.0781250000,1,-2.0644230843,,,
9.0937500000,1,-1.9294129610,,,
9.1093750000,1,-1.7390439510,,,
9.1250000000,1,-1.4263609648,,,
9.1406250000,1,-0.9356079102,,,
9.1562500000,1,-0.2830505073,,,
9.1718750000,1,0.4183349907,,,
9.1875000000,1,0.9924926758,,,
9.2031250000,1,1.3157349825,,,
9.2187500000,1,1.3407590389,,,
9.2343750000,1,1.1445310116,,,
9.2500000000,1,0.8779296875,,,
9.2656250000,1,0.6893311143,,,
9.2812500000,1,0.6587523818,,,
9.2968750000,1,0.7907410264,,,
9.3125000000,1,1.0182800293,,,
9.3281250000,1,1.2531429529,,,
9.3437500000,1,1.4154659510,,,
9.3593750000,1,1.4422910213,,,
9.3750000000,1,1.2959289551,,,
9.3906250000,1,0.9719849229,,,
9.4062500000,1,0.5014647841,,,
9.4218750000,1,-0.0356140099,,,
9.4375000000,1,-0.5297545791,,,
9.4531250000,1,-0.9064636230,,,
9.4687500000,1,-1.1251529455,,,
9.4843750000,1,-1.2036440372,,,
9.5000000000,1,-1.1994019747,,,
9.5156250000,1,-1.1619869471,,,
9.5312500000,1,-1.1149899960,,,
9.5468750000,1,-1.0383299589,,,
9.5625000000,1,-0.9008178711,,,
9.5781250000,1,-0.6843261719,,,
9.5937500000,1,-0.4212951958,,,
9.6093750000,1,-0.1737060994,,,
9.6250000000,1,-0.0220336895,,,
9.6406250000,1,-0.0063781738,,,
9.6562500000,1,-0.0960998535,,,
9.6718750000,1,-0.2066649944,,,
9.6875000000,1,-0.2387084961,,,
9.7031250000,1,-0.1404723972,,,
9.7187500000,1,0.0544433594,,,
9.7343750000,1,0.2375487983,,,
9.7500000000,1,0.3064574897,,,
9.7656250000,1,0.2175597996,,,
9.7812500000,1,0.0182189904,,,
9.7968750000,1,-0.1785278022,,,
9.8125000000,1,-0.2711791992,,,
9.8281250000,1,-0.2335509956,,,
9.8437500000,1,-0.1348267049,,,
9.8593750000,1,-0.0897521973,,,
9.8750000000,1,-0.1647949070,,,
9.8906250000,1,-0.3265990913,,,
9.9062500000,1,-0.4712218940,,,
9.9218750000,1,-0.4946593940,,,
9.9375000000,1,-0.3554077148,,,
9.9531250000,1,-0.1288146973,,,
9.9687500000,1,0.0700378418,,,
9.9843750000,1,0.1431580037,,,
10.0000000000,1,0.0939636230,,,
10.0156250000,1,0.0107116699,,,
10.0312500000,1,0.0154418899,,,
10.0468750000,1,0.1742859036,,,
10.0625000000,1,0.4299316108,,,
10.0781250000,1,0.6597899795,,,
10.0937500000,1,0.7397766113,,,
10.1093750000,1,0.6248779297,,,
10.1250000000,1,0.3735046089,,,
10.1406250000,1,0.1137389988,,,
10.1562500000,1,-0.0368957482,,,
10.1718750000,1,-0.0390625000,,,
10.1875000000,1,0.0797424316,,,
10.2031250000,1,0.2419739068,,,
10.2187500000,1,0.3841247857,,,
10.2343750000,1,0.4721679986,,,
10.2500000000,1,0.5299376845,,,
10.2656250000,1,0.6019287109,,,
10.2812500000,1,0.7305908203,,,
10.2968750000,1,0.9142150879,,,
10.3125000000,1,1.0997920036,,,
10.3281250000,1,1.1976319551,,,
10.3437500000,1,1.1252440214,,,
10.3593750000,1,0.8406677246,,,
10.3750000000,1,0.3884277046,,,
10.3906250000,1,-0.1103210002,,,
10.4062500000,1,-0.5042725205,,,
10.4218750000,1,-0.6745911241,,,
10.4375000000,1,-0.6134033203,,,
10.4531250000,1,-0.4098815918,,,
10.4687500000,1,-0.1921081990,,,
10.4843750000,1,-0.0573425293,,,
10.5000000000,1,-0.0036010740,,,
10.5156250000,1,0.0311584491,,,
10.5312500000,1,0.1200561970,,,
10.5468750000,1,0.2814025879,,,
10.5625000000,1,0.4304504097,,,
10.5781250000,1,0.4559937119,,,
10.5937500000,1,0.2798461914,,,
10.6093750000,1,-0.0637817383,,,
10.6250000000,1,-0.4559020996,,,
10.6406250000,1,-0.7308959961,,,
10.6562500000,1,-0.7717589736,,,
10.6718750000,1,-0.5789489746,,,
10.6875000000,1,-0.2381591946,,,
10.7031250000,1,0.1147765964,,,
10.7187500000,1,0.3572692871,,,
10.7343750000,1,0.4456177056,,,
10.7500000000,1,0.3982849121,,,
10.7656250000,1,0.2619934082,,,
10.7812500000,1,0.0973815918,,,
10.7968750000,1,-0.0677795410,,,
10.8125000000,1,-0.2168578953,,,
10.8281250000,1,-0.3449096978,,,
10.8437500000,1,-0.4339294136,,,
10.8593750000,1,-0.4480591118,,,
10.8750000000,1,-0.3499755859,,,
10.8906250000,1,-0.1588744968,,,
10.9062500000,1,0.0437011681,,,
10.9218750000,1,0.1522216946,,,
10.9375000000,1,0.0643615723,,,
10.9531250000,1,-0.2243347019,,,
10.9687500000,1,-0.5862122178,,,
10.9843750000,1,-0.8351439834,,,
11.0000000000,1,-0.8036499023,,,
11.0156250000,1,-0.4614867866,,,
11.0312500000,1,0.0457153283,,,
11.0468750000,1,0.4934386909,,,
11.0625000000,1,0.6807860732,,,
11.0781250000,1,0.5742797852,,,
11.0937500000,1,0.3092651069,,,
11.1093750000,1,0.1137695014,,,
11.1250000000,1,0.1390075982,,,
11.1406250000,1,0.3971863091,,,
11.1562500000,1,0.7642211914,,,
11.1718750000,1,1.0643010139,,,
11.1875000000,1,1.2078249454,,,
11.2031250000,1,1.2237550020,,,
11.2187500000,1,1.2106629610,,,
11.2343750000,1,1.2567750216,,,
11.2500000000,1,1.3683470488,,,
11.2656250000,1,1.4558720589,,,
11.2812500000,1,1.4123229980,,,
11.2968750000,1,1.1636660099,,,
11.3125000000,1,0.7353516221,,,
11.3281250000,1,0.2189635932,,,
11.3437500000,1,-0.2722473145,,,
11.3593750000,1,-0.6592102051,,,
11.3750000000,1,-0.8912354112,,,
11.3906250000,1,-0.9552611709,,,
11.4062500000,1,-0.8677368164,,,
11.4218750000,1,-0.6342772841,,,
11.4375000000,1,-0.2908936143,,,
11.4531250000,1,0.1005859002,,,
11.4687500000,1,0.4564208984,,,
11.4843750000,1,0.6684874892,,,
11.5000000000,1,0.6511229873,,,
11.5156250000,1,0.3489989936,,,
11.5312500000,1,-0.2017212063,,,
11.5468750000,1,-0.8890991211,,,
11.5625000000,1,-1.5539549589,,,
11.5781250000,1,-2.0472409725,,,
11.5937500000,1,-2.2646789551,,,
11.6093750000,1,-2.1872859001,,,
11.6250000000,1,-1.8776550293,,,
11.6406250000,1,-1.4521789551,,,
11.6562500000,1,-1.0392459631,,,
11.6718750000,1,-0.7318419814,,,
11.6875000000,1,-0.5775145888,,,
11.7031250000,1,-0.5482788086,,,
11.7187500000,1,-0.5733947754,,,
11.7343750000,1,-0.5710753798,,,
11.7500000000,1,-0.4802246094,,,
11.7656250000,1,-0.3052673042,,,
11.7812500000,1,-0.1043090969,,,
11.7968750000,1,0.0345764197,,,
11.8125000000,1,0.0448608398,,,
11.8281250000,1,-0.0564880408,,,
11.8437500000,1,-0.1856383979,,,
11.8593750000,1,-0.2554320991,,,
11.8750000000,1,-0.1994629055,,,
11.8906250000,1,-0.0513610803,,,
11.9062500000,1,0.0909423828,,,
11.9218750000,1,0.1546325982,,,
11.9375000000,1,0.1169738993,,,
11.9531250000,1,0.0410461389,,,
11.9687500000,1,0.0275268592,,,
11.9843750000,1,0.1452331990,,,
12.0000000000,1,0.3888550103,,,
12.0156250000,1,0.6627197266,,,
12.0312500000,1,0.8530272841,,,
12.0468750000,1,0.8739929199,,,
12.0625000000,1,0.7230834961,,,
12.0781250000,1,0.4500732124,,,
12.0937500000,1,0.1530151069,,,
12.1093750000,1,-0.0806579590,,,
12.1250000000,1,-0.1973571926,,,
12.1406250000,1,-0.1974181980,,,
12.1562500000,1,-0.1152343974,,,
12.1718750000,1,-0.0072326660,,,
12.1875000000,1,0.0576171912,,,
12.2031250000,1,0.0442199707,,,
12.2187500000,1,-0.0419006310,,,
12.2343750000,1,-0.1427612007,,,
12.2500000000,1,-0.1676941067,,,
12.2656250000,1,-0.0460510291,,,
12.2812500000,1,0.2317810059,,,
12.2968750000,1,0.6087036133,,,
12.3125000000,1,0.9601746202,,,
12.3281250000,1,1.1837459803,,,
12.3437500000,1,1.2254940271,,,
12.3593750000,1,1.0900570154,,,
12.3750000000,1,0.8417664170,,,
12.3906250000,1,0.5509033203,,,
12.4062500000,1,0.2725524902,,,
12.4218750000,1,0.0320129395,,,
12.4375000000,1,-0.1643981934,,,
12.4531250000,1,-0.3232421875,,,
12.4687500000,1,-0.4310303032,,,
12.4843750000,1,-0.4733276069,,,
12.5000000000,1,-0.4537048042,,,
12.5156250000,1,-0.3796691895,,,
12.5312500000,1,-0.2866210938,,,
12.5468750000,1,-0.2131042033,,,
12.5625000000,1,-0.1946105957,,,
12.5781250000,1,-0.2673340142,,,
12.5937500000,1,-0.4514771104,,,
12.6093750000,1,-0.7333679199,,,
12.6250000000,1,-1.0560909510,,,
12.6406250000,1,-1.3354190588,,,
12.6562500000,1,-1.4907840490,,,
12.6718750000,1,-1.4816279411,,,
12.6875000000,1,-1.3268129826,,,
12.7031250000,1,-1.0981450081,,,
12.7187500000,1,-0.8654479980,,,
12.7343750000,1,-0.6637268066,,,
12.7500000000,1,-0.4832457900,,,
12.7656250000,1,-0.2757874131,,,
12.7812500000,1,-0.0171508808,,,
12.7968750000,1,0.2621459961,,,
12.8125000000,1,0.4783324897,,,
12.8281250000,1,0.5729370117,,,
12.8437500000,1,0.5578917861,,,
12.8593750000,1,0.5294188857,,,
12.8750000000,1,0.5977478027,,,
12.8906250000,1,0.8013610840,,,
12.9062500000,1,1.0566409826,,,
12.9218750000,1,1.2081600428,,,
12.9375000000,1,1.1321409941,,,
12.9531250000,1,0.8197020888,,,
12.9687500000,1,0.3972167969,,,
12.9843750000,1,0.0582580604,,,
13.0000000000,1,-0.0668945313,,,
13.0156250000,1,0.0287780799,,,
13.0312500000,1,0.2246703953,,,
13.0468750000,1,0.3558044136,,,
13.0625000000,1,0.3108521104,,,
13.0781250000,1,0.0743713379,,,
13.0937500000,1,-0.2819213867,,,
13.1093750000,1,-0.6453247070,,,
13.1250000000,1,-0.9126281738,,,
13.1406250000,1,-0.9939879775,,,
13.1562500000,1,-0.8576049805,,,
13.1718750000,1,-0.5317687988,,,
13.1875000000,1,-0.1198424995,,,
13.2031250000,1,0.2071228027,,,
13.2187500000,1,0.3136292100,,,
13.2343750000,1,0.1708374023,,,
13.2500000000,1,-0.1216431037,,,
13.2656250000,1,-0.3784790039,,,
13.2812500000,1,-0.4232178032,,,
13.2968750000,1,-0.1964416951,,,
13.3125000000,1,0.2221985012,,,
13.3281250000,1,0.6675109863,,,
13.3437500000,1,0.9839478135,,,
13.3593750000,1,1.0887149572,,,
13.3750000000,1,0.9915465713,,,
13.3906250000,1,0.7695618272,,,
13.4062500000,1,0.5043334961,,,
13.4218750000,1,0.2617492974,,,
13.4375000000,1,0.0931091309,,,
13.4531250000,1,0.0443420410,,,
13.4687500000,1,0.1252440959,,,
13.4843750000,1,0.3150329888,,,
13.5000000000,1,0.5415039063,,,
13.5156250000,1,0.7023314834,,,
13.5312500000,1,0.7202758789,,,
13.5468750000,1,0.5694580078,,,
13.5625000000,1,0.2988586128,,,
13.5781250000,1,0.0086669922,,,
13.5937500000,1,-0.1875305027,,,
13.6093750000,1,-0.2196045071,,,
13.6250000000,1,-0.0940551832,,,
13.6406250000,1,0.1025696024,,,
13.6562500000,1,0.2380675972,,,
13.6718750000,1,0.2063293010,,,
13.6875000000,1,-0.0018005370,,,
13.7031250000,1,-0.3036499023,,,
13.7187500000,1,-0.5484923720,,,
13.7343750000,1,-0.6104125977,,,
13.7500000000,1,-0.4568175972,,,
13.7656250000,1,-0.1709289998,,,
13.7812500000,1,0.1168823019,,,
13.7968750000,1,0.3101806939,,,
13.8125000000,1,0.4028930962,,,
13.8281250000,1,0.4671325982,,,
13.8437500000,1,0.5836791992,,,
13.8593750000,1,0.7634583116,,,
13.8750000000,1,0.9407042861,,,
13.8906250000,1,1.0089110136,,,
13.9062500000,1,0.9013062119,,,
13.9218750000,1,0.6434020996,,,
13.9375000000,1,0.3420409858,,,
13.9531250000,1,0.1176147014,,,
13.9687500000,1,0.0307922401,,,
13.9843750000,1,0.0566406287,,,
14.0000000000,1,0.1166381985,,,
14.0156250000,1,0.1283874959,,,
14.0312500000,1,0.0759277269,,,
14.0468750000,1,0.0097351074,,,
14.0625000000,1,-0.0148010300,,,
14.0781250000,1,0.0429077111,,,
14.0937500000,1,0.1659241021,,,
14.1093750000,1,0.2922667861,,,
14.1250000000,1,0.3575744927,,,
14.1406250000,1,0.3201903999,,,
14.1562500000,1,0.1818237007,,,
14.1718750000,1,-0.0191955604,,,
14.1875000000,1,-0.2428589016,,,
14.2031250000,1,-0.4629822075,,,
14.2187500000,1,-0.6596375108,,,
14.2343750000,1,-0.8202208877,,,
14.2500000000,1,-0.9184265137,,,
14.2656250000,1,-0.9314270020,,,
14.2812500000,1,-0.8503417969,,,
14.2968750000,1,-0.6925048828,,,
14.3125000000,1,-0.4905700982,,,
14.3281250000,1,-0.2824707031,,,
14.3437500000,1,-0.1097107008,,,
14.3593750000,1,-0.0233154297,,,
14.3750000000,1,-0.0718688965,,,
14.3906250000,1,-0.2813416123,,,
14.4062500000,1,-0.6299132705,,,
14.4218750000,1,-1.0438840389,,,
14.4375000000,1,-1.4103699923,,,
14.4531250000,1,-1.6300959587,,,
14.4687500000,1,-1.6454470158,,,
14.4843750000,1,-1.4714659452,,,
14.5000000000,1,-1.1701970100,,,
14.5156250000,1,-0.8368834853,,,
14.5312500000,1,-0.5531920791,,,
14.5468750000,1,-0.3599548042,,,
14.5625000000,1,-0.2586365044,,,
14.5781250000,1,-0.2105102986,,,
14.5937500000,1,-0.1560364068,,,
14.6093750000,1,-0.0330810510,,,
14.6250000000,1,0.2001647949,,,
14.6406250000,1,0.5466002822,,,
14.6562500000,1,0.9501342773,,,
14.6718750000,1,1.3243410587,,,
14.6875000000,1,1.5818480253,,,
14.7031250000,1,1.6606140137,,,
14.7187500000,1,1.5493160486,,,
14.7343750000,1,1.2644040585,,,
14.7500000000,1,0.8543701172,,,
14.7656250000,1,0.3794861138,,,
14.7812500000,1,-0.0809936523,,,
14.7968750000,1,-0.4429931939,,,
14.8125000000,1,-0.6444702148,,,
14.8281250000,1,-0.6628417969,,,
14.8437500000,1,-0.5417175293,,,
14.8593750000,1,-0.3665770888,,,
14.8750000000,1,-0.2252196968,,,
14.8906250000,1,-0.1725464016,,,
14.9062500000,1,-0.2218932956,,,
14.9218750000,1,-0.3669433892,,,
14.9375000000,1,-0.5839539170,,,
14.9531250000,1,-0.8515930176,,,
14.9687500000,1,-1.1355589628,,,
14.9843750000,1,-1.3859859705,,,
15.0000000000,1,-1.5342099667,,,
15.0156250000,1,-1.5581669807,,,
15.0312500000,1,-1.4899599552,,,
15.0468750000,1,-1.4297790527,,,
15.0625000000,1,-1.4663699865,,,
15.0781250000,1,-1.6189880371,,,
15.0937500000,1,-1.8016049862,,,
15.1093750000,1,-1.8648680449,,,
15.1250000000,1,-1.6974489689,,,
15.1406250000,1,-1.2759089470,,,
15.1562500000,1,-0.7050476074,,,
15.1718750000,1,-0.1400451958,,,
15.1875000000,1,0.2929992974,,,
15.2031250000,1,0.5596312881,,,
15.2187500000,1,0.7103270888,,,
15.2343750000,1,0.8291625977,,,
15.2500000000,1,0.9802551270,,,
15.2656250000,1,1.1780090332,,,
15.2812500000,1,1.3943480253,,,
15.2968750000,1,1.6079410315,,,
15.3125000000,1,1.8031920195,,,
15.3281250000,1,1.9584050179,,,
15.3437500000,1,2.0229799747,,,
15.3593750000,1,1.9373170137,,,
15.3750000000,1,1.6729739904,,,
15.3906250000,1,1.2769470215,,,
15.4062500000,1,0.8882141113,,,
15.4218750000,1,0.6420288086,,,
15.4375000000,1,0.5957642198,,,
15.4531250000,1,0.6967163086,,,
15.4687500000,1,0.8042603135,,,
15.4843750000,1,0.7754821777,,,
15.5000000000,1,0.5641173720,,,
15.5156250000,1,0.2462769002,,,
15.5312500000,1,-0.0372314490,,,
15.5468750000,1,-0.1729125977,,,
15.5625000000,1,-0.1428833008,,,
15.5781250000,1,-0.0388793908,,,
15.5937500000,1,0.0269470196,,,
15.6093750000,1,-0.0013427730,,,
15.6250000000,1,-0.0977783203,,,
15.6406250000,1,-0.1658325046,,,
15.6562500000,1,-0.1312561035,,,
15.6718750000,1,0.0055236821,,,
15.6875000000,1,0.1709595025,,,
15.7031250000,1,0.2562561035,,,
15.7187500000,1,0.1846618950,,,
15.7343750000,1,-0.0364379883,,,
15.7500000000,1,-0.3294678032,,,
15.7656250000,1,-0.5632324219,,,
15.7812500000,1,-0.6260070801,,,
15.7968750000,1,-0.4632262886,,,
15.8125000000,1,-0.1002807990,,,
15.8281250000,1,0.3685913086,,,
15.8437500000,1,0.8037719727,,,
15.8593750000,1,1.0849909782,,,
15.8750000000,1,1.1505739689,,,
15.8906250000,1,1.0071719885,,,
15.9062500000,1,0.7419738770,,,
15.9218750000,1,0.4537048042,,,
15.9375000000,1,0.2044066936,,,
15.9531250000,1,0.0131835900,,,
15.9687500000,1,-0.1267395020,,,
15.9843750000,1,-0.2162169963,,,
16.0000000000,2,-0.2164611965,,,
16.0156250000,2,-0.0773925781,,,
16.0312500000,2,0.1928406060,,,
16.0468750000,2,0.5232238770,,,
16.0625000000,2,0.7847290039,,,
16.0781250000,2,0.8489685059,,,
16.0937500000,2,0.6639404297,,,
16.1093750000,2,0.2800292969,,,
16.1250000000,2,-0.1624145955,,,
16.1406250000,2,-0.5279541016,,,
16.1562500000,2,-0.7328186035,,,
16.1718750000,2,-0.7783507705,,,
16.1875000000,2,-0.7162476182,,,
16.2031250000,2,-0.6109923720,,,
16.2187500000,2,-0.5101928711,,,
16.2343750000,2,-0.4190062881,,,
16.2500000000,2,-0.3333435059,,,
16.2656250000,2,-0.2380675972,,,
16.2812500000,2,-0.1380919963,,,
16.2968750000,2,-0.0490722694,,,
16.3125000000,2,0.0046386719,,,
16.3281250000,2,-0.0068969731,,,
16.3437500000,2,-0.1072082967,,,
16.3593750000,2,-0.2953186035,,,
16.3750000000,2,-0.5346984863,,,
16.3906250000,2,-0.7706298828,,,
16.4062500000,2,-0.9386901855,,,
16.4218750000,2,-0.9896851182,,,
16.4375000000,2,-0.9244995117,,,
16.4531250000,2,-0.8089600205,,,
16.4687500000,2,-0.7172545791,,,
16.4843750000,2,-0.7021790147,,,
16.5000000000,2,-0.7480773926,,,
16.5156250000,2,-0.7547913194,,,
16.5312500000,2,-0.6135864258,,,
16.5468750000,2,-0.2617492974,,,
16.5625000000,2,0.2540588081,,,
16.5781250000,2,0.8043518066,,,
16.5937500000,2,1.2215579748,,,
16.6093750000,2,1.3945620060,,,
16.6250000000,2,1.3352659941,,,
16.6406250000,2,1.1362919807,,,
16.6562500000,2,0.9232788086,,,
16.6718750000,2,0.7578430176,,,
16.6875000000,2,0.6148682237,,,
16.7031250000,2,0.3980712891,,,
16.7187500000,2,0.0402221717,,,
16.7343750000,2,-0.4554443061,,,
16.7500000000,2,-0.9910889268,,,
16.7656250000,2,-1.4347230196,,,
16.7812500000,2,-1.6686710119,,,
16.7968750000,2,-1.6723330021,,,
16.8125000000,2,-1.5055849552,,,
16.8281250000,2,-1.2898859978,,,
16.8437500000,2,-1.1538089514,,,
16.8593750000,2,-1.1584169865,,,
16.8750000000,2,-1.2926030159,,,
16.8906250000,2,-1.4556269646,,,
16.9062500000,2,-1.5240780115,,,
16.9218750000,2,-1.4045100212,,,
16.9375000000,2,-1.0665279627,,,
16.9531250000,2,-0.5721129775,,,
16.9687500000,2,-0.0253601093,,,
16.9843750000,2,0.4682312012,,,
17.0000000000,2,0.8247069716,,,
17.0156250000,2,1.0195310116,,,
17.0312500000,2,1.0741269588,,,
17.0468750000,2,1.0404659510,,,
17.0625000000,2,0.9776917100,,,
17.0781250000,2,0.9275817871,,,
17.0937500000,2,0.9065856934,,,
17.1093750000,2,0.8945006728,,,
17.1250000000,2,0.8813781738,,,
17.1406250000,2,0.8593444824,,,
17.1562500000,2,0.8402709961,,,
17.1718750000,2,0.8578491211,,,
17.1875000000,2,0.9345092773,,,
17.2031250000,2,1.0549620390,,,
17.2187500000,2,1.1754759550,,,
17.2343750000,2,1.2369379997,,,
17.2500000000,2,1.2099909782,,,
17.2656250000,2,1.0913699865,,,
17.2812500000,2,0.9309691787,,,
17.2968750000,2,0.7837523818,,,
17.3125000000,2,0.6762084961,,,
17.3281250000,2,0.5723571777,,,
17.3437500000,2,0.4198913872,,,
17.3593750000,2,0.1995850056,,,
17.3750000000,2,-0.0711975098,,,
17.3906250000,2,-0.3258362114,,,
17.4062500000,2,-0.4761962891,,,
17.4218750000,2,-0.4770202935,,,
17.4375000000,2,-0.3434753120,,,
17.4531250000,2,-0.1525574028,,,
17.4687500000,2,-0.0120239304,,,
17.4843750000,2,0.0046691890,,,
17.5000000000,2,-0.1152039021,,,
17.5156250000,2,-0.2969666123,,,
17.5312500000,2,-0.4225769043,,,
17.5468750000,2,-0.3856200874,,,
17.5625000000,2,-0.1450805962,,,
17.5781250000,2,0.2328795940,,,
17.5937500000,2,0.6078186035,,,
17.6093750000,2,0.8084412217,,,
17.6250000000,2,0.7326964736,,,
17.6406250000,2,0.3777160943,,,
17.6562500000,2,-0.1459351033,,,
17.6718750000,2,-0.6488037109,,,
17.6875000000,2,-0.9685974121,,,
17.7031250000,2,-1.0392459631,,,
17.7187500000,2,-0.9262694716,,,
17.7343750000,2,-0.7801818848,,,
17.7500000000,2,-0.7402648926,,,
17.7656250000,2,-0.8479003906,,,
17.7812500000,2,-1.0281070471,,,
17.7968750000,2,-1.1424560547,,,
17.8125000000,2,-1.0786739588,,,
17.8281250000,2,-0.8390808105,,,
17.8437500000,2,-0.5374451280,,,
17.8593750000,2,-0.3293761909,,,
17.8750000000,2,-0.3268432915,,,
17.8906250000,2,-0.5309752822,,,
17.9062500000,2,-0.8237305284,,,
17.9218750000,2,-1.0549010038,,,
17.9375000000,2,-1.1098020077,,,
17.9531250000,2,-0.9734497070,,,
17.9687500000,2,-0.7131348252,,,
17.9843750000,2,-0.4238586128,,,
18.0000000000,2,-0.1800231934,,,
18.0156250000,2,0.0011291500,,,
18.0312500000,2,0.1438598931,,,
18.0468750000,2,0.2833251953,,,
18.0625000000,2,0.4286194146,,,
18.0781250000,2,0.5531616211,,,
18.0937500000,2,0.6242064834,,,
18.1093750000,2,0.6105651855,,,
18.1250000000,2,0.5187988281,,,
18.1406250000,2,0.3983153999,,,
18.1562500000,2,0.2980346978,,,
18.1718750000,2,0.2556152046,,,
18.1875000000,2,0.2658996880,,,
18.2031250000,2,0.2843933105,,,
18.2187500000,2,0.2748107910,,,
18.2343750000,2,0.2350158989,,,
18.2500000000,2,0.2112731934,,,
18.2656250000,2,0.2800903022,,,
18.2812500000,2,0.5146483779,,,
18.2968750000,2,0.9359741211,,,
18.3125000000,2,1.4918819666,,,
18.3281250000,2,2.0563049316,,,
18.3437500000,2,2.4711608887,,,
18.3593750000,2,2.6069641113,,,
18.3750000000,2,2.4157099724,,,
18.3906250000,2,1.9531250000,,,
18.4062500000,2,1.3693540096,,,
18.4218750000,2,0.8344727159,,,
18.4375000000,2,0.4729919136,,,
18.4531250000,2,0.2913208008,,,
18.4687500000,2,0.2217102051,,,
18.4843750000,2,0.1747436970,,,
18.5000000000,2,0.0846557617,,,
18.5156250000,2,-0.0607299805,,,
18.5312500000,2,-0.2214965969,,,
18.5468750000,2,-0.3564147949,,,
18.5625000000,2,-0.4518738091,,,
18.5781250000,2,-0.5462952256,,,
18.5937500000,2,-0.6779174805,,,
18.6093750000,2,-0.8774414063,,,
18.6250000000,2,-1.1249690056,,,
18.6406250000,2,-1.3588260412,,,
18.6562500000,2,-1.5087280273,,,
18.6718750000,2,-1.5181879997,,,
18.6875000000,2,-1.3590999842,,,
18.7031250000,2,-1.0769959688,,,
18.7187500000,2,-0.7595520020,,,
18.7343750000,2,-0.5267943740,,,
18.7500000000,2,-0.4729003906,,,
18.7656250000,2,-0.6326293945,,,
18.7812500000,2,-0.9492188096,,,
18.7968750000,2,-1.2936400175,,,
18.8125000000,2,-1.5257569551,,,
18.8281250000,2,-1.5521850586,,,
18.8437500000,2,-1.3757929802,,,
18.8593750000,2,-1.0755920410,,,
18.8750000000,2,-0.7470092773,,,
18.8906250000,2,-0.4790954888,,,
18.9062500000,2,-0.2887268066,,,
18.9218750000,2,-0.1549683064,,,
18.9375000000,2,-0.0004577637,,,
18.9531250000,2,0.2230225056,,,
18.9687500000,2,0.5117797852,,,
18.9843750000,2,0.8134459853,,,
19.0000000000,2,1.0417180061,,,
19.0156250000,2,1.1240539551,,,
19.0312500000,2,1.0493769646,,,
19.0468750000,2,0.8839110732,,,
19.0625000000,2,0.7347106934,,,
19.0781250000,2,0.6657714844,,,
19.0937500000,2,0.6687622070,,,
19.1093750000,2,0.6417847276,,,
19.1250000000,2,0.4657897949,,,
19.1406250000,2,0.0938415527,,,
19.1562500000,2,-0.3942565918,,,
19.1718750000,2,-0.8234863281,,,
19.1875000000,2,-0.9846801758,,,
19.2031250000,2,-0.7835999131,,,
19.2187500000,2,-0.2662048042,,,
19.2343750000,2,0.3717957139,,,
19.2500000000,2,0.8979187012,,,
19.2656250000,2,1.1426090002,,,
19.2812500000,2,1.0561519861,,,
19.2968750000,2,0.7161865234,,,
19.3125000000,2,0.2471923977,,,
19.3281250000,2,-0.2222290039,,,
19.3437500000,2,-0.5977783203,,,
19.3593750000,2,-0.8356018066,,,
19.3750000000,2,-0.9161376953,,,
19.3906250000,2,-0.8422852159,,,
19.4062500000,2,-0.6238707900,,,
19.4218750000,2,-0.3086242974,,,
19.4375000000,2,0.0355529785,,,
19.4531250000,2,0.3231812119,,,
19.4687500000,2,0.4884643853,,,
19.4843750000,2,0.5063781738,,,
19.5000000000,2,0.4200744927,,,
19.5156250000,2,0.3163757026,,,
19.5312500000,2,0.2730408013,,,
19.5468750000,2,0.3355103135,,,
19.5625000000,2,0.4840697944,,,
19.5781250000,2,0.6489562988,,,
19.5937500000,2,0.7496643066,,,
19.6093750000,2,0.7407227159,,,
19.6250000000,2,0.6280211806,,,
19.6406250000,2,0.4700622857,,,
19.6562500000,2,0.3547058105,,,
19.6718750000,2,0.3363037109,,,
19.6875000000,2,0.4456177056,,,
19.7031250000,2,0.6355895996,,,
19.7187500000,2,0.8377379775,,,
19.7343750000,2,0.9799805284,,,
19.7500000000,2,0.9833374023,,,
19.7656250000,2,0.8161621094,,,
19.7812500000,2,0.4764099121,,,
19.7968750000,2,0.0119323703,,,
19.8125000000,2,-0.4970397949,,,
19.8281250000,2,-0.9607238770,,,
19.8437500000,2,-1.3024599552,,,
19.8593750000,2,-1.4888000488,,,
19.8750000000,2,-1.5330200195,,,
19.8906250000,2,-1.4934689999,,,
19.9062500000,2,-1.4237979650,,,
19.9218750000,2,-1.3473210335,,,
19.9375000000,2,-1.2583919764,,,
19.9531250000,2,-1.1222529411,,,
19.9687500000,2,-0.9082335830,,,
19.9843750000,2,-0.6207274795,,,
20.0000000000,2,-0.2943114936,,,
20.0156250000,2,0.0298156701,,,
20.0312500000,2,0.2897948921,,,
20.0468750000,2,0.4547119141,,,
20.0625000000,2,0.4969482124,,,
20.0781250000,2,0.4035033882,,,
20.0937500000,2,0.1860352010,,,
20.1093750000,2,-0.1023560017,,,
20.1250000000,2,-0.4033203125,,,
20.1406250000,2,-0.6493834853,,,
20.1562500000,2,-0.7575684190,,,
20.1718750000,2,-0.6709290147,,,
20.1875000000,2,-0.3736877143,,,
20.2031250000,2,0.0682678223,,,
20.2187500000,2,0.5258178711,,,
20.2343750000,2,0.8507996202,,,
20.2500000000,2,0.9263610840,,,
20.2656250000,2,0.7420349121,,,
20.2812500000,2,0.3894348145,,,
20.2968750000,2,0.0234985407,,,
20.3125000000,2,-0.2122803032,,,
20.3281250000,2,-0.2307433933,,,
20.3437500000,2,-0.0412902795,,,
20.3593750000,2,0.2857055962,,,
20.3750000000,2,0.6577147841,,,
20.3906250000,2,0.9768676758,,,
20.4062500000,2,1.1716309786,,,
20.4218750000,2,1.2046509981,,,
20.4375000000,2,1.0669859648,,,
20.4531250000,2,0.7847899795,,,
20.4687500000,2,0.4166870117,,,
20.4843750000,2,0.0242004395,,,
20.5000000000,2,-0.3498840034,,,
20.5156250000,2,-0.6819458008,,,
20.5312500000,2,-0.9782410264,,,
20.5468750000,2,-1.2174990177,,,
20.5625000000,2,-1.3597409725,,,
20.5781250000,2,-1.3529050350,,,
20.5937500000,2,-1.1801760197,,,
20.6093750000,2,-0.8526000977,,,
20.6250000000,2,-0.4434813857,,,
20.6406250000,2,-0.0246887207,,,
20.6562500000,2,0.3314819038,,,
20.6718750000,2,0.5659180284,,,
20.6875000000,2,0.6525878906,,,
20.7031250000,2,0.5733336806,,,
20.7187500000,2,0.3719787896,,,
20.7343750000,2,0.1317749023,,,
20.7500000000,2,-0.0265197791,,,
20.7656250000,2,-0.0129699698,,,
20.7812500000,2,0.1771851033,,,
20.7968750000,2,0.4588012993,,,
20.8125000000,2,0.6577147841,,,
20.8281250000,2,0.6263732910,,,
20.8437500000,2,0.3179016113,,,
20.8593750000,2,-0.1833495945,,,
20.8750000000,2,-0.6971436143,,,
20.8906250000,2,-1.0418699980,,,
20.9062500000,2,-1.1164250374,,,
20.9218750000,2,-0.9161986709,,,
20.9375000000,2,-0.5208435059,,,
20.9531250000,2,-0.0572204590,,,
20.9687500000,2,0.3495788872,,,
20.9843750000,2,0.6011353135,,,
21.0000000000,2,0.6488037109,,,
21.0156250000,2,0.5041809082,,,
21.0312500000,2,0.2291869968,,,
21.0468750000,2,-0.0874938965,,,
21.0625000000,2,-0.3859862983,,,
21.0781250000,2,-0.6534119248,,,
21.0937500000,2,-0.9192504883,,,
21.1093750000,2,-1.1842039824,,,
21.1250000000,2,-1.4230350256,,,
21.1406250000,2,-1.5293879509,,,
21.1562500000,2,-1.3860169649,,,
21.1718750000,2,-0.9475098252,,,
21.1875000000,2,-0.2806395888,,,
21.2031250000,2,0.4275817871,,,
21.2187500000,2,0.9826354980,,,
21.2343750000,2,1.2605589628,,,
21.2500000000,2,1.2899780273,,,
21.2656250000,2,1.2019040585,,,
21.2812500000,2,1.1390689611,,,
21.2968750000,2,1.1856989861,,,
21.3125000000,2,1.3258969784,,,
21.3281250000,2,1.4774479866,,,
21.3437500000,2,1.5487669706,,,
21.3593750000,2,1.4692989588,,,
21.3750000000,2,1.2351069450,,,
21.3906250000,2,0.8797302246,,,
21.4062500000,2,0.4569396973,,,
21.4218750000,2,0.0276794396,,,
21.4375000000,2,-0.3426513970,,,
21.4531250000,2,-0.5905457139,,,
21.4687500000,2,-0.6756287217,,,
21.4843750000,2,-0.5719298720,,,
21.5000000000,2,-0.2827453911,,,
21.5156250000,2,0.1470641941,,,
21.5312500000,2,0.6278076172,,,
21.5468750000,2,1.0344539881,,,
21.5625000000,2,1.2571719885,,,
21.5781250000,2,1.2216190100,,,
21.5937500000,2,0.9269104004,,,
21.6093750000,2,0.4689941108,,,
21.6250000000,2,-0.0192871094,,,
21.6406250000,2,-0.4180297852,,,
21.6562500000,2,-0.6649475098,,,
21.6718750000,2,-0.7860106826,,,
21.6875000000,2,-0.8547363281,,,
21.7031250000,2,-0.9420471191,,,
21.7187500000,2,-1.0641779900,,,
21.7343750000,2,-1.1984560490,,,
21.7500000000,2,-1.2993160486,,,
21.7656250000,2,-1.3172609806,,,
21.7812500000,2,-1.2294620275,,,
21.7968750000,2,-1.0316770077,,,
21.8125000000,2,-0.7290648818,,,
21.8281250000,2,-0.3617249131,,,
21.8437500000,2,0.0144958496,,,
21.8593750000,2,0.3049621880,,,
21.8750000000,2,0.4328308105,,,
21.8906250000,2,0.3507995903,,,
21.9062500000,2,0.0979309082,,,
21.9218750000,2,-0.2346190959,,,
21.9375000000,2,-0.5393372178,,,
21.9531250000,2,-0.7359923720,,,
21.9687500000,2,-0.8225098252,,,
21.9843750000,2,-0.8451843262,,,
22.0000000000,2,-0.8504332900,,,
22.0156250000,2,-0.8470153809,,,
22.0312500000,2,-0.7892150879,,,
22.0468750000,2,-0.6201171875,,,
22.0625000000,2,-0.3218384087,,,
22.0781250000,2,0.0625000000,,,
22.0937500000,2,0.4229430854,,,
22.1093750000,2,0.6635131836,,,
22.1250000000,2,0.7244263291,,,
22.1406250000,2,0.6207274795,,,
22.1562500000,2,0.4293212891,,,
22.1718750000,2,0.2232055962,,,
22.1875000000,2,0.0629577637,,,
22.2031250000,2,-0.0405273400,,,
22.2187500000,2,-0.0997619629,,,
22.2343750000,2,-0.1341553032,,,
22.2500000000,2,-0.1790466011,,,
22.2656250000,2,-0.2526549995,,,
22.2812500000,2,-0.3935241997,,,
22.2968750000,2,-0.6286926270,,,
22.3125000000,2,-0.9452819824,,,
22.3281250000,2,-1.2986450195,,,
22.3437500000,2,-1.5830080509,,,
22.3593750000,2,-1.6962889433,,,
22.3750000000,2,-1.5458680391,,,
22.3906250000,2,-1.1341550350,,,
22.4062500000,2,-0.5400084853,,,
22.4218750000,2,0.0856018066,,,
22.4375000000,2,0.5706787109,,,
22.4531250000,2,0.7880249023,,,
22.4687500000,2,0.7029418945,,,
22.4843750000,2,0.3715820014,,,
22.5000000000,2,-0.0687561035,,,
22.5156250000,2,-0.4734497070,,,
22.5312500000,2,-0.7282410264,,,
22.5468750000,2,-0.7733154297,,,
22.5625000000,2,-0.5997924805,,,
22.5781250000,2,-0.2478027046,,,
22.5937500000,2,0.2189940959,,,
22.6093750000,2,0.7397155762,,,
22.6250000000,2,1.2213439941,,,
22.6406250000,2,1.5933840275,,,
22.6562500000,2,1.8015439510,,,
22.6718750000,2,1.8324279785,,,
22.6875000000,2,1.7336119413,,,
22.7031250000,2,1.5929570198,,,
22.7187500000,2,1.4933780432,,,
22.7343750000,2,1.4835510254,,,
22.7500000000,2,1.5188900232,,,
22.7656250000,2,1.5247499943,,,
22.7812500000,2,1.4211119413,,,
22.7968750000,2,1.1827390194,,,
22.8125000000,2,0.8542479873,,,
22.8281250000,2,0.5130310059,,,
22.8437500000,2,0.2334900051,,,
22.8593750000,2,0.0166015606,,,
22.8750000000,2,-0.1878966987,,,
22.8906250000,2,-0.4476624131,,,
22.9062500000,2,-0.7759094238,,,
22.9218750000,2,-1.1105350256,,,
22.9375000000,2,-1.3331910372,,,
22.9531250000,2,-1.3396610022,,,
22.9687500000,2,-1.1047669649,,,
22.9843750000,2,-0.7063599229,,,
23.0000000000,2,-0.2725830078,,,
23.0156250000,2,0.0578918494,,,
23.0312500000,2,0.1972046047,,,
23.0468750000,2,0.1021118015,,,
23.0625000000,2,-0.2040710002,,,
23.0781250000,2,-0.6452025771,,,
23.0937500000,2,-1.1135859489,,,
23.1093750000,2,-1.4747619629,,,
23.1250000000,2,-1.6273499727,,,
23.1406250000,2,-1.5317080021,,,
23.1562500000,2,-1.2546390295,,,
23.1718750000,2,-0.9180603027,,,
23.1875000000,2,-0.6440430284,,,
23.2031250000,2,-0.4734801948,,,
23.2187500000,2,-0.3435668945,,,
23.2343750000,2,-0.1442261040,,,
23.2500000000,2,0.1932982951,,,
23.2656250000,2,0.6541748047,,,
23.2812500000,2,1.1188960075,,,
23.2968750000,2,1.4651180506,,,
23.3125000000,2,1.6275939941,,,
23.3281250000,2,1.6173709631,,,
23.3437500000,2,1.4959410429,,,
23.3593750000,2,1.3160099983,,,
23.3750000000,2,1.0747679472,,,
23.3906250000,2,0.7548828125,,,
23.4062500000,2,0.3922119141,,,
23.4218750000,2,0.0613708496,,,
23.4375000000,2,-0.1308898926,,,
23.4531250000,2,-0.1127014011,,,
23.4687500000,2,0.0893249512,,,
23.4843750000,2,0.3686828911,,,
23.5000000000,2,0.5838623047,,,
23.5156250000,2,0.6499329209,,,
23.5312500000,2,0.5731505752,,,
23.5468750000,2,0.4378356934,,,
23.5625000000,2,0.3306274116,,,
23.5781250000,2,0.2949523926,,,
23.5937500000,2,0.2979125977,,,
23.6093750000,2,0.2690734863,,,
23.6250000000,2,0.1596374959,,,
23.6406250000,2,-0.0187377892,,,
23.6562500000,2,-0.2192687988,,,
23.6718750000,2,-0.4021606147,,,
23.6875000000,2,-0.5567626953,,,
23.7031250000,2,-0.7106934190,,,
23.7187500000,2,-0.8726196289,,,
23.7343750000,2,-1.0149840117,,,
23.7500000000,2,-1.0925600529,,,
23.7656250000,2,-1.0437929630,,,
23.7812500000,2,-0.8769835830,,,
23.7968750000,2,-0.6478270888,,,
23.8125000000,2,-0.4484862983,,,
23.8281250000,2,-0.3354491889,,,
23.8437500000,2,-0.3071899116,,,
23.8593750000,2,-0.2990112007,,,
23.8750000000,2,-0.2402648926,,,
23.8906250000,2,-0.1265563965,,,
23.9062500000,2,-0.0033264160,,,
23.9218750000,2,0.0301513709,,,
23.9375000000,2,-0.1017455980,,,
23.9531250000,2,-0.4005737007,,,
23.9687500000,2,-0.7983704209,,,
23.9843750000,2,-1.1688840389,,,
24.0000000000,3,-1.3982850313,,,
24.0156250000,3,-1.4173280001,,,
24.0312500000,3,-1.2289429903,,,
24.0468750000,3,-0.8908997178,,,
24.0625000000,3,-0.4672240913,,,
24.0781250000,3,0.0012512211,,,
24.0937500000,3,0.5038452148,,,
24.1093750000,3,1.0334780216,,,
24.1250000000,3,1.5620729923,,,
24.1406250000,3,2.0172419548,,,
24.1562500000,3,2.3029479980,,,
24.1718750000,3,2.3226010799,,,
24.1875000000,3,2.0360410213,,,
24.2031250000,3,1.4952700138,,,
24.2187500000,3,0.8497924805,,,
24.2343750000,3,0.3051758111,,,
24.2500000000,3,0.0208435096,,,
24.2656250000,3,0.0558471717,,,
24.2812500000,3,0.3311462104,,,
24.2968750000,3,0.6706542969,,,
24.3125000000,3,0.8891295791,,,
24.3281250000,3,0.8821105957,,,
24.3437500000,3,0.6544188857,,,
24.3593750000,3,0.2993164063,,,
24.3750000000,3,-0.0573120117,,,
24.3906250000,3,-0.3026427925,,,
24.4062500000,3,-0.3941040039,,,
24.4218750000,3,-0.3326720893,,,
24.4375000000,3,-0.1587830037,,,
24.4531250000,3,0.0830993727,,,
24.4687500000,3,0.3350830078,,,
24.4843750000,3,0.5426024795,,,
24.5000000000,3,0.6556395888,,,
24.5156250000,3,0.6443176270,,,
24.5312500000,3,0.5190125108,,,
24.5468750000,3,0.3322753906,,,
24.5625000000,3,0.1445007026,,,
24.5781250000,3,-0.0174560491,,,
24.5937500000,3,-0.1501464993,,,
24.6093750000,3,-0.2803955078,,,
24.6250000000,3,-0.4271850884,,,
24.6406250000,3,-0.5762634277,,,
24.6562500000,3,-0.6810607910,,,
24.6718750000,3,-0.6842346191,,,
24.6875000000,3,-0.5607910156,,,
24.7031250000,3,-0.3411560059,,,
24.7187500000,3,-0.1099243015,,,
24.7343750000,3,0.0290222205,,,
24.7500000000,3,0.0045471191,,,
24.7656250000,3,-0.1776428074,,,
24.7812500000,3,-0.4301452935,,,
24.7968750000,3,-0.6616210938,,,
24.8125000000,3,-0.8082274795,,,
24.8281250000,3,-0.8536071777,,,
24.8437500000,3,-0.8211364746,,,
24.8593750000,3,-0.7404479980,,,
24.8750000000,3,-0.6432800293,,,
24.8906250000,3,-0.5456237793,,,
24.9062500000,3,-0.4883422852,,,
24.9218750000,3,-0.4922485054,,,
24.9375000000,3,-0.5676574707,,,
24.9531250000,3,-0.6793823242,,,
24.9687500000,3,-0.7702636719,,,
24.9843750000,3,-0.7541198730,,,
25.0000000000,3,-0.5970458984,,,
25.0156250000,3,-0.3225708008,,,
25.0312500000,3,-0.0219726600,,,
25.0468750000,3,0.1949158013,,,
25.0625000000,3,0.2657775879,,,
25.0781250000,3,0.1749573052,,,
25.0937500000,3,-0.0175781306,,,
25.1093750000,3,-0.2401732951,,,
25.1250000000,3,-0.4250183105,,,
25.1406250000,3,-0.5298767090,,,
25.1562500000,3,-0.5492553711,,,
25.1718750000,3,-0.5070189834,,,
25.1875000000,3,-0.4365845025,,,
25.2031250000,3,-0.3716124892,,,
25.2187500000,3,-0.3356322944,,,
25.2343750000,3,-0.3093872070,,,
25.2500000000,3,-0.2621459961,,,
25.2656250000,3,-0.1646118015,,,
25.2812500000,3,-0.0111084003,,,
25.2968750000,3,0.1665039063,,,
25.3125000000,3,0.3140563965,,,
25.3281250000,3,0.3756713867,,,
25.3437500000,3,0.3065491021,,,
25.3593750000,3,0.1054992974,,,
25.3750000000,3,-0.1720276028,,,
25.3906250000,3,-0.4330138862,,,
25.4062500000,3,-0.5793457031,,,
25.4218750000,3,-0.5586547852,,,
25.4375000000,3,-0.3838196099,,,
25.4531250000,3,-0.1196898967,,,
25.4687500000,3,0.1320496053,,,
25.4843750000,3,0.3069458008,,,
25.5000000000,3,0.3641968071,,,
25.5156250000,3,0.3274536133,,,
25.5312500000,3,0.2471923977,,,
25.5468750000,3,0.1779785007,,,
25.5625000000,3,0.1711121053,,,
25.5781250000,3,0.2537536919,,,
25.5937500000,3,0.4191283882,,,
25.6093750000,3,0.6250305176,,,
25.6250000000,3,0.8269042969,,,
25.6406250000,3,0.9525756836,,,
25.6562500000,3,0.9488524795,,,
25.6718750000,3,0.7825927734,,,
25.6875000000,3,0.4620667100,,,
25.7031250000,3,0.0660400391,,,
25.7187500000,3,-0.3007813096,,,
25.7343750000,3,-0.5067749023,,,
25.7500000000,3,-0.4682616889,,,
25.7656250000,3,-0.1857604980,,,
25.7812500000,3,0.2356566936,,,
25.7968750000,3,0.6380615234,,,
25.8125000000,3,0.8766785264,,,
25.8281250000,3,0.8973082900,,,
25.8437500000,3,0.7676085830,,,
25.8593750000,3,0.6026000977,,,
25.8750000000,3,0.5105590820,,,
25.8906250000,3,0.5120543838,,,
25.9062500000,3,0.5654602051,,,
25.9218750000,3,0.5927429199,,,
25.9375000000,3,0.5455933213,,,
25.9531250000,3,0.4277954102,,,
25.9687500000,3,0.2567444146,,,
25.9843750000,3,0.0646667480,,,
26.0000000000,3,-0.1244812012,,,
26.0156250000,3,-0.2853699028,,,
26.0312500000,3,-0.3801575005,,,
26.0468750000,3,-0.3751221001,,,
26.0625000000,3,-0.2897338867,,,
26.0781250000,3,-0.1831970066,,,
26.0937500000,3,-0.1387633979,,,
26.1093750000,3,-0.2189940959,,,
26.1250000000,3,-0.4071044922,,,
26.1406250000,3,-0.6232299805,,,
26.1562500000,3,-0.7577515244,,,
26.1718750000,3,-0.7425537109,,,
26.1875000000,3,-0.5831298828,,,
26.2031250000,3,-0.3374938965,,,
26.2187500000,3,-0.0842895508,,,
26.2343750000,3,0.1167908013,,,
26.2500000000,3,0.2419127971,,,
26.2656250000,3,0.2847900093,,,
26.2812500000,3,0.2524718940,,,
26.2968750000,3,0.1662597954,,,
26.3125000000,3,0.0650024414,,,
26.3281250000,3,-0.0129394503,,,
26.3437500000,3,-0.0384521484,,,
26.3593750000,3,-0.0154724102,,,
26.3750000000,3,0.0353698693,,,
26.3906250000,3,0.0864257813,,,
26.4062500000,3,0.1329651028,,,
26.4218750000,3,0.1742554009,,,
26.4375000000,3,0.2037658989,,,
26.4531250000,3,0.2036132962,,,
26.4687500000,3,0.1564635932,,,
26.4843750000,3,0.0686340332,,,
26.5000000000,3,-0.0313720703,,,
26.5156250000,3,-0.0859985426,,,
26.5312500000,3,-0.0465393104,,,
26.5468750000,3,0.1065063030,,,
26.5625000000,3,0.3414612114,,,
26.5781250000,3,0.6049805284,,,
26.5937500000,3,0.8528441787,,,
26.6093750000,3,1.0589599609,,,
26.6250000000,3,1.2102659941,,,
26.6406250000,3,1.2620849609,,,
26.6562500000,3,1.1630549431,,,
26.6718750000,3,0.8720397949,,,
26.6875000000,3,0.4117125869,,,
26.7031250000,3,-0.1207581013,,,
26.7187500000,3,-0.5853270888,,,
26.7343750000,3,-0.8832396865,,,
26.7500000000,3,-1.0085450411,,,
26.7656250000,3,-1.0508420467,,,
26.7812500000,3,-1.1248170137,,,
26.7968750000,3,-1.2960510254,,,
26.8125000000,3,-1.5507199764,,,
26.8281250000,3,-1.8013919592,,,
26.8437500000,3,-1.9645080566,,,
26.8593750000,3,-2.0132451057,,,
26.8750000000,3,-1.9908139706,,,
26.8906250000,3,-1.9579470158,,,
26.9062500000,3,-1.9397280216,,,
26.9218750000,3,-1.8935849667,,,
26.9375000000,3,-1.7328189611,,,
26.9531250000,3,-1.3954160213,,,
26.9687500000,3,-0.8996276855,,,
26.9843750000,3,-0.3399047852,,,
27.0000000000,3,0.1681519002,,,
27.0156250000,3,0.5339965820,,,
27.0312500000,3,0.7387390137,,,
27.0468750000,3,0.8232117295,,,
27.0625000000,3,0.8561707139,,,
27.0781250000,3,0.8889160156,,,
27.0937500000,3,0.9334105849,,,
27.1093750000,3,0.9732360840,,,
27.1250000000,3,0.9721984863,,,
27.1406250000,3,0.8906859756,,,
27.1562500000,3,0.7232666016,,,
27.1718750000,3,0.4856567085,,,
27.1875000000,3,0.2196960002,,,
27.2031250000,3,-0.0138549795,,,
27.2187500000,3,-0.1474608928,,,
27.2343750000,3,-0.1435852051,,,
27.2500000000,3,-0.0034790039,,,
27.2656250000,3,0.2088623047,,,
27.2812500000,3,0.3924866021,,,
27.2968750000,3,0.4585570991,,,
27.3125000000,3,0.3765259087,,,
27.3281250000,3,0.2046813965,,,
27.3437500000,3,0.0531616211,,,
27.3593750000,3,0.0238037091,,,
27.3750000000,3,0.1520081013,,,
27.3906250000,3,0.4089049995,,,
27.4062500000,3,0.7197570801,,,
27.4218750000,3,1.0309749842,,,
27.4375000000,3,1.3321529627,,,
27.4531250000,3,1.6353759766,,,
27.4687500000,3,1.9420469999,,,
27.4843750000,3,2.1970520020,,,
27.5000000000,3,2.3196411133,,,
27.5156250000,3,2.2304990292,,,
27.5312500000,3,1.9301149845,,,
27.5468750000,3,1.4897769690,,,
27.5625000000,3,1.0387270451,,,
27.5781250000,3,0.6803284287,,,
27.5937500000,3,0.4556885064,,,
27.6093750000,3,0.3426819146,,,
27.6250000000,3,0.2842406929,,,
27.6406250000,3,0.2188721001,,,
27.6562500000,3,0.1128235012,,,
27.6718750000,3,-0.0667114332,,,
27.6875000000,3,-0.3545837104,,,
27.7031250000,3,-0.7629395127,,,
27.7187500000,3,-1.2707209587,,,
27.7343750000,3,-1.7938539982,,,
27.7500000000,3,-2.1899108887,,,
27.7656250000,3,-2.3208920956,,,
27.7812500000,3,-2.1073300838,,,
27.7968750000,3,-1.5894470215,,,
27.8125000000,3,-0.9259948730,,,
27.8281250000,3,-0.3287963867,,,
27.8437500000,3,0.0068969731,,,
27.8593750000,3,-0.0088500977,,,
27.8750000000,3,-0.3395996094,,,
27.8906250000,3,-0.8342285156,,,
27.9062500000,3,-1.2952270508,,,
27.9218750000,3,-1.5711669922,,,
27.9375000000,3,-1.5803220272,,,
27.9531250000,3,-1.3330689669,,,
27.9687500000,3,-0.9160767198,,,
27.9843750000,3,-0.4636535943,,,
28.0000000000,3,-0.1140746996,,,
28.0156250000,3,0.0151062002,,,
28.0312500000,3,-0.1091613993,,,
28.0468750000,3,-0.4394530952,,,
28.0625000000,3,-0.8359069824,,,
28.0781250000,3,-1.1270450354,,,
28.0937500000,3,-1.1650700569,,,
28.1093750000,3,-0.8988953233,,,
28.1250000000,3,-0.3773193061,,,
28.1406250000,3,0.2402039021,,,
28.1562500000,3,0.7589417100,,,
28.1718750000,3,1.0108640194,,,
28.1875000000,3,0.9251708984,,,
28.2031250000,3,0.5478516221,,,
28.2187500000,3,0.0181274395,,,
28.2343750000,3,-0.4689025879,,,
28.2500000000,3,-0.7473449707,,,
28.2656250000,3,-0.7502136230,,,
28.2812500000,3,-0.5116271973,,,
28.2968750000,3,-0.1625061035,,,
28.3125000000,3,0.1279602051,,,
28.3281250000,3,0.2453612983,,,
28.3437500000,3,0.1603699028,,,
28.3593750000,3,-0.0491943397,,,
28.3750000000,3,-0.2723694146,,,
28.3906250000,3,-0.4084778130,,,
28.4062500000,3,-0.4089966118,,,
28.4218750000,3,-0.2822571099,,,
28.4375000000,3,-0.0600891113,,,
28.4531250000,3,0.2201842964,,,
28.4687500000,3,0.5283812881,,,
28.4843750000,3,0.8325806260,,,
28.5000000000,3,1.0971369743,,,
28.5156250000,3,1.2765500546,,,
28.5312500000,3,1.3393549919,,,
28.5468750000,3,1.2787480354,,,
28.5625000000,3,1.1262209415,,,
28.5781250000,3,0.9479675293,,,
28.5937500000,3,0.8118590713,,,
28.6093750000,3,0.7803040147,,,
28.6250000000,3,0.8783875108,,,
28.6406250000,3,1.0907289982,,,
28.6562500000,3,1.3663640022,,,
28.6718750000,3,1.6195069551,,,
28.6875000000,3,1.7499690056,,,
28.7031250000,3,1.6808470488,,,
28.7187500000,3,1.3726199865,,,
28.7343750000,3,0.8337401748,,,
28.7500000000,3,0.1466674954,,,
28.7656250000,3,-0.5843201280,,,
28.7812500000,3,-1.2295839787,,,
28.7968750000,3,-1.6867680550,,,
28.8125000000,3,-1.8956910372,,,
28.8281250000,3,-1.8593440056,,,
28.8437500000,3,-1.6530150175,,,
28.8593750000,3,-1.3940119743,,,
28.8750000000,3,-1.2063900232,,,
28.8906250000,3,-1.1640009880,,,
28.9062500000,3,-1.2664790154,,,
28.9218750000,3,-1.4336849451,,,
28.9375000000,3,-1.5625000000,,,
28.9531250000,3,-1.5526429415,,,
28.9687500000,3,-1.3616329432,,,
28.9843750000,3,-0.9977416992,,,
29.0000000000,3,-0.5183715820,,,
29.0156250000,3,-0.0046081538,,,
29.0312500000,3,0.4681701958,,,
29.0468750000,3,0.8361815810,,,
29.0625000000,3,1.0701290369,,,
29.0781250000,3,1.1698609591,,,
29.0937500000,3,1.1626280546,,,
29.1093750000,3,1.0944210291,,,
29.1250000000,3,0.9922484756,,,
29.1406250000,3,0.8795166016,,,
29.1562500000,3,0.7614440918,,,
29.1718750000,3,0.6488646865,,,
29.1875000000,3,0.5408325195,,,
29.2031250000,3,0.4534606934,,,
29.2187500000,3,0.4152832031,,,
29.2343750000,3,0.4458312988,,,
29.2500000000,3,0.5637512207,,,
29.2656250000,3,0.7380676270,,,
29.2812500000,3,0.9254760742,,,
29.2968750000,3,1.0385129452,,,
29.3125000000,3,1.0226140022,,,
29.3281250000,3,0.8683167100,,,
29.3437500000,3,0.6242371202,,,
29.3593750000,3,0.3569335938,,,
29.3750000000,3,0.1082153022,,,
29.3906250000,3,-0.1353760064,,,
29.4062500000,3,-0.4195250869,,,
29.4218750000,3,-0.7522583008,,,
29.4375000000,3,-1.0823969841,,,
29.4531250000,3,-1.2928769588,,,
29.4687500000,3,-1.2846980095,,,
29.4843750000,3,-1.0433349609,,,
29.5000000000,3,-0.6853638291,,,
29.5156250000,3,-0.4024353027,,,
29.5312500000,3,-0.3576354980,,,
29.5468750000,3,-0.5914611816,,,
29.5625000000,3,-0.9879149795,,,
29.5781250000,3,-1.3660889864,,,
29.5937500000,3,-1.5397640467,,,
29.6093750000,3,-1.4188230038,,,
29.6250000000,3,-1.0495610237,,,
29.6406250000,3,-0.5659180284,,,
29.6562500000,3,-0.1243285984,,,
29.6718750000,3,0.1758117974,,,
29.6875000000,3,0.3129883111,,,
29.7031250000,3,0.3378295898,,,
29.7187500000,3,0.3380737007,,,
29.7343750000,3,0.3624877930,,,
29.7500000000,3,0.4198302925,,,
29.7656250000,3,0.4614562988,,,
29.7812500000,3,0.4632262886,,,
29.7968750000,3,0.4341430962,,,
29.8125000000,3,0.4426575005,,,
29.8281250000,3,0.5614624023,,,
29.8437500000,3,0.8072509766,,,
29.8593750000,3,1.1077270508,,,
29.8750000000,3,1.3456419706,,,
29.8906250000,3,1.4105529785,,,
29.9062500000,3,1.2669370174,,,
29.9218750000,3,0.9810791016,,,
29.9375000000,3,0.6759337783,,,
29.9531250000,3,0.4621582031,,,
29.9687500000,3,0.3855285943,,,
29.9843750000,3,0.4205321968,,,
30.0000000000,3,0.4775696099,,,
30.0156250000,3,0.4717406929,,,
30.0312500000,3,0.3724670112,,,
30.0468750000,3,0.2118835002,,,
30.0625000000,3,0.0802002028,,,
30.0781250000,3,0.0746154785,,,
30.0937500000,3,0.2411193997,,,
30.1093750000,3,0.5703734756,,,
30.1250000000,3,0.9963073730,,,
30.1406250000,3,1.4371340275,,,
30.1562500000,3,1.8339840174,,,
30.1718750000,3,2.1540529728,,,
30.1875000000,3,2.3703920841,,,
30.2031250000,3,2.4386599064,,,
30.2187500000,3,2.2979741096,,,
30.2343750000,3,1.8791199923,,,
30.2500000000,3,1.1774899960,,,
30.2656250000,3,0.2844848931,,,
30.2812500000,3,-0.6318665147,,,
30.2968750000,3,-1.3852230310,,,
30.3125000000,3,-1.8719789982,,,
30.3281250000,3,-2.0922551155,,,
30.3437500000,3,-2.1321110725,,,
30.3593750000,3,-2.0976560116,,,
30.3750000000,3,-2.0327761173,,,
30.3906250000,3,-1.9111629725,,,
30.4062500000,3,-1.6791080236,,,
30.4218750000,3,-1.3165279627,,,
30.4375000000,3,-0.8796691895,,,
30.4531250000,3,-0.4813537896,,,
30.4687500000,3,-0.2261658013,,,
30.4843750000,3,-0.1560059041,,,
30.5000000000,3,-0.2265930027,,,
30.5156250000,3,-0.3468323052,,,
30.5312500000,3,-0.4386292100,,,
30.5468750000,3,-0.4766846001,,,
30.5625000000,3,-0.4997558892,,,
30.5781250000,3,-0.5603026748,,,
30.5937500000,3,-0.6829833984,,,
30.6093750000,3,-0.8539428711,,,
30.6250000000,3,-1.0169980526,,,
30.6406250000,3,-1.1295169592,,,
30.6562500000,3,-1.1695859432,,,
30.6718750000,3,-1.1575930119,,,
30.6875000000,3,-1.1097719669,,,
30.7031250000,3,-1.0343929529,,,
30.7187500000,3,-0.8994141221,,,
30.7343750000,3,-0.6704711914,,,
30.7500000000,3,-0.3558044136,,,
30.7656250000,3,-0.0164184608,,,
30.7812500000,3,0.2196960002,,,
30.7968750000,3,0.2548218071,,,
30.8125000000,3,0.0611572303,,,
30.8281250000,3,-0.2759704888,,,
30.8437500000,3,-0.6069030762,,,
30.8593750000,3,-0.7878417969,,,
30.8750000000,3,-0.7713317871,,,
30.8906250000,3,-0.6224976182,,,
30.9062500000,3,-0.4660950005,,,
30.9218750000,3,-0.3884887993,,,
30.9375000000,3,-0.3907166123,,,
30.9531250000,3,-0.3828429878,,,
30.9687500000,3,-0.2522583008,,,
30.9843750000,3,0.0380859412,,,
31.0000000000,3,0.4260253906,,,
31.0156250000,3,0.7812500000,,,
31.0312500000,3,0.9864807129,,,
31.0468750000,3,1.0052189827,,,
31.0625000000,3,0.8762207031,,,
31.0781250000,3,0.6905518174,,,
31.0937500000,3,0.5115966797,,,
31.1093750000,3,0.3396300972,,,
31.1250000000,3,0.1446228027,,,
31.1406250000,3,-0.1011658013,,,
31.1562500000,3,-0.3574523926,,,
31.1718750000,3,-0.5439453125,,,
31.1875000000,3,-0.5454406738,,,
31.2031250000,3,-0.3211059868,,,
31.2187500000,3,0.0809936523,,,
31.2343750000,3,0.5359191895,,,
31.2500000000,3,0.8855895996,,,
31.2656250000,3,1.0242309570,,,
31.2812500000,3,0.9355468750,,,
31.2968750000,3,0.7034301758,,,
31.3125000000,3,0.4601440132,,,
31.3281250000,3,0.3118895888,,,
31.3437500000,3,0.3029784858,,,
31.3593750000,3,0.3929443061,,,
31.3750000000,3,0.4792479873,,,
31.3906250000,3,0.4688721001,,,
31.4062500000,3,0.3070983887,,,
31.4218750000,3,0.0081176758,,,
31.4375000000,3,-0.3523254097,,,
31.4531250000,3,-0.6548156738,,,
31.4687500000,3,-0.7944946289,,,
31.4843750000,3,-0.7110595703,,,
31.5000000000,3,-0.4283142090,,,
31.5156250000,3,-0.0352783203,,,
31.5312500000,3,0.3469848931,,,
31.5468750000,3,0.6299437881,,,
31.5625000000,3,0.7636718750,,,
31.5781250000,3,0.7569580078,,,
31.5937500000,3,0.6593933105,,,
31.6093750000,3,0.5095214844,,,
31.6250000000,3,0.3417969048,,,
31.6406250000,3,0.1682129055,,,
31.6562500000,3,0.0022888179,,,
31.6718750000,3,-0.1221008003,,,
31.6875000000,3,-0.1515198052,,,
31.7031250000,3,-0.0581665002,,,
31.7187500000,3,0.1294860989,,,
31.7343750000,3,0.3182983100,,,
31.7500000000,3,0.3803406060,,,
31.7656250000,3,0.2221985012,,,
31.7812500000,3,-0.1446228027,,,
31.7968750000,3,-0.5952147841,,,
31.8125000000,3,-0.9450988770,,,
31.8281250000,3,-1.0506290197,,,
31.8437500000,3,-0.8774719238,,,
31.8593750000,3,-0.5392761230,,,
31.8750000000,3,-0.2250977010,,,
31.8906250000,3,-0.1067505032,,,
31.9062500000,3,-0.2342223972,,,
31.9218750000,3,-0.5238037109,,,
31.9375000000,3,-0.8126831055,,,
31.9531250000,3,-0.9583129883,,,
31.9687500000,3,-0.9210510254,,,
31.9843750000,3,-0.7571411133,,,
32.0000000000,4,-0.5605773926,,,
32.0156250000,4,-0.3825989068,,,
32.0312500000,4,-0.2297668010,,,
32.0468750000,4,-0.0759582520,,,
32.0625000000,4,0.0689697266,,,
32.0781250000,4,0.1305541992,,,
32.0937500000,4,0.0352477990,,,
32.1093750000,4,-0.2271118015,,,
32.1250000000,4,-0.5475159287,,,
32.1406250000,4,-0.7367553711,,,
32.1562500000,4,-0.6385803223,,,
32.1718750000,4,-0.2301024944,,,
32.1875000000,4,0.3634032905,,,
32.2031250000,4,0.9337769151,,,
32.2187500000,4,1.3151860237,,,
32.2343750000,4,1.4691469669,,,
32.2500000000,4,1.4819639921,,,
32.2656250000,4,1.4737240076,,,
32.2812500000,4,1.5245360136,,,
32.2968750000,4,1.6207580566,,,
32.3125000000,4,1.6861569881,,,
32.3281250000,4,1.6463010311,,,
32.3437500000,4,1.4484250546,,,
32.3593750000,4,1.1058039665,,,
32.3750000000,4,0.6900939941,,,
32.3906250000,4,0.2922362983,,,
32.4062500000,4,0.0117187500,,,
32.4218750000,4,-0.0891723633,,,
32.4375000000,4,-0.0194702093,,,
32.4531250000,4,0.1515502930,,,
32.4687500000,4,0.3059692085,,,
32.4843750000,4,0.3357239068,,,
32.5000000000,4,0.2037048042,,,
32.5156250000,4,-0.0333862305,,,
32.5312500000,4,-0.2581481934,,,
32.5468750000,4,-0.3587951958,,,
32.5625000000,4,-0.2899779975,,,
32.5781250000,4,-0.0896301270,,,
32.5937500000,4,0.1492920071,,,
32.6093750000,4,0.3360596001,,,
32.6250000000,4,0.4196471870,,,
32.6406250000,4,0.4127502143,,,
32.6562500000,4,0.3645629883,,,
32.6718750000,4,0.3125000000,,,
32.6875000000,4,0.3115234077,,,
32.7031250000,4,0.3708496094,,,
32.7187500000,4,0.4838562012,,,
32.7343750000,4,0.6034240723,,,
32.7500000000,4,0.6701660156,,,
32.7656250000,4,0.6123046875,,,
32.7812500000,4,0.4092406929,,,
32.7968750000,4,0.0923767090,,,
32.8125000000,4,-0.2580260932,,,
32.8281250000,4,-0.5226746202,,,
32.8437500000,4,-0.6267395020,,,
32.8593750000,4,-0.5738831162,,,
32.8750000000,4,-0.4426575005,,,
32.8906250000,4,-0.3510437012,,,
32.9062500000,4,-0.3858948052,,,
32.9218750000,4,-0.5668029785,,,
32.9375000000,4,-0.8513793945,,,
32.9531250000,4,-1.1508480310,,,
32.9687500000,4,-1.3754580021,,,
32.9843750000,4,-1.4630429745,,,
33.0000000000,4,-1.3836359978,,,
33.0156250000,4,-1.1434630156,,,
33.0312500000,4,-0.7924805284,,,
33.0468750000,4,-0.4100952148,,,
33.0625000000,4,-0.1114197001,,,
33.0781250000,4,0.0204772893,,,
33.0937500000,4,-0.0387878418,,,
33.1093750000,4,-0.2178345025,,,
33.1250000000,4,-0.4102478027,,,
33.1406250000,4,-0.5139464736,,,
33.1562500000,4,-0.4997864068,,,
33.1718750000,4,-0.4355163872,,,
33.1875000000,4,-0.4087829888,,,
33.2031250000,4,-0.5075073242,,,
33.2187500000,4,-0.7345886230,,,
33.2343750000,4,-1.0457459688,,,
33.2500000000,4,-1.3410029411,,,
33.2656250000,4,-1.5496519804,,,
33.2812500000,4,-1.6242070198,,,
33.2968750000,4,-1.5431820154,,,
33.3125000000,4,-1.3087459803,,,
33.3281250000,4,-0.9342957139,,,
33.3437500000,4,-0.4604797065,,,
33.3593750000,4,0.0520629883,,,
33.3750000000,4,0.4969176948,,,
33.3906250000,4,0.7822875977,,,
33.4062500000,4,0.8638306260,,,
33.4218750000,4,0.7695922852,,,
33.4375000000,4,0.5952454209,,,
33.4531250000,4,0.4516601861,,,
33.4687500000,4,0.4319762886,,,
33.4843750000,4,0.5559998155,,,
33.5000000000,4,0.7673339844,,,
33.5156250000,4,0.9680480957,,,
33.5312500000,4,1.0686949492,,,
33.5468750000,4,1.0358890295,,,
33.5625000000,4,0.9168395996,,,
33.5781250000,4,0.8116760254,,,
33.5937500000,4,0.8021544814,,,
33.6093750000,4,0.8983154297,,,
33.6250000000,4,1.0217289925,,,
33.6406250000,4,1.0586240292,,,
33.6562500000,4,0.9097899795,,,
33.6718750000,4,0.5585021973,,,
33.6875000000,4,0.0986328125,,,
33.7031250000,4,-0.3447875977,,,
33.7187500000,4,-0.6457824707,,,
33.7343750000,4,-0.7618712783,,,
33.7500000000,4,-0.7245789170,,,
33.7656250000,4,-0.6088256836,,,
33.7812500000,4,-0.4861449897,,,
33.7968750000,4,-0.3928833008,,,
33.8125000000,4,-0.3178406060,,,
33.8281250000,4,-0.2290039063,,,
33.8437500000,4,-0.1286925972,,,
33.8593750000,4,-0.0343933105,,,
33.8750000000,4,0.0209655799,,,
33.8906250000,4,0.0300598107,,,
33.9062500000,4,-0.0044860840,,,
33.9218750000,4,-0.0558166504,,,
33.9375000000,4,-0.0899658203,,,
33.9531250000,4,-0.0828857422,,,
33.9687500000,4,-0.0179138202,,,
33.9843750000,4,0.1067200005,,,
34.0000000000,4,0.2753295898,,,
34.0156250000,4,0.4547728896,,,
34.0312500000,4,0.5911560059,,,
34.0468750000,4,0.6289368272,,,
34.0625000000,4,0.5304260254,,,
34.0781250000,4,0.2868958116,,,
34.0937500000,4,-0.0507202111,,,
34.1093750000,4,-0.3657226861,,,
34.1250000000,4,-0.5186157227,,,
34.1406250000,4,-0.3877562881,,,
34.1562500000,4,0.0424804688,,,
34.1718750000,4,0.6381835938,,,
34.1875000000,4,1.1668399572,,,
34.2031250000,4,1.3875429630,,,
34.2187500000,4,1.1806030273,,,
34.2343750000,4,0.5867614746,,,
34.2500000000,4,-0.2027588040,,,
34.2656250000,4,-0.9532470703,,,
34.2812500000,4,-1.4996340275,,,
34.2968750000,4,-1.8195190430,,,
34.3125000000,4,-1.9891359806,,,
34.3281250000,4,-2.1047060490,,,
34.3437500000,4,-2.2109069824,,,
34.3593750000,4,-2.2520139217,,,
34.3750000000,4,-2.1435549259,,,
34.3906250000,4,-1.8156739473,,,
34.4062500000,4,-1.2656559944,,,
34.4218750000,4,-0.5609130859,,,
34.4375000000,4,0.1874389946,,,
34.4531250000,4,0.8667296767,,,
34.4687500000,4,1.3861689568,,,
34.4843750000,4,1.6839599609,,,
34.5000000000,4,1.7443850040,,,
34.5156250000,4,1.6052249670,,,
34.5312500000,4,1.3369450569,,,
34.5468750000,4,1.0050660372,,,
34.5625000000,4,0.6663817763,,,
34.5781250000,4,0.3522338867,,,
34.5937500000,4,0.0870971680,,,
34.6093750000,4,-0.0967407227,,,
34.6250000000,4,-0.1679687947,,,
34.6406250000,4,-0.0980529785,,,
34.6562500000,4,0.0959472731,,,
34.6718750000,4,0.3587951958,,,
34.6875000000,4,0.6153563857,,,
34.7031250000,4,0.8004760742,,,
34.7187500000,4,0.8889160156,,,
34.7343750000,4,0.8753356934,,,
34.7500000000,4,0.7901610732,,,
34.7656250000,4,0.6743773818,,,
34.7812500000,4,0.5551453233,,,
34.7968750000,4,0.4471436143,,,
34.8125000000,4,0.3386535943,,,
34.8281250000,4,0.2079772949,,,
34.8437500000,4,0.0395812988,,,
34.8593750000,4,-0.1407165974,,,
34.8750000000,4,-0.2599487007,,,
34.8906250000,4,-0.2341614068,,,
34.9062500000,4,-0.0176696796,,,
34.9218750000,4,0.3454895020,,,
34.9375000000,4,0.7271118164,,,
34.9531250000,4,0.9800720215,,,
34.9687500000,4,0.9960021973,,,
34.9843750000,4,0.7607727051,,,
35.0000000000,4,0.3465270996,,,
35.0156250000,4,-0.1287230998,,,
35.0312500000,4,-0.5606995225,,,
35.0468750000,4,-0.8896179199,,,
35.0625000000,4,-1.0867919922,,,
35.0781250000,4,-1.1484069824,,,
35.0937500000,4,-1.0635379553,,,
35.1093750000,4,-0.8439940810,,,
35.1250000000,4,-0.5324097276,,,
35.1406250000,4,-0.1966248006,,,
35.1562500000,4,0.0859069824,,,
35.1718750000,4,0.2456970066,,,
35.1875000000,4,0.2539063096,,,
35.2031250000,4,0.1101379022,,,
35.2187500000,4,-0.1375426948,,,
35.2343750000,4,-0.4086914063,,,
35.2500000000,4,-0.6205750108,,,
35.2656250000,4,-0.6979064941,,,
35.2812500000,4,-0.6394042969,,,
35.2968750000,4,-0.5109558105,,,
35.3125000000,4,-0.4447937012,,,
35.3281250000,4,-0.5481873155,,,
35.3437500000,4,-0.8591918945,,,
35.3593750000,4,-1.2915949821,,,
35.3750000000,4,-1.6832890511,,,
35.3906250000,4,-1.8588260412,,,
35.4062500000,4,-1.7404170036,,,
35.4218750000,4,-1.3817440271,,,
35.4375000000,4,-0.9522094727,,,
35.4531250000,4,-0.6437683105,,,
35.4687500000,4,-0.5568541884,,,
35.4843750000,4,-0.6564331055,,,
35.5000000000,4,-0.8235474229,,,
35.5156250000,4,-0.9158629775,,,
35.5312500000,4,-0.8677062988,,,
35.5468750000,4,-0.7012023926,,,
35.5625000000,4,-0.4804688096,,,
35.5781250000,4,-0.2674255073,,,
35.5937500000,4,-0.0706481934,,,
35.6093750000,4,0.1467590034,,,
35.6250000000,4,0.4141846001,,,
35.6406250000,4,0.7167053223,,,
35.6562500000,4,1.0037540197,,,
35.6718750000,4,1.2025760412,,,
35.6875000000,4,1.2835999727,,,
35.7031250000,4,1.2546080351,,,
35.7187500000,4,1.1566159725,,,
35.7343750000,4,1.0250550508,,,
35.7500000000,4,0.8728942871,,,
35.7656250000,4,0.6979675293,,,
35.7812500000,4,0.5027161241,,,
35.7968750000,4,0.3113707900,,,
35.8125000000,4,0.1664429009,,,
35.8281250000,4,0.1338500977,,,
35.8437500000,4,0.2411804050,,,
35.8593750000,4,0.4884338081,,,
35.8750000000,4,0.8153992295,,,
35.8906250000,4,1.1273189783,,,
35.9062500000,4,1.3051450253,,,
35.9218750000,4,1.2969059944,,,
35.9375000000,4,1.1266779900,,,
35.9531250000,4,0.8864440918,,,
35.9687500000,4,0.7039794922,,,
35.9843750000,4,0.6650695801,,,
36.0000000000,4,0.7516478896,,,
36.0156250000,4,0.8651428223,,,
36.0312500000,4,0.8703002930,,,
36.0468750000,4,0.6828308105,,,
36.0625000000,4,0.3236388862,,,
36.0781250000,4,-0.1021422967,,,
36.0937500000,4,-0.4600830078,,,
36.1093750000,4,-0.6544799805,,,
36.1250000000,4,-0.6755065918,,,
36.1406250000,4,-0.5831909180,,,
36.1562500000,4,-0.4424133003,,,
36.1718750000,4,-0.3038330078,,,
36.1875000000,4,-0.1708068997,,,
36.2031250000,4,-0.0186462402,,,
36.2187500000,4,0.1687317044,,,
36.2343750000,4,0.3655396104,,,
36.2500000000,4,0.5467224121,,,
36.2656250000,4,0.6744995117,,,
36.2812500000,4,0.7272034287,,,
36.2968750000,4,0.7025452256,,,
36.3125000000,4,0.5859680176,,,
36.3281250000,4,0.3897705078,,,
36.3437500000,4,0.1373596042,,,
36.3593750000,4,-0.1289062947,,,
36.3750000000,4,-0.3438110054,,,
36.3906250000,4,-0.4424437881,,,
36.4062500000,4,-0.4159851074,,,
36.4218750000,4,-0.2927246094,,,
36.4375000000,4,-0.1419678032,,,
36.4531250000,4,-0.0419006310,,,
36.4687500000,4,-0.0382385291,,,
36.4843750000,4,-0.1319579929,,,
36.5000000000,4,-0.2784424126,,,
36.5156250000,4,-0.3995667100,,,
36.5312500000,4,-0.4435425103,,,
36.5468750000,4,-0.3941955864,,,
36.5625000000,4,-0.2815856934,,,
36.5781250000,4,-0.1683043987,,,
36.5937500000,4,-0.1292418987,,,
36.6093750000,4,-0.1969604045,,,
36.6250000000,4,-0.3655396104,,,
36.6406250000,4,-0.5895081162,,,
36.6562500000,4,-0.8050231934,,,
36.6718750000,4,-0.9606018066,,,
36.6875000000,4,-1.0500489473,,,
36.7031250000,4,-1.0877079964,,,
36.7187500000,4,-1.0719300508,,,
36.7343750000,4,-0.9791564941,,,
36.7500000000,4,-0.7633361816,,,
36.7656250000,4,-0.4001159966,,,
36.7812500000,4,0.0707397535,,,
36.7968750000,4,0.5488892198,,,
36.8125000000,4,0.9099730849,,,
36.8281250000,4,1.0713200569,,,
36.8437500000,4,1.0468440056,,,
36.8593750000,4,0.9242553711,,,
36.8750000000,4,0.8168334961,,,
36.8906250000,4,0.8027039170,,,
36.9062500000,4,0.8821105957,,,
36.9218750000,4,1.0026860237,,,
36.9375000000,4,1.0981450081,,,
36.9531250000,4,1.1273800135,,,
36.9687500000,4,1.0934139490,,,
36.9843750000,4,1.0061650276,,,
37.0000000000,4,0.8582457900,,,
37.0156250000,4,0.6362609863,,,
37.0312500000,4,0.3161621094,,,
37.0468750000,4,-0.0999145508,,,
37.0625000000,4,-0.5604248047,,,
37.0781250000,4,-0.9758300781,,,
37.0937500000,4,-1.2515259981,,,
37.1093750000,4,-1.3382259607,,,
37.1250000000,4,-1.2437740564,,,
37.1406250000,4,-1.0418399572,,,
37.1562500000,4,-0.8454895020,,,
37.1718750000,4,-0.7456665039,,,
37.1875000000,4,-0.7798156738,,,
37.2031250000,4,-0.9074097276,,,
37.2187500000,4,-1.0332950354,,,
37.2343750000,4,-1.0406490564,,,
37.2500000000,4,-0.8457946777,,,
37.2656250000,4,-0.4268187881,,,
37.2812500000,4,0.1524048001,,,
37.2968750000,4,0.7680053711,,,
37.3125000000,4,1.2849119902,,,
37.3281250000,4,1.6033329964,,,
37.3437500000,4,1.6960450411,,,
37.3593750000,4,1.6047359705,,,
37.3750000000,4,1.4354549646,,,
37.3906250000,4,1.3066099882,,,
37.4062500000,4,1.2949520350,,,
37.4218750000,4,1.3867189884,,,
37.4375000000,4,1.4727170467,,,
37.4531250000,4,1.4085390568,,,
37.4687500000,4,1.0785830021,,,
37.4843750000,4,0.4700011909,,,
37.5000000000,4,-0.2973327935,,,
37.5156250000,4,-1.0260620117,,,
37.5312500000,4,-1.5345760584,,,
37.5468750000,4,-1.7397459745,,,
37.5625000000,4,-1.6975710392,,,
37.5781250000,4,-1.5544430017,,,
37.5937500000,4,-1.4518129826,,,
37.6093750000,4,-1.4629820585,,,
37.6250000000,4,-1.5403139591,,,
37.6406250000,4,-1.5653690100,,,
37.6562500000,4,-1.4279170036,,,
37.6718750000,4,-1.1130369902,,,
37.6875000000,4,-0.7098389268,,,
37.7031250000,4,-0.3565062881,,,
37.7187500000,4,-0.1706847996,,,
37.7343750000,4,-0.1885986030,,,
37.7500000000,4,-0.3839417100,,,
37.7656250000,4,-0.7026671767,,,
37.7812500000,4,-1.1028439999,,,
37.7968750000,4,-1.5388180017,,,
37.8125000000,4,-1.9578859806,,,
37.8281250000,4,-2.2630000114,,,
37.8437500000,4,-2.3305048943,,,
37.8593750000,4,-2.0580139160,,,
37.8750000000,4,-1.4297790527,,,
37.8906250000,4,-0.5348510742,,,
37.9062500000,4,0.4641417861,,,
37.9218750000,4,1.3718260527,,,
37.9375000000,4,2.0264890194,,,
37.9531250000,4,2.3638000488,,,
37.9687500000,4,2.3831789494,,,
37.9843750000,4,2.1514890194,,,
38.0000000000,4,1.7815250158,,,
38.0156250000,4,1.3903499842,,,
38.0312500000,4,1.0737299919,,,
38.0468750000,4,0.8732604980,,,
38.0625000000,4,0.7627562881,,,
38.0781250000,4,0.6668395996,,,
38.0937500000,4,0.5195313096,,,
38.1093750000,4,0.2955932915,,,
38.1250000000,4,0.0293273907,,,
38.1406250000,4,-0.2074889988,,,
38.1562500000,4,-0.3444823921,,,
38.1718750000,4,-0.3613891900,,,
38.1875000000,4,-0.2835387886,,,
38.2031250000,4,-0.1543578953,,,
38.2187500000,4,-0.0254821796,,,
38.2343750000,4,0.0750427172,,,
38.2500000000,4,0.1405639946,,,
38.2656250000,4,0.1726378947,,,
38.2812500000,4,0.1650391072,,,
38.2968750000,4,0.1126099005,,,
38.3125000000,4,-0.0070495610,,,
38.3281250000,4,-0.1965027004,,,
38.3437500000,4,-0.4553833008,,,
38.3593750000,4,-0.7519835830,,,
38.3750000000,4,-1.0499880314,,,
38.3906250000,4,-1.3164980412,,,
38.4062500000,4,-1.5111390352,,,
38.4218750000,4,-1.5964360237,,,
38.4375000000,4,-1.5457149744,,,
38.4531250000,4,-1.3338929415,,,
38.4687500000,4,-0.9452208877,,,
38.4843750000,4,-0.4190674126,,,
38.5000000000,4,0.1807861030,,,
38.5156250000,4,0.7691649795,,,
38.5312500000,4,1.2528690100,,,
38.5468750000,4,1.5443120003,,,
38.5625000000,4,1.5953669548,,,
38.5781250000,4,1.3807070255,,,
38.5937500000,4,0.9306030273,,,
38.6093750000,4,0.3363037109,,,
38.6250000000,4,-0.2664794922,,,
38.6406250000,4,-0.7281188965,,,
38.6562500000,4,-0.9218444824,,,
38.6718750000,4,-0.8045043945,,,
38.6875000000,4,-0.4443970025,,,
38.7031250000,4,0.0049133301,,,
38.7187500000,4,0.3695679009,,,
38.7343750000,4,0.5144042969,,,
38.7500000000,4,0.3970642090,,,
38.7656250000,4,0.0750427172,,,
38.7812500000,4,-0.3126221001,,,
38.7968750000,4,-0.5888977051,,,
38.8125000000,4,-0.5971068740,,,
38.8281250000,4,-0.2494812012,,,
38.8437500000,4,0.4141541123,,,
38.8593750000,4,1.2333680391,,,
38.8750000000,4,1.9786070585,,,
38.8906250000,4,2.4434199333,,,
38.9062500000,4,2.5139770508,,,
38.9218750000,4,2.2393798828,,,
38.9375000000,4,1.7756650448,,,
38.9531250000,4,1.2920529842,,,
38.9687500000,4,0.9038085938,,,
38.9843750000,4,0.6210631728,,,
39.0000000000,4,0.3866271973,,,
39.0156250000,4,0.1539916992,,,
39.0312500000,4,-0.0677795410,,,
39.0468750000,4,-0.2314452976,,,
39.0625000000,4,-0.2861937881,,,
39.0781250000,4,-0.2516174018,,,
39.0937500000,4,-0.1956786960,,,
39.1093750000,4,-0.1959533989,,,
39.1250000000,4,-0.2924500108,,,
39.1406250000,4,-0.4708862007,,,
39.1562500000,4,-0.6658629775,,,
39.1718750000,4,-0.8049315810,,,
39.1875000000,4,-0.8505249023,,,
39.2031250000,4,-0.8080139160,,,
39.2187500000,4,-0.7086791992,,,
39.2343750000,4,-0.5975952148,,,
39.2500000000,4,-0.5230103135,,,
39.2656250000,4,-0.5056151748,,,
39.2812500000,4,-0.5263367295,,,
39.2968750000,4,-0.5534973145,,,
39.3125000000,4,-0.5265502930,,,
39.3281250000,4,-0.3905639946,,,
39.3437500000,4,-0.1238403022,,,
39.3593750000,4,0.2286681980,,,
39.3750000000,4,0.5811461806,,,
39.3906250000,4,0.8456115723,,,
39.4062500000,4,0.9562683105,,,
39.4218750000,4,0.8946533203,,,
39.4375000000,4,0.6950684190,,,
39.4531250000,4,0.4125365913,,,
39.4687500000,4,0.1105042025,,,
39.4843750000,4,-0.1607666016,,,
39.5000000000,4,-0.3669128120,,,
39.5156250000,4,-0.4957580864,,,
39.5312500000,4,-0.5540770888,,,
39.5468750000,4,-0.5614318848,,,
39.5625000000,4,-0.5339354873,,,
39.5781250000,4,-0.4857788086,,,
39.5937500000,4,-0.4398193061,,,
39.6093750000,4,-0.4469603896,,,
39.6250000000,4,-0.5545654297,,,
39.6406250000,4,-0.7963562012,,,
39.6562500000,4,-1.1542659998,,,
39.6718750000,4,-1.5326540470,,,
39.6875000000,4,-1.7873840332,,,
39.7031250000,4,-1.7926939726,,,
39.7187500000,4,-1.4986569881,,,
39.7343750000,4,-0.9700012207,,,
39.7500000000,4,-0.3743895888,,,
39.7656250000,4,0.1045532003,,,
39.7812500000,4,0.3619995117,,,
39.7968750000,4,0.4090575874,,,
39.8125000000,4,0.3606261909,,,
39.8281250000,4,0.3591614068,,,
39.8437500000,4,0.4927979112,,,
39.8593750000,4,0.7566832900,,,
39.8750000000,4,1.0813900232,,,
39.8906250000,4,1.3835450411,,,
39.9062500000,4,1.6246639490,,,
39.9218750000,4,1.8098750114,,,
39.9375000000,4,1.9588619471,,,
39.9531250000,4,2.0472719669,,,
39.9687500000,4,1.9972230196,,,
39.9843750000,4,1.7235720158,,,
40.0000000000,5,1.1983640194,,,
40.0156250000,5,0.5120543838,,,
40.0312500000,5,-0.1395568997,,,
40.0468750000,5,-0.5407103896,,,
40.0625000000,5,-0.5695189834,,,
40.0781250000,5,-0.2538146973,,,
40.0937500000,5,0.2224730998,,,
40.1093750000,5,0.6221312881,,,
40.1250000000,5,0.7840270996,,,
40.1406250000,5,0.6791687012,,,
40.1562500000,5,0.4072875977,,,
40.1718750000,5,0.1133117974,,,
40.1875000000,5,-0.0792846680,,,
40.2031250000,5,-0.1450805962,,,
40.2187500000,5,-0.1100768968,,,
40.2343750000,5,-0.0250549298,,,
40.2500000000,5,0.0682372972,,,
40.2656250000,5,0.1199645996,,,
40.2812500000,5,0.0753479004,,,
40.2968750000,5,-0.1062012017,,,
40.3125000000,5,-0.4215697944,,,
40.3281250000,5,-0.8015441895,,,
40.3437500000,5,-1.1141359806,,,
40.3593750000,5,-1.2383120060,,,
40.3750000000,5,-1.1220090389,,,
40.3906250000,5,-0.8116455078,,,
40.4062500000,5,-0.4114379883,,,
40.4218750000,5,-0.0307311993,,,
40.4375000000,5,0.2751465142,,,
40.4531250000,5,0.5137023926,,,
40.4687500000,5,0.7008057237,,,
40.4843750000,5,0.8251038194,,,
40.5000000000,5,0.8504943848,,,
40.5156250000,5,0.7719420791,,,
40.5312500000,5,0.6488037109,,,
40.5468750000,5,0.5684509277,,,
40.5625000000,5,0.6060485840,,,
40.5781250000,5,0.7307434082,,,
40.5937500000,5,0.8080443740,,,
40.6093750000,5,0.6650391221,,,
40.6250000000,5,0.2100829929,,,
40.6406250000,5,-0.4953917861,,,
40.6562500000,5,-1.2442020178,,,
40.6718750000,5,-1.7811579704,,,
40.6875000000,5,-1.9329830408,,,
40.7031250000,5,-1.7102049589,,,
40.7187500000,5,-1.2906490564,,,
40.7343750000,5,-0.9126586914,,,
40.7500000000,5,-0.7533264160,,,
40.7656250000,5,-0.8453369141,,,
40.7812500000,5,-1.0782779455,,,
40.7968750000,5,-1.2814329863,,,
40.8125000000,5,-1.3455200195,,,
40.8281250000,5,-1.2657469511,,,
40.8437500000,5,-1.1442259550,,,
40.8593750000,5,-1.1033020020,,,
40.8750000000,5,-1.1998900175,,,
40.8906250000,5,-1.3749690056,,,
40.9062500000,5,-1.4850159883,,,
40.9218750000,5,-1.4133000374,,,
40.9375000000,5,-1.1350710392,,,
40.9531250000,5,-0.7492371202,,,
40.9687500000,5,-0.3959656060,,,
40.9843750000,5,-0.1632996053,,,
41.0000000000,5,-0.0498352088,,,
41.0156250000,5,0.0229492206,,,
41.0312500000,5,0.1291199028,,,
41.0468750000,5,0.2766112983,,,
41.0625000000,5,0.4164733887,,,
41.0781250000,5,0.4740295112,,,
41.0937500000,5,0.4217224121,,,
41.1093750000,5,0.3171997070,,,
41.1250000000,5,0.2756041884,,,
41.1406250000,5,0.4065552056,,,
41.1562500000,5,0.7355651855,,,
41.1718750000,5,1.1818850040,,,
41.1875000000,5,1.5970760584,,,
41.2031250000,5,1.8484499454,,,
41.2187500000,5,1.8729859591,,,
41.2343750000,5,1.7131960392,,,
41.2500000000,5,1.4757390022,,,
41.2656250000,5,1.2575989962,,,
41.2812500000,5,1.1128230095,,,
41.2968750000,5,1.0601810217,,,
41.3125000000,5,1.0962220430,,,
41.3281250000,5,1.2030329704,,,
41.3437500000,5,1.3511960506,,,
41.3593750000,5,1.4811710119,,,
41.3750000000,5,1.4928280115,,,
41.3906250000,5,1.2809449434,,,
41.4062500000,5,0.7911376953,,,
41.4218750000,5,0.0743713379,,,
41.4375000000,5,-0.7064514160,,,
41.4531250000,5,-1.3669129610,,,
41.4687500000,5,-1.7904360294,,,
41.4843750000,5,-1.9910279512,,,
41.5000000000,5,-2.0839838982,,,
41.5156250000,5,-2.1833190918,,,
41.5312500000,5,-2.3099980354,,,
41.5468750000,5,-2.3827819824,,,
41.5625000000,5,-2.2825009823,,,
41.5781250000,5,-1.9483339787,,,
41.5937500000,5,-1.4347840548,,,
41.6093750000,5,-0.8765869141,,,
41.6250000000,5,-0.4016417861,,,
41.6406250000,5,-0.0496826209,,,
41.6562500000,5,0.2341614068,,,
41.6718750000,5,0.5299987793,,,
41.6875000000,5,0.8800354004,,,
41.7031250000,5,1.2484439611,,,
41.7187500000,5,1.5402530432,,,
41.7343750000,5,1.6774599552,,,
41.7500000000,5,1.6560059786,,,
41.7656250000,5,1.5264890194,,,
41.7812500000,5,1.3468019962,,,
41.7968750000,5,1.1342159510,,,
41.8125000000,5,0.8529663086,,,
41.8281250000,5,0.4555968940,,,
41.8437500000,5,-0.0735168532,,,
41.8593750000,5,-0.6821594238,,,
41.8750000000,5,-1.2557070255,,,
41.8906250000,5,-1.6504520178,,,
41.9062500000,5,-1.7460019588,,,
41.9218750000,5,-1.5062559843,,,
41.9375000000,5,-0.9884948730,,,
41.9531250000,5,-0.3499146104,,,
41.9687500000,5,0.2174071968,,,
41.9843750000,5,0.5659790039,,,
42.0000000000,5,0.6614379883,,,
42.0156250000,5,0.5869750977,,,
42.0312500000,5,0.4855042100,,,
42.0468750000,5,0.4671325982,,,
42.0625000000,5,0.5160217285,,,
42.0781250000,5,0.5242614746,,,
42.0937500000,5,0.3643799126,,,
42.1093750000,5,-0.0131225605,,,
42.1250000000,5,-0.5276184082,,,
42.1406250000,5,-1.0067750216,,,
42.1562500000,5,-1.3011469841,,,
42.1718750000,5,-1.3653869629,,,
42.1875000000,5,-1.2626650333,,,
42.2031250000,5,-1.1051330566,,,
42.2187500000,5,-0.9458007813,,,
42.2343750000,5,-0.7657775879,,,
42.2500000000,5,-0.5064086914,,,
42.2656250000,5,-0.1484985054,,,
42.2812500000,5,0.2261963040,,,
42.2968750000,5,0.4918822944,,,
42.3125000000,5,0.5352172852,,,
42.3281250000,5,0.3649902046,,,
42.3437500000,5,0.1082457975,,,
42.3593750000,5,-0.0592346191,,,
42.3750000000,5,-0.0284423791,,,
42.3906250000,5,0.1636352986,,,
42.4062500000,5,0.3685913086,,,
42.4218750000,5,0.4035033882,,,
42.4375000000,5,0.1903381050,,,
42.4531250000,5,-0.1911316067,,,
42.4687500000,5,-0.5339965820,,,
42.4843750000,5,-0.6044005752,,,
42.5000000000,5,-0.3037109077,,,
42.5156250000,5,0.2849425972,,,
42.5312500000,5,0.9398803711,,,
42.5468750000,5,1.4173890352,,,
42.5625000000,5,1.5810240507,,,
42.5781250000,5,1.4784239531,,,
42.5937500000,5,1.2969360352,,,
42.6093750000,5,1.2344969511,,,
42.6250000000,5,1.3732910156,,,
42.6406250000,5,1.6310420036,,,
42.6562500000,5,1.8245240450,,,
42.6718750000,5,1.7933959961,,,
42.6875000000,5,1.4941710234,,,
42.7031250000,5,1.0021059513,,,
42.7187500000,5,0.4507445991,,,
42.7343750000,5,-0.0627136230,,,
42.7500000000,5,-0.5327758789,,,
42.7656250000,5,-0.9776000977,,,
42.7812500000,5,-1.4185179472,,,
42.7968750000,5,-1.7962650061,,,
42.8125000000,5,-2.0199580193,,,
42.8281250000,5,-2.0224609375,,,
42.8437500000,5,-1.8020019531,,,
42.8593750000,5,-1.4339900017,,,
42.8750000000,5,-1.0223690271,,,
42.8906250000,5,-0.6608582139,,,
42.9062500000,5,-0.3742980957,,,
42.9218750000,5,-0.1650085002,,,
42.9375000000,5,0.0096130371,,,
42.9531250000,5,0.1626587063,,,
42.9687500000,5,0.2942810059,,,
42.9843750000,5,0.4161072075,,,
43.0000000000,5,0.5289916992,,,
43.0156250000,5,0.6263123155,,,
43.0312500000,5,0.7005310059,,,
43.0468750000,5,0.7480773926,,,
43.0625000000,5,0.7669677734,,,
43.0781250000,5,0.7679442763,,,
43.0937500000,5,0.7405701280,,,
43.1093750000,5,0.6622924805,,,
43.1250000000,5,0.5148925781,,,
43.1406250000,5,0.2878417969,,,
43.1562500000,5,0.0103149395,,,
43.1718750000,5,-0.2649536133,,,
43.1875000000,5,-0.4748229980,,,
43.2031250000,5,-0.5861511230,,,
43.2187500000,5,-0.5923767090,,,
43.2343750000,5,-0.5091857910,,,
43.2500000000,5,-0.3726500869,,,
43.2656250000,5,-0.1993103027,,,
43.2812500000,5,-0.0327148400,,,
43.2968750000,5,0.0929260328,,,
43.3125000000,5,0.1308594048,,,
43.3281250000,5,0.0780639574,,,
43.3437500000,5,-0.0384216309,,,
43.3593750000,5,-0.1515807956,,,
43.3750000000,5,-0.1972655952,,,
43.3906250000,5,-0.1642456055,,,
43.4062500000,5,-0.0889282227,,,
43.4218750000,5,-0.0444946289,,,
43.4375000000,5,-0.0601196289,,,
43.4531250000,5,-0.1308898926,,,
43.4687500000,5,-0.2176208049,,,
43.4843750000,5,-0.2680664063,,,
43.5000000000,5,-0.2507934868,,,
43.5156250000,5,-0.1625366062,,,
43.5312500000,5,-0.0328979492,,,
43.5468750000,5,0.1119080037,,,
43.5625000000,5,0.2123717964,,,
43.5781250000,5,0.2227478027,,,
43.5937500000,5,0.1111449972,,,
43.6093750000,5,-0.1062621996,,,
43.6250000000,5,-0.3669128120,,,
43.6406250000,5,-0.5797119141,,,
43.6562500000,5,-0.6554564834,,,
43.6718750000,5,-0.5592041016,,,
43.6875000000,5,-0.3052979112,,,
43.7031250000,5,0.0427551307,,,
43.7187500000,5,0.4249267876,,,
43.7343750000,5,0.7784423828,,,
43.7500000000,5,1.0691829920,,,
43.7656250000,5,1.2635500431,,,
43.7812500000,5,1.3085019588,,,
43.7968750000,5,1.1555180550,,,
43.8125000000,5,0.7563781738,,,
43.8281250000,5,0.1580200046,,,
43.8437500000,5,-0.5297545791,,,
43.8593750000,5,-1.1249690056,,,
43.8750000000,5,-1.4716490507,,,
43.8906250000,5,-1.5103759766,,,
43.9062500000,5,-1.3144229650,,,
43.9218750000,5,-1.0680539608,,,
43.9375000000,5,-0.9618834853,,,
43.9531250000,5,-1.1083370447,,,
43.9687500000,5,-1.4700009823,,,
43.9843750000,5,-1.8850710392,,,
44.0000000000,5,-2.1521000862,,,
44.0156250000,5,-2.1369628906,,,
44.0312500000,5,-1.8571170568,,,
44.0468750000,5,-1.4286190271,,,
44.0625000000,5,-0.9990844727,,,
44.0781250000,5,-0.6693726182,,,
44.0937500000,5,-0.4428710938,,,
44.1093750000,5,-0.2639159858,,,
44.1250000000,5,-0.0590820313,,,
44.1406250000,5,0.2218323052,,,
44.1562500000,5,0.5997620225,,,
44.1718750000,5,1.0622249842,,,
44.1875000000,5,1.5953060389,,,
44.2031250000,5,2.1452329159,,,
44.2187500000,5,2.6405639648,,,
44.2343750000,5,2.9750370979,,,
44.2500000000,5,3.0610349178,,,
44.2656250000,5,2.8571469784,,,
44.2812500000,5,2.3901059628,,,
44.2968750000,5,1.7784730196,,,
44.3125000000,5,1.1484379768,,,
44.3281250000,5,0.6233521104,,,
44.3437500000,5,0.2544555962,,,
44.3593750000,5,0.0282897893,,,
44.3750000000,5,-0.0905761719,,,
44.3906250000,5,-0.1709289998,,,
44.4062500000,5,-0.2550049126,,,
44.4218750000,5,-0.3808288872,,,
44.4375000000,5,-0.5606079102,,,
44.4531250000,5,-0.7837523818,,,
44.4687500000,5,-1.0156860352,,,
44.4843750000,5,-1.2021180391,,,
44.5000000000,5,-1.3015439510,,,
44.5156250000,5,-1.2752690315,,,
44.5312500000,5,-1.1295779943,,,
44.5468750000,5,-0.8829345703,,,
44.5625000000,5,-0.5657653809,,,
44.5781250000,5,-0.2077026069,,,
44.5937500000,5,0.1600646973,,,
44.6093750000,5,0.4923706055,,,
44.6250000000,5,0.7292479873,,,
44.6406250000,5,0.8372498155,,,
44.6562500000,5,0.8248291016,,,
44.6718750000,5,0.7451171875,,,
44.6875000000,5,0.6882324219,,,
44.7031250000,5,0.7186279297,,,
44.7187500000,5,0.8549500108,,,
44.7343750000,5,1.0422359705,,,
44.7500000000,5,1.1999210119,,,
44.7656250000,5,1.2540279627,,,
44.7812500000,5,1.1861269474,,,
44.7968750000,5,1.0277709961,,,
44.8125000000,5,0.8317565918,,,
44.8281250000,5,0.6522521973,,,
44.8437500000,5,0.5007935166,,,
44.8593750000,5,0.3460387886,,,
44.8750000000,5,0.1553650051,,,
44.8906250000,5,-0.0963745117,,,
44.9062500000,5,-0.3833617866,,,
44.9218750000,5,-0.6459351182,,,
44.9375000000,5,-0.8236389160,,,
44.9531250000,5,-0.9002686143,,,
44.9687500000,5,-0.9154052734,,,
44.9843750000,5,-0.9493103027,,,
45.0000000000,5,-1.0673220158,,,
45.0156250000,5,-1.2588499784,,,
45.0312500000,5,-1.4371639490,,,
45.0468750000,5,-1.4599909782,,,
45.0625000000,5,-1.2221369743,,,
45.0781250000,5,-0.7337952256,,,
45.0937500000,5,-0.1194152981,,,
45.1093750000,5,0.4382323921,,,
45.1250000000,5,0.7980042100,,,
45.1406250000,5,0.9391785264,,,
45.1562500000,5,0.9598693848,,,
45.1718750000,5,1.0274349451,,,
45.1875000000,5,1.2454830408,,,
45.2031250000,5,1.5930180550,,,
45.2187500000,5,1.9237669706,,,
45.2343750000,5,2.0449829102,,,
45.2500000000,5,1.8324279785,,,
45.2656250000,5,1.2970279455,,,
45.2812500000,5,0.5982971191,,,
45.2968750000,5,-0.0371398889,,,
45.3125000000,5,-0.4483642876,,,
45.3281250000,5,-0.5994873047,,,
45.3437500000,5,-0.6080322266,,,
45.3593750000,5,-0.6343688965,,,
45.3750000000,5,-0.7924500108,,,
45.3906250000,5,-1.0790710449,,,
45.4062500000,5,-1.3908079863,,,
45.4218750000,5,-1.6055910587,,,
45.4375000000,5,-1.6598210335,,,
45.4531250000,5,-1.5865169764,,,
45.4687500000,5,-1.4686889648,,,
45.4843750000,5,-1.3851319551,,,
45.5000000000,5,-1.3613280058,,,
45.5156250000,5,-1.3567199707,,,
45.5312500000,5,-1.3269959688,,,
45.5468750000,5,-1.2457890511,,,
45.5625000000,5,-1.1179499626,,,
45.5781250000,5,-0.9735413194,,,
45.5937500000,5,-0.8278502822,,,
45.6093750000,5,-0.6784362793,,,
45.6250000000,5,-0.5140380859,,,
45.6406250000,5,-0.3242188096,,,
45.6562500000,5,-0.1119994968,,,
45.6718750000,5,0.1222534031,,,
45.6875000000,5,0.3870544136,,,
45.7031250000,5,0.6980590820,,,
45.7187500000,5,1.0670779943,,,
45.7343750000,5,1.4684139490,,,
45.7500000000,5,1.8302609921,,,
45.7656250000,5,2.0466001034,,,
45.7812500000,5,2.0143740177,,,
45.7968750000,5,1.6930539608,,,
45.8125000000,5,1.1300660372,,,
45.8281250000,5,0.4508971870,,,
45.8437500000,5,-0.1866454929,,,
45.8593750000,5,-0.6399840713,,,
45.8750000000,5,-0.8469542861,,,
45.8906250000,5,-0.8122863770,,,
45.9062500000,5,-0.5897216797,,,
45.9218750000,5,-0.2541809082,,,
45.9375000000,5,0.1235352010,,,
45.9531250000,5,0.4664916992,,,
45.9687500000,5,0.7178040147,,,
45.9843750000,5,0.8380736709,,,
46.0000000000,5,0.8122559190,,,
46.0156250000,5,0.6623229980,,,
46.0312500000,5,0.4245604873,,,
46.0468750000,5,0.1647339016,,,
46.0625000000,5,-0.0710754395,,,
46.0781250000,5,-0.2591857910,,,
46.0937500000,5,-0.4088745117,,,
46.1093750000,5,-0.5385131836,,,
46.1250000000,5,-0.6636657715,,,
46.1406250000,5,-0.7723389268,,,
46.1562500000,5,-0.8181458116,,,
46.1718750000,5,-0.7392882705,,,
46.1875000000,5,-0.5050354004,,,
46.2031250000,5,-0.1563415974,,,
46.2187500000,5,0.2235106975,,,
46.2343750000,5,0.5300292969,,,
46.2500000000,5,0.6865844727,,,
46.2656250000,5,0.6941832900,,,
46.2812500000,5,0.5952758789,,,
46.2968750000,5,0.4433288872,,,
46.3125000000,5,0.2658691108,,,
46.3281250000,5,0.0386657715,,,
46.3437500000,5,-0.2469788045,,,
46.3593750000,5,-0.5472106934,,,
46.3750000000,5,-0.7727661133,,,
46.3906250000,5,-0.8318480849,,,
46.4062500000,5,-0.6960753798,,,
46.4218750000,5,-0.4313049018,,,
46.4375000000,5,-0.1424866021,,,
46.4531250000,5,0.0728149414,,,
46.4687500000,5,0.1939087063,,,
46.4843750000,5,0.2735900879,,,
46.5000000000,5,0.3981018066,,,
46.5156250000,5,0.6205139160,,,
46.5312500000,5,0.9313660264,,,
46.5468750000,5,1.2718199492,,,
46.5625000000,5,1.5779720545,,,
46.5781250000,5,1.8087459803,,,
46.5937500000,5,1.9384770393,,,
46.6093750000,5,1.9515080452,,,
46.6250000000,5,1.8381650448,,,
46.6406250000,5,1.5821230412,,,
46.6562500000,5,1.1686710119,,,
46.6718750000,5,0.6024780273,,,
46.6875000000,5,-0.0836791992,,,
46.7031250000,5,-0.8249816895,,,
46.7187500000,5,-1.5137020350,,,
46.7343750000,5,-2.0245358944,,,
46.7500000000,5,-2.2460329533,,,
46.7656250000,5,-2.1346740723,,,
46.7812500000,5,-1.7594909668,,,
46.7968750000,5,-1.2746579647,,,
46.8125000000,5,-0.8630676270,,,
46.8281250000,5,-0.6693726182,,,
46.8437500000,5,-0.7183228135,,,
46.8593750000,5,-0.9179688096,,,
46.8750000000,5,-1.1032099724,,,
46.8906250000,5,-1.1176149845,,,
46.9062500000,5,-0.9135131836,,,
46.9218750000,5,-0.5557556152,,,
46.9375000000,5,-0.2059326023,,,
46.9531250000,5,-0.0363159217,,,
46.9687500000,5,-0.1596374959,,,
46.9843750000,5,-0.5856018066,,,
47.0000000000,5,-1.2066650391,,,
47.0156250000,5,-1.8412480354,,,
47.0312500000,5,-2.2731928825,,,
47.0468750000,5,-2.3588259220,,,
47.0625000000,5,-2.0745849609,,,
47.0781250000,5,-1.5270689726,,,
47.0937500000,5,-0.8934020996,,,
47.1093750000,5,-0.3291625977,,,
47.1250000000,5,0.1118163988,,,
47.1406250000,5,0.4708251953,,,
47.1562500000,5,0.8282775879,,,
47.1718750000,5,1.2136839628,,,
47.1875000000,5,1.5621340275,,,
47.2031250000,5,1.7442630529,,,
47.2187500000,5,1.6583859921,,,
47.2343750000,5,1.3096309900,,,
47.2500000000,5,0.8305358887,,,
47.2656250000,5,0.4274902046,,,
47.2812500000,5,0.2734375000,,,
47.2968750000,5,0.3988646865,,,
47.3125000000,5,0.7050476074,,,
47.3281250000,5,1.0138850212,,,
47.3437500000,5,1.2002259493,,,
47.3593750000,5,1.2394709587,,,
47.3750000000,5,1.2118530273,,,
47.3906250000,5,1.2275389433,,,
47.4062500000,5,1.3359990120,,,
47.4218750000,5,1.4838869572,,,
47.4375000000,5,1.5427860022,,,
47.4531250000,5,1.4059139490,,,
47.4687500000,5,1.0433039665,,,
47.4843750000,5,0.5495911241,,,
47.5000000000,5,0.0611877404,,,
47.5156250000,5,-0.3276062012,,,
47.5312500000,5,-0.6346436143,,,
47.5468750000,5,-0.9686583877,,,
47.5625000000,5,-1.4273680449,,,
47.5781250000,5,-2.0062260628,,,
47.5937500000,5,-2.5434880257,,,
47.6093750000,5,-2.8186950684,,,
47.6250000000,5,-2.6713869572,,,
47.6406250000,5,-2.1250920296,,,
47.6562500000,5,-1.3735350370,,,
47.6718750000,5,-0.6982727051,,,
47.6875000000,5,-0.3213196099,,,
47.7031250000,5,-0.3022460938,,,
47.7187500000,5,-0.5520324707,,,
47.7343750000,5,-0.8803710938,,,
47.7500000000,5,-1.1036989689,,,
47.7656250000,5,-1.1224980354,,,
47.7812500000,5,-0.9259033203,,,
47.7968750000,5,-0.5613707900,,,
47.8125000000,5,-0.1065979004,,,
47.8281250000,5,0.3542479873,,,
47.8437500000,5,0.7583007813,,,
47.8593750000,5,1.0441279411,,,
47.8750000000,5,1.1773680449,,,
47.8906250000,5,1.1459660530,,,
47.9062500000,5,0.9763793945,,,
47.9218750000,5,0.7198792100,,,
47.9375000000,5,0.4244689941,,,
47.9531250000,5,0.1596679986,,,
47.9687500000,5,-0.0203247108,,,
47.9843750000,5,-0.0425109901,,,
48.0000000000,6,0.1417236030,,,
48.0156250000,6,0.5214232802,,,
48.0312500000,6,1.0038150549,,,
48.0468750000,6,1.4368289709,,,
48.0625000000,6,1.6782530546,,,
48.0781250000,6,1.6517030001,,,
48.0937500000,6,1.4133909941,,,
48.1093750000,6,1.1155090332,,,
48.1250000000,6,0.9075012207,,,
48.1406250000,6,0.8383178711,,,
48.1562500000,6,0.8482666016,,,
48.1718750000,6,0.8287963867,,,
48.1875000000,6,0.7135009766,,,
48.2031250000,6,0.5560302734,,,
48.2187500000,6,0.4751892090,,,
48.2343750000,6,0.5527343750,,,
48.2500000000,6,0.7407836914,,,
48.2656250000,6,0.8874207139,,,
48.2812500000,6,0.8261414170,,,
48.2968750000,6,0.5168151855,,,
48.3125000000,6,0.0733032227,,,
48.3281250000,6,-0.3217467964,,,
48.3437500000,6,-0.5356749892,,,
48.3593750000,6,-0.5662537217,,,
48.3750000000,6,-0.5233154297,,,
48.3906250000,6,-0.5368958116,,,
48.4062500000,6,-0.6510009766,,,
48.4218750000,6,-0.8033142090,,,
48.4375000000,6,-0.8800659180,,,
48.4531250000,6,-0.8265076280,,,
48.4687500000,6,-0.6706542969,,,
48.4843750000,6,-0.4959411919,,,
48.5000000000,6,-0.3751525879,,,
48.5156250000,6,-0.3181458116,,,
48.5312500000,6,-0.2656554878,,,
48.5468750000,6,-0.1544189006,,,
48.5625000000,6,0.0303649902,,,
48.5781250000,6,0.2465514988,,,
48.5937500000,6,0.4086304009,,,
48.6093750000,6,0.4316101074,,,
48.6250000000,6,0.2930603027,,,
48.6406250000,6,0.0397644006,,,
48.6562500000,6,-0.2365112007,,,
48.6718750000,6,-0.4416199028,,,
48.6875000000,6,-0.5261536241,,,
48.7031250000,6,-0.5317993164,,,
48.7187500000,6,-0.5437011719,,,
48.7343750000,6,-0.6210631728,,,
48.7500000000,6,-0.7518004775,,,
48.7656250000,6,-0.8370360732,,,
48.7812500000,6,-0.7563781738,,,
48.7968750000,6,-0.4700622857,,,
48.8125000000,6,-0.0546875000,,,
48.8281250000,6,0.3031921089,,,
48.8437500000,6,0.4216003120,,,
48.8593750000,6,0.2337035984,,,
48.8750000000,6,-0.1698303074,,,
48.8906250000,6,-0.5722656250,,,
48.9062500000,6,-0.7775269151,,,
48.9218750000,6,-0.7096558213,,,
48.9375000000,6,-0.4265137017,,,
48.9531250000,6,-0.0892639235,,,
48.9687500000,6,0.1797180027,,,
48.9843750000,6,0.3409424126,,,
49.0000000000,6,0.4472351074,,,
49.0156250000,6,0.5606384277,,,
49.0312500000,6,0.7029418945,,,
49.0468750000,6,0.8153076172,,,
49.0625000000,6,0.8108826280,,,
49.0781250000,6,0.6390991211,,,
49.0937500000,6,0.3353882134,,,
49.1093750000,6,-0.0045166020,,,
49.1250000000,6,-0.2726134956,,,
49.1406250000,6,-0.4171142876,,,
49.1562500000,6,-0.4724425972,,,
49.1718750000,6,-0.5319519043,,,
49.1875000000,6,-0.6511229873,,,
49.2031250000,6,-0.8192139268,,,
49.2187500000,6,-0.9542542100,,,
49.2343750000,6,-0.9562377930,,,
49.2500000000,6,-0.7897644043,,,
49.2656250000,6,-0.5138854980,,,
49.2812500000,6,-0.2543640137,,,
49.2968750000,6,-0.1199340969,,,
49.3125000000,6,-0.1228943020,,,
49.3281250000,6,-0.1698303074,,,
49.3437500000,6,-0.1276244968,,,
49.3593750000,6,0.0935974121,,,
49.3750000000,6,0.4664000869,,,
49.3906250000,6,0.8739929199,,,
49.4062500000,6,1.1856989861,,,
49.4218750000,6,1.3218380213,,,
49.4375000000,6,1.2858279943,,,
49.4531250000,6,1.1330260038,,,
49.4687500000,6,0.9265747070,,,
49.4843750000,6,0.7005004883,,,
49.5000000000,6,0.4631653130,,,
49.5156250000,6,0.2215576023,,,
49.5312500000,6,0.0064697270,,,
49.5468750000,6,-0.1497803032,,,
49.5625000000,6,-0.2227173001,,,
49.5781250000,6,-0.2229004055,,,
49.5937500000,6,-0.1921692044,,,
49.6093750000,6,-0.1759337932,,,
49.6250000000,6,-0.1927185059,,,
49.6406250000,6,-0.2367554009,,,
49.6562500000,6,-0.2861937881,,,
49.6718750000,6,-0.3177185059,,,
49.6875000000,6,-0.3011169136,,,
49.7031250000,6,-0.2157593071,,,
49.7187500000,6,-0.0597839393,,,
49.7343750000,6,0.1351623982,,,
49.7500000000,6,0.3080444038,,,
49.7656250000,6,0.3963927925,,,
49.7812500000,6,0.3722229004,,,
49.7968750000,6,0.2605285943,,,
49.8125000000,6,0.1028136984,,,
49.8281250000,6,-0.0761108398,,,
49.8437500000,6,-0.3021239936,,,
49.8593750000,6,-0.6088256836,,,
49.8750000000,6,-1.0003969669,,,
49.8906250000,6,-1.3969119787,,,
49.9062500000,6,-1.6692810059,,,
49.9218750000,6,-1.7026979923,,,
49.9375000000,6,-1.4933170080,,,
49.9531250000,6,-1.1434940100,,,
49.9687500000,6,-0.8078308105,,,
49.9843750000,6,-0.5824890137,,,
50.0000000000,6,-0.4462584853,,,
50.0156250000,6,-0.2852172852,,,
50.0312500000,6,0.0221252404,,,
50.0468750000,6,0.4755553901,,,
50.0625000000,6,0.9605407715,,,
50.0781250000,6,1.2993160486,,,
50.0937500000,6,1.3850400448,,,
50.1093750000,6,1.2459720373,,,
50.1250000000,6,1.0334780216,,,
50.1406250000,6,0.9189147949,,,
50.1562500000,6,0.9866942763,,,
50.1718750000,6,1.1874389648,,,
50.1875000000,6,1.3860169649,,,
50.2031250000,6,1.4412230253,,,
50.2187500000,6,1.2910460234,,,
50.2343750000,6,0.9577025771,,,
50.2500000000,6,0.5332946777,,,
50.2656250000,6,0.1178283989,,,
50.2812500000,6,-0.2178650051,,,
50.2968750000,6,-0.4429931939,,,
50.3125000000,6,-0.5635070801,,,
50.3281250000,6,-0.5982056260,,,
50.3437500000,6,-0.5744628906,,,
50.3593750000,6,-0.5207213759,,,
50.3750000000,6,-0.4721679986,,,
50.3906250000,6,-0.4611206055,,,
50.4062500000,6,-0.5125731826,,,
50.4218750000,6,-0.6530761719,,,
50.4375000000,6,-0.8932495117,,,
50.4531250000,6,-1.2320859432,,,
50.4687500000,6,-1.6374210119,,,
50.4843750000,6,-2.0235600471,,,
50.5000000000,6,-2.2803959846,,,
50.5156250000,6,-2.3125309944,,,
50.5312500000,6,-2.0651550293,,,
50.5468750000,6,-1.5841979980,,,
50.5625000000,6,-0.9732360840,,,
50.5781250000,6,-0.3670653999,,,
50.5937500000,6,0.1254272014,,,
50.6093750000,6,0.4883728027,,,
50.6250000000,6,0.7833861709,,,
50.6406250000,6,1.0968320370,,,
50.6562500000,6,1.4670100212,,,
50.6718750000,6,1.8440860510,,,
50.6875000000,6,2.1132199764,,,
50.7031250000,6,2.1476140022,,,
50.7187500000,6,1.9211430550,,,
50.7343750000,6,1.5010989904,,,
50.7500000000,6,1.0324709415,,,
50.7656250000,6,0.6425781250,,,
50.7812500000,6,0.3724670112,,,
50.7968750000,6,0.1839293987,,,
50.8125000000,6,0.0090942383,,,
50.8281250000,6,-0.1760558933,,,
50.8437500000,6,-0.3192138970,,,
50.8593750000,6,-0.3267517090,,,
50.8750000000,6,-0.1564635932,,,
50.8906250000,6,0.1443787068,,,
50.9062500000,6,0.4482421875,,,
50.9218750000,6,0.6011353135,,,
50.9375000000,6,0.5365294814,,,
50.9531250000,6,0.3085327148,,,
50.9687500000,6,0.0347290002,,,
50.9843750000,6,-0.1661071926,,,
51.0000000000,6,-0.2549133003,,,
51.0156250000,6,-0.2886047065,,,
51.0312500000,6,-0.3519287109,,,
51.0468750000,6,-0.5056458116,,,
51.0625000000,6,-0.7360228896,,,
51.0781250000,6,-0.9631348252,,,
51.0937500000,6,-1.0773930550,,,
51.1093750000,6,-1.0054630041,,,
51.1250000000,6,-0.7261046767,,,
51.1406250000,6,-0.2820129097,,,
51.1562500000,6,0.2453002930,,,
51.1718750000,6,0.7694091797,,,
51.1875000000,6,1.2466739416,,,
51.2031250000,6,1.6560059786,,,
51.2187500000,6,2.0302729607,,,
51.2343750000,6,2.3689270020,,,
51.2500000000,6,2.6460568905,,,
51.2656250000,6,2.7913510799,,,
51.2812500000,6,2.7173159122,,,
51.2968750000,6,2.3574221134,,,
51.3125000000,6,1.7101140022,,,
51.3281250000,6,0.8321228027,,,
51.3437500000,6,-0.1760863960,,,
51.3593750000,6,-1.1836550236,,,
51.3750000000,6,-2.0828249454,,,
51.3906250000,6,-2.7646789551,,,
51.4062500000,6,-3.1472470760,,,
51.4218750000,6,-3.1773679256,,,
51.4375000000,6,-2.8625791073,,,
51.4531250000,6,-2.2709050179,,,
51.4687500000,6,-1.5288389921,,,
51.4843750000,6,-0.7996215820,,,
51.5000000000,6,-0.2088012993,,,
51.5156250000,6,0.1820984036,,,
51.5312500000,6,0.3806762993,,,
51.5468750000,6,0.4646606147,,,
51.5625000000,6,0.5198975205,,,
51.5781250000,6,0.5865784287,,,
51.5937500000,6,0.6659240723,,,
51.6093750000,6,0.7052001953,,,
51.6250000000,6,0.6515502930,,,
51.6406250000,6,0.4954223931,,,
51.6562500000,6,0.2726134956,,,
51.6718750000,6,0.0767517090,,,
51.6875000000,6,0.0013122560,,,
51.7031250000,6,0.0809936523,,,
51.7187500000,6,0.2842712104,,,
51.7343750000,6,0.4961547852,,,
51.7500000000,6,0.5958557129,,,
51.7656250000,6,0.5004271865,,,
51.7812500000,6,0.2229004055,,,
51.7968750000,6,-0.1541748047,,,
51.8125000000,6,-0.4946899116,,,
51.8281250000,6,-0.6899414063,,,
51.8437500000,6,-0.6959838867,,,
51.8593750000,6,-0.5230407715,,,
51.8750000000,6,-0.2593994141,,,
51.8906250000,6,0.0168456994,,,
51.9062500000,6,0.2144774944,,,
51.9218750000,6,0.2970581055,,,
51.9375000000,6,0.2605591118,,,
51.9531250000,6,0.1561889946,,,
51.9687500000,6,0.0628967285,,,
51.9843750000,6,0.0503540002,,,
52.0000000000,6,0.1491089016,,,
52.0156250000,6,0.3396911919,,,
52.0312500000,6,0.5524901748,,,
52.0468750000,6,0.7030640244,,,
52.0625000000,6,0.7475280762,,,
52.0781250000,6,0.6674193740,,,
52.0937500000,6,0.5039978027,,,
52.1093750000,6,0.2886047065,,,
52.1250000000,6,0.0386047401,,,
52.1406250000,6,-0.2344971001,,,
52.1562500000,6,-0.5296021104,,,
52.1718750000,6,-0.8172302246,,,
52.1875000000,6,-1.0722049475,,,
52.2031250000,6,-1.2852480412,,,
52.2187500000,6,-1.4651490450,,,
52.2343750000,6,-1.6317750216,,,
52.2500000000,6,-1.7797240019,,,
52.2656250000,6,-1.8522340059,,,
52.2812500000,6,-1.7501529455,,,
52.2968750000,6,-1.4167480469,,,
52.3125000000,6,-0.8787841797,,,
52.3281250000,6,-0.2709656060,,,
52.3437500000,6,0.2425231934,,,
52.3593750000,6,0.5478820801,,,
52.3750000000,6,0.6468201280,,,
52.3906250000,6,0.6504517198,,,
52.4062500000,6,0.6802979112,,,
52.4218750000,6,0.7886353135,,,
52.4375000000,6,0.9233704209,,,
52.4531250000,6,0.9921569824,,,
52.4687500000,6,0.9264525771,,,
52.4843750000,6,0.7439270020,,,
52.5000000000,6,0.5083312988,,,
52.5156250000,6,0.2760314941,,,
52.5312500000,6,0.0606994592,,,
52.5468750000,6,-0.1627501994,,,
52.5625000000,6,-0.3966063857,,,
52.5781250000,6,-0.5822753906,,,
52.5937500000,6,-0.6176146865,,,
52.6093750000,6,-0.4303894043,,,
52.6250000000,6,-0.0464172401,,,
52.6406250000,6,0.4095154107,,,
52.6562500000,6,0.7690734863,,,
52.6718750000,6,0.9281005859,,,
52.6875000000,6,0.8722534180,,,
52.7031250000,6,0.6506041884,,,
52.7187500000,6,0.3259583116,,,
52.7343750000,6,-0.0725708008,,,
52.7500000000,6,-0.5416564941,,,
52.7656250000,6,-1.0621340275,,,
52.7812500000,6,-1.5560610294,,,
52.7968750000,6,-1.8974000216,,,
52.8125000000,6,-1.9687190056,,,
52.8281250000,6,-1.7216490507,,,
52.8437500000,6,-1.2128599882,,,
52.8593750000,6,-0.5738831162,,,
52.8750000000,6,0.0263366699,,,
52.8906250000,6,0.4464721978,,,
52.9062500000,6,0.6437377930,,,
52.9218750000,6,0.6433411241,,,
52.9375000000,6,0.5290833116,,,
52.9531250000,6,0.4049988091,,,
52.9687500000,6,0.3373107910,,,
52.9843750000,6,0.3428345025,,,
53.0000000000,6,0.4087524116,,,
53.0156250000,6,0.4958190918,,,
53.0312500000,6,0.5677794814,,,
53.0468750000,6,0.5844116211,,,
53.0625000000,6,0.4786376953,,,
53.0781250000,6,0.2008666992,,,
53.0937500000,6,-0.2503966987,,,
53.1093750000,6,-0.7815247178,,,
53.1250000000,6,-1.2220150232,,,
53.1406250000,6,-1.3878170252,,,
53.1562500000,6,-1.1832580566,,,
53.1718750000,6,-0.6472167969,,,
53.1875000000,6,0.0402526893,,,
53.2031250000,6,0.6623229980,,,
53.2187500000,6,1.0672299862,,,
53.2343750000,6,1.2155460119,,,
53.2500000000,6,1.1629029512,,,
53.2656250000,6,0.9933472276,,,
53.2812500000,6,0.7749633789,,,
53.2968750000,6,0.5342711806,,,
53.3125000000,6,0.2842406929,,,
53.3281250000,6,0.0618286096,,,
53.3437500000,6,-0.0940551832,,,
53.3593750000,6,-0.1617431939,,,
53.3750000000,6,-0.1789246053,,,
53.3906250000,6,-0.2474976033,,,
53.4062500000,6,-0.4662170112,,,
53.4218750000,6,-0.8666992188,,,
53.4375000000,6,-1.3804019690,,,
53.4531250000,6,-1.8277889490,,,
53.4687500000,6,-2.0127561092,,,
53.4843750000,6,-1.8135379553,,,
53.5000000000,6,-1.2666319609,,,
53.5156250000,6,-0.5660095215,,,
53.5312500000,6,0.0455932617,,,
53.5468750000,6,0.3876647949,,,
53.5625000000,6,0.4250792861,,,
53.5781250000,6,0.2689208984,,,
53.5937500000,6,0.0981750488,,,
53.6093750000,6,0.0400695801,,,
53.6250000000,6,0.1045226976,,,
53.6406250000,6,0.1955872029,,,
53.6562500000,6,0.1955565959,,,
53.6718750000,6,0.0515136681,,,
53.6875000000,6,-0.1963806003,,,
53.7031250000,6,-0.4319458008,,,
53.7187500000,6,-0.5529174805,,,
53.7343750000,6,-0.5268250108,,,
53.7500000000,6,-0.4177550972,,,
53.7656250000,6,-0.3334960938,,,
53.7812500000,6,-0.3659667969,,,
53.7968750000,6,-0.5170288086,,,
53.8125000000,6,-0.6953430176,,,
53.8281250000,6,-0.7435302734,,,
53.8437500000,6,-0.5254210830,,,
53.8593750000,6,0.0050659180,,,
53.8750000000,6,0.7666931152,,,
53.8906250000,6,1.5547180176,,,
53.9062500000,6,2.1282649040,,,
53.9218750000,6,2.3338930607,,,
53.9375000000,6,2.1562809944,,,
53.9531250000,6,1.7229000330,,,
53.9687500000,6,1.1936949492,,,
53.9843750000,6,0.7018737793,,,
54.0000000000,6,0.3081359863,,,
54.0156250000,6,0.0128784198,,,
54.0312500000,6,-0.1752929986,,,
54.0468750000,6,-0.2135314941,,,
54.0625000000,6,-0.0697937012,,,
54.0781250000,6,0.2254333049,,,
54.0937500000,6,0.5725402832,,,
54.1093750000,6,0.8373413086,,,
54.1250000000,6,0.9214171767,,,
54.1406250000,6,0.8421936035,,,
54.1562500000,6,0.7269592285,,,
54.1718750000,6,0.7196655273,,,
54.1875000000,6,0.8766785264,,,
54.2031250000,6,1.1302189827,,,
54.2187500000,6,1.3317259550,,,
54.2343750000,6,1.3713070154,,,
54.2500000000,6,1.2126460075,,,
54.2656250000,6,0.9407653809,,,
54.2812500000,6,0.6606444716,,,
54.2968750000,6,0.4443359077,,,
54.3125000000,6,0.2949523926,,,
54.3281250000,6,0.1900023967,,,
54.3437500000,6,0.1117248982,,,
54.3593750000,6,0.0663452074,,,
54.3750000000,6,0.0704650879,,,
54.3906250000,6,0.1102294996,,,
54.4062500000,6,0.1387328953,,,
54.4218750000,6,0.0990905836,,,
54.4375000000,6,-0.0451355018,,,
54.4531250000,6,-0.2732239068,,,
54.4687500000,6,-0.5321959853,,,
54.4843750000,6,-0.7594910264,,,
54.5000000000,6,-0.8924865723,,,
54.5156250000,6,-0.8991394043,,,
54.5312500000,6,-0.7704772949,,,
54.5468750000,6,-0.5208435059,,,
54.5625000000,6,-0.1938170940,,,
54.5781250000,6,0.1307373047,,,
54.5937500000,6,0.3668518066,,,
54.6093750000,6,0.4594115913,,,
54.6250000000,6,0.3943175972,,,
54.6406250000,6,0.2310180962,,,
54.6562500000,6,0.0824585035,,,
54.6718750000,6,0.0531310998,,,
54.6875000000,6,0.1955872029,,,
54.7031250000,6,0.4630432129,,,
54.7187500000,6,0.7135925293,,,
54.7343750000,6,0.7926635742,,,
54.7500000000,6,0.6032410264,,,
54.7656250000,6,0.1428833008,,,
54.7812500000,6,-0.4662170112,,,
54.7968750000,6,-1.0440059900,,,
54.8125000000,6,-1.4403990507,,,
54.8281250000,6,-1.5804749727,,,
54.8437500000,6,-1.5205379725,,,
54.8593750000,6,-1.3816219568,,,
54.8750000000,6,-1.3018800020,,,
54.8906250000,6,-1.3475040197,,,
54.9062500000,6,-1.4853520393,,,
54.9218750000,6,-1.6273800135,,,
54.9375000000,6,-1.6835019588,,,
54.9531250000,6,-1.6015629768,,,
54.9687500000,6,-1.3851009607,,,
54.9843750000,6,-1.0954589844,,,
55.0000000000,6,-0.7869263291,,,
55.0156250000,6,-0.5250853896,,,
55.0312500000,6,-0.3455199897,,,
55.0468750000,6,-0.2672424018,,,
55.0625000000,6,-0.2747803032,,,
55.0781250000,6,-0.3342590034,,,
55.0937500000,6,-0.4021911919,,,
55.1093750000,6,-0.4453125000,,,
55.1250000000,6,-0.4765320122,,,
55.1406250000,6,-0.5107421875,,,
55.1562500000,6,-0.5629882813,,,
55.1718750000,6,-0.5942078233,,,
55.1875000000,6,-0.5315551758,,,
55.2031250000,6,-0.2936095893,,,
55.2187500000,6,0.1360473931,,,
55.2343750000,6,0.6711730957,,,
55.2500000000,6,1.1666560173,,,
55.2656250000,6,1.4610290527,,,
55.2812500000,6,1.4871220589,,,
55.2968750000,6,1.2889399529,,,
55.3125000000,6,0.9888610840,,,
55.3281250000,6,0.7170104980,,,
55.3437500000,6,0.5272827148,,,
55.3593750000,6,0.4224854112,,,
55.3750000000,6,0.3411864936,,,
55.3906250000,6,0.2290343940,,,
55.4062500000,6,0.0618896484,,,
55.4218750000,6,-0.1444701999,,,
55.4375000000,6,-0.3531799018,,,
55.4531250000,6,-0.5070496202,,,
55.4687500000,6,-0.5418701172,,,
55.4843750000,6,-0.4353333116,,,
55.5000000000,6,-0.2220458984,,,
55.5156250000,6,-0.0148010300,,,
55.5312500000,6,0.0513916016,,,
55.5468750000,6,-0.0968933105,,,
55.5625000000,6,-0.4165039063,,,
55.5781250000,6,-0.7454528809,,,
55.5937500000,6,-0.8898010254,,,
55.6093750000,6,-0.7340087891,,,
55.6250000000,6,-0.3351440132,,,
55.6406250000,6,0.1279297024,,,
55.6562500000,6,0.4436340034,,,
55.6718750000,6,0.4940491021,,,
55.6875000000,6,0.3085327148,,,
55.7031250000,6,0.0257263202,,,
55.7187500000,6,-0.2022704929,,,
55.7343750000,6,-0.2985228896,,,
55.7500000000,6,-0.2799988091,,,
55.7656250000,6,-0.2089844048,,,
55.7812500000,6,-0.1075439006,,,
55.7968750000,6,0.0685119629,,,
55.8125000000,6,0.3880310059,,,
55.8281250000,6,0.8721007705,,,
55.8437500000,6,1.4334720373,,,
55.8593750000,6,1.9062500000,,,
55.8750000000,6,2.1221919060,,,
55.8906250000,6,2.0184628963,,,
55.9062500000,6,1.6643069983,,,
55.9218750000,6,1.2351069450,,,
55.9375000000,6,0.9095458984,,,
55.9531250000,6,0.7526550293,,,
55.9687500000,6,0.7145081162,,,
55.9843750000,6,0.6654357910,,,
56.0000000000,7,0.5128173828,,,
56.0156250000,7,0.2685852051,,,
56.0312500000,7,0.0397644006,,,
56.0468750000,7,-0.0281677209,,,
56.0625000000,7,0.1354064941,,,
56.0781250000,7,0.4992676079,,,
56.0937500000,7,0.9382324219,,,
56.1093750000,7,1.3177800179,,,
56.1250000000,7,1.5497130156,,,
56.1406250000,7,1.6048580408,,,
56.1562500000,7,1.5112299919,,,
56.1718750000,7,1.3194270134,,,
56.1875000000,7,1.0769350529,,,
