Time:64Hz,Epoch,Channel 1,Event Id,Event Date,Event Duration
0.0000000000,0,0.0934265926,,,
0.0156250000,0,0.5079333186,,,
0.0312500000,0,0.7217515111,,,
0.0468750000,0,0.6276729107,,,
0.0625000000,0,0.3455233872,,,
0.0781250000,0,0.0991140604,,,
0.0937500000,0,0.0771526098,,,
0.1093750000,0,0.3404633999,,,
0.1250000000,0,0.7016112208,,,
0.1406250000,0,0.8488680720,,,
0.1562500000,0,0.5454171896,,,
0.1718750000,0,-0.2001958042,,,
0.1875000000,0,-1.1375529766,,,
0.2031250000,0,-1.8861730099,,,
0.2187500000,0,-2.1444070339,,,
0.2343750000,0,-1.8290669918,,,
0.2500000000,0,-1.1020940542,,,
0.2656250000,0,-0.2604210079,,,
0.2812500000,0,0.4152343869,,,
0.2968750000,0,0.8344919086,,,
0.3125000000,0,1.0119409561,,,
0.3281250000,0,1.0503159761,,,
0.3437500000,0,0.9898025990,,,
0.3593750000,0,0.8462554812,,,
0.3750000000,0,0.5725929141,,,
0.3906250000,0,0.1942414939,,,
0.4062500000,0,-0.2251314074,,,
0.4218750000,0,-0.5565813184,,,
0.4375000000,0,-0.7058017850,,,
0.4531250000,0,-0.6571664810,,,
0.4687500000,0,-0.5026680231,,,
0.4843750000,0,-0.3455570042,,,
0.5000000000,0,-0.2768991888,,,
0.5156250000,0,-0.3346883953,,,
0.5312500000,0,-0.4771006107,,,
0.5468750000,0,-0.6598353982,,,
0.5625000000,0,-0.7918608189,,,
0.5781250000,0,-0.8158509731,,,
0.5937500000,0,-0.6643323898,,,
0.6093750000,0,-0.3359251916,,,
0.6250000000,0,0.0867121518,,,
0.6406250000,0,0.4423928857,,,
0.6562500000,0,0.5420107841,,,
0.6718750000,0,0.2878935039,,,
0.6875000000,0,-0.2993395030,,,
0.7031250000,0,-1.0620349646,,,
0.7187500000,0,-1.7752840519,,,
0.7343750000,0,-2.2678120136,,,
0.7500000000,0,-2.4592618942,,,
0.7656250000,0,-2.3513090611,,,
0.7812500000,0,-2.0031139851,,,
0.7968750000,0,-1.4398809671,,,
0.8125000000,0,-0.6715607047,,,
0.8281250000,0,0.2445120066,,,
0.8437500000,0,1.2004109621,,,
0.8593750000,0,2.0574400425,,,
0.8750000000,0,2.6559519768,,,
0.8906250000,0,2.9151310921,,,
0.9062500000,0,2.7998149395,,,
0.9218750000,0,2.3758170605,,,
0.9375000000,0,1.7505220175,,,
0.9531250000,0,1.0550709963,,,
0.9687500000,0,0.4014517069,,,
0.9843750000,0,-0.1089261025,,,
1.0000000000,0,-0.4612255991,,,
1.0156250000,0,-0.6942712069,,,
1.0312500000,0,-0.8748524785,,,
1.0468750000,0,-1.0792850256,,,
1.0625000000,0,-1.3285779953,,,
1.0781250000,0,-1.5617049932,,,
1.0937500000,0,-1.6598479748,,,
1.1093750000,0,-1.5373409986,,,
1.1250000000,0,-1.1526989937,,,
1.1406250000,0,-0.5618321896,,,
1.1562500000,0,0.0748706236,,,
1.1718750000,0,0.5929688811,,,
1.1875000000,0,0.8487387896,,,
1.2031250000,0,0.7835150957,,,
1.2187500000,0,0.4330564141,,,
1.2343750000,0,-0.0793839991,,,
1.2500000000,0,-0.5636230111,,,
1.2656250000,0,-0.8138638139,,,
1.2812500000,0,-0.6851775050,,,
1.2968750000,0,-0.1912706941,,,
1.3125000000,0,0.5766577721,,,
1.3281250000,0,1.4236940145,,,
1.3437500000,0,2.1667420864,,,
1.3593750000,0,2.6420340538,,,
1.3750000000,0,2.7768850327,,,
1.3906250000,0,2.5573220253,,,
1.4062500000,0,1.9949840307,,,
1.4218750000,0,1.1640640497,,,
1.4375000000,0,0.1422484964,,,
1.4531250000,0,-0.9377607703,,,
1.4687500000,0,-1.9456930161,,,
1.4843750000,0,-2.6951589584,,,
1.5000000000,0,-3.0617001057,,,
1.5156250000,0,-2.9776000977,,,
1.5312500000,0,-2.5268449783,,,
1.5468750000,0,-1.8975050449,,,
1.5625000000,0,-1.2781430483,,,
1.5781250000,0,-0.8199604154,,,
1.5937500000,0,-0.5270614028,,,
1.6093750000,0,-0.2923116088,,,
1.6250000000,0,0.0072778980,,,
1.6406250000,0,0.4233874977,,,
1.6562500000,0,0.8906394243,,,
1.6718750000,0,1.2366149426,,,
1.6875000000,0,1.2923330069,,,
1.7031250000,0,0.9981148839,,,
1.7187500000,0,0.4278672040,,,
1.7343750000,0,-0.2540926933,,,
1.7500000000,0,-0.8483707905,,,
1.7656250000,0,-1.1890540123,,,
1.7812500000,0,-1.2152349949,,,
1.7968750000,0,-0.9475488067,,,
1.8125000000,0,-0.4653700888,,,
1.8281250000,0,0.1145631969,,,
1.8437500000,0,0.6886733770,,,
1.8593750000,0,1.1685309410,,,
1.8750000000,0,1.5048899651,,,
1.8906250000,0,1.7012460232,,,
1.9062500000,0,1.7558859587,,,
1.9218750000,0,1.6859489679,,,
1.9375000000,0,1.5085279942,,,
1.9531250000,0,1.3040070534,,,
1.9687500000,0,1.1356899738,,,
1.9843750000,0,1.0533330441,,,
2.0000000000,0,1.0233689547,,,
2.0156250000,0,0.9398102164,,,
2.0312500000,0,0.6456683874,,,
2.0468750000,0,0.0399331190,,,
2.0625000000,0,-0.8249707818,,,
2.0781250000,0,-1.7318840027,,,
2.0937500000,0,-2.3881640434,,,
2.1093750000,0,-2.5485310555,,,
2.1250000000,0,-2.1386320591,,,
2.1406250000,0,-1.3047339916,,,
2.1562500000,0,-0.2549934089,,,
2.1718750000,0,0.7590256929,,,
2.1875000000,0,1.6040649414,,,
2.2031250000,0,2.1978681087,,,
2.2187500000,0,2.4890520573,,,
2.2343750000,0,2.3997080326,,,
2.2500000000,0,1.8889139891,,,
2.2656250000,0,1.0009570122,,,
2.2812500000,0,-0.0836969912,,,
2.2968750000,0,-1.0727449656,,,
2.3125000000,0,-1.7276639938,,,
2.3281250000,0,-1.9356280565,,,
2.3437500000,0,-1.8076269627,,,
2.3593750000,0,-1.5766899586,,,
2.3750000000,0,-1.4844590425,,,
2.3906250000,0,-1.6091099977,,,
2.4062500000,0,-1.8758080006,,,
2.4218750000,0,-2.1161389351,,,
2.4375000000,0,-2.1292200089,,,
2.4531250000,0,-1.8027119637,,,
2.4687500000,0,-1.1377249956,,,
2.4843750000,0,-0.2598024905,,,
2.5000000000,0,0.6151428819,,,
2.5156250000,0,1.2159559727,,,
2.5312500000,0,1.3160790205,,,
2.5468750000,0,0.8650975823,,,
2.5625000000,0,0.0050399010,,,
2.5781250000,0,-0.9343932271,,,
2.5937500000,0,-1.6229360104,,,
2.6093750000,0,-1.8668270111,,,
2.6250000000,0,-1.6515189409,,,
2.6406250000,0,-1.1218750477,,,
2.6562500000,0,-0.4393947124,,,
2.6718750000,0,0.2561166883,,,
2.6875000000,0,0.9586644769,,,
2.7031250000,0,1.6645179987,,,
2.7187500000,0,2.3561379910,,,
2.7343750000,0,2.9544379711,,,
2.7500000000,0,3.3148519993,,,
2.7656250000,0,3.3163230419,,,
2.7812500000,0,2.9082090855,,,
2.7968750000,0,2.1694979668,,,
2.8125000000,0,1.2680250406,,,
2.8281250000,0,0.4133146107,,,
2.8437500000,0,-0.2074856013,,,
2.8593750000,0,-0.5185813904,,,
2.8750000000,0,-0.5440220237,,,
2.8906250000,0,-0.4142158031,,,
2.9062500000,0,-0.2515803874,,,
2.9218750000,0,-0.1253903955,,,
2.9375000000,0,-0.0294150803,,,
2.9531250000,0,0.1112736017,,,
2.9687500000,0,0.2960967124,,,
2.9843750000,0,0.4562912881,,,
3.0000000000,0,0.4573625922,,,
3.0156250000,0,0.2504835129,,,
3.0312500000,0,-0.1399115026,,,
3.0468750000,0,-0.5690491199,,,
3.0625000000,0,-0.8543424010,,,
3.0781250000,0,-0.9101058841,,,
3.0937500000,0,-0.7762104869,,,
3.1093750000,0,-0.5847864151,,,
3.1250000000,0,-0.4614275098,,,
3.1406250000,0,-0.4758034945,,,
3.1562500000,0,-0.5536972284,,,
3.1718750000,0,-0.5906332731,,,
3.1875000000,0,-0.4782729149,,,
3.2031250000,0,-0.1804008037,,,
3.2187500000,0,0.2444497943,,,
3.2343750000,0,0.6881172061,,,
3.2500000000,0,1.0566190481,,,
3.2656250000,0,1.2774800062,,,
3.2812500000,0,1.3294980526,,,
3.2968750000,0,1.2208019495,,,
3.3125000000,0,0.9468796849,,,
3.3281250000,0,0.5149427056,,,
3.3437500000,0,-0.0666972697,,,
3.3593750000,0,-0.7610914707,,,
3.3750000000,0,-1.5025190115,,,
3.3906250000,0,-2.2032120228,,,
3.4062500000,0,-2.7601020336,,,
3.4218750000,0,-3.0615820885,,,
3.4375000000,0,-3.0381000042,,,
3.4531250000,0,-2.6477470398,,,
3.4687500000,0,-1.9509099722,,,
3.4843750000,0,-1.0554579496,,,
3.5000000000,0,-0.1508768946,,,
3.5156250000,0,0.6063302159,,,
3.5312500000,0,1.0565479994,,,
3.5468750000,0,1.0976769924,,,
3.5625000000,0,0.7301983237,,,
3.5781250000,0,0.0861168504,,,
3.5937500000,0,-0.6035616994,,,
3.6093750000,0,-1.1092979908,,,
3.6250000000,0,-1.2413339615,,,
3.6406250000,0,-0.9916306138,,,
3.6562500000,0,-0.5221980810,,,
3.6718750000,0,-0.1113698035,,,
3.6875000000,0,0.0270531792,,,
3.7031250000,0,-0.2178997993,,,
3.7187500000,0,-0.7069867253,,,
3.7343750000,0,-1.1358489990,,,
3.7500000000,0,-1.1897599697,,,
3.7656250000,0,-0.6911187172,,,
3.7812500000,0,0.3192493021,,,
3.7968750000,0,1.6093670130,,,
3.8125000000,0,2.8404819965,,,
3.8281250000,0,3.6984119415,,,
3.8437500000,0,4.0177350044,,,
3.8593750000,0,3.8359990120,,,
3.8750000000,0,3.3200891018,,,
3.8906250000,0,2.6925721169,,,
3.9062500000,0,2.0933489799,,,
3.9218750000,0,1.5654350519,,,
3.9375000000,0,1.0554870367,,,
3.9531250000,0,0.5546098948,,,
3.9687500000,0,0.1267765015,,,
3.9843750000,0,-0.1091817021,,,
4.0000000000,0,-0.0161036793,,,
4.0156250000,0,0.4148060977,,,
4.0312500000,0,1.0251209736,,,
4.0468750000,0,1.5509599447,,,
4.0625000000,0,1.7515089512,,,
4.0781250000,0,1.5269939899,,,
4.0937500000,0,0.9692748189,,,
4.1093750000,0,0.2776455879,,,
4.1250000000,0,-0.3849745095,,,
4.1406250000,0,-0.9617328048,,,
4.1562500000,0,-1.5323050022,,,
4.1718750000,0,-2.1982369423,,,
4.1875000000,0,-2.9828848839,,,
4.2031250000,0,-3.8214490414,,,
4.2187500000,0,-4.5639400482,,,
4.2343750000,0,-5.0439839363,,,
4.2500000000,0,-5.1166691780,,,
4.2656250000,0,-4.7302379608,,,
4.2812500000,0,-3.9651150703,,,
4.2968750000,0,-2.9658660889,,,
4.3125000000,0,-1.9084570408,,,
4.3281250000,0,-0.9727650285,,,
4.3437500000,0,-0.2542611957,,,
4.3593750000,0,0.1989150941,,,
4.3750000000,0,0.4168044031,,,
4.3906250000,0,0.4168612957,,,
4.4062500000,0,0.2570764124,,,
4.4218750000,0,-0.0037138460,,,
4.4375000000,0,-0.2603420913,,,
4.4531250000,0,-0.3832578957,,,
4.4687500000,0,-0.2403492928,,,
4.4843750000,0,0.2061921060,,,
4.5000000000,0,0.9053251743,,,
4.5156250000,0,1.7232689857,,,
4.5312500000,0,2.5169448853,,,
4.5468750000,0,3.1711759567,,,
4.5625000000,0,3.6486179829,,,
4.5781250000,0,3.9676759243,,,
4.5937500000,0,4.1653261185,,,
4.6093750000,0,4.2414669991,,,
4.6250000000,0,4.1526799202,,,
4.6406250000,0,3.8709030151,,,
4.6562500000,0,3.3043379784,,,
4.6718750000,0,2.3999350071,,,
4.6875000000,0,1.1598960161,,,
4.7031250000,0,-0.2970843017,,,
4.7187500000,0,-1.7219280005,,,
4.7343750000,0,-2.7939250469,,,
4.7500000000,0,-3.1954009533,,,
4.7656250000,0,-2.8609750271,,,
4.7812500000,0,-1.9104119539,,,
4.7968750000,0,-0.7182677984,,,
4.8125000000,0,0.3238654137,,,
4.8281250000,0,0.9148206115,,,
4.8437500000,0,1.0213420391,,,
4.8593750000,0,0.7965589166,,,
4.8750000000,0,0.4665158987,,,
4.8906250000,0,0.2302633971,,,
4.9062500000,0,0.0988784432,,,
4.9218750000,0,-0.0202710908,,,
4.9375000000,0,-0.2728660107,,,
4.9531250000,0,-0.6882740855,,,
4.9687500000,0,-1.1935869455,,,
4.9843750000,0,-1.5735050440,,,
5.0000000000,0,-1.6418269873,,,
5.0156250000,0,-1.3102840185,,,
5.0312500000,0,-0.6282495856,,,
5.0468750000,0,0.1730753928,,,
5.0625000000,0,0.8161010146,,,
5.0781250000,0,1.1111479998,,,
5.0937500000,0,1.0681979656,,,
5.1093750000,0,0.8147202134,,,
5.1250000000,0,0.5769658089,,,
5.1406250000,0,0.5199580789,,,
5.1562500000,0,0.6655911803,,,
5.1718750000,0,0.9266316891,,,
5.1875000000,0,1.1374560595,,,
5.2031250000,0,1.2007410526,,,
5.2187500000,0,1.0439909697,,,
5.2343750000,0,0.6514713764,,,
5.2500000000,0,0.0576334000,,,
5.2656250000,0,-0.6414347887,,,
5.2812500000,0,-1.2617659569,,,
5.2968750000,0,-1.5808089972,,,
5.3125000000,0,-1.3901710510,,,
5.3281250000,0,-0.6958320737,,,
5.3437500000,0,0.3121809065,,,
5.3593750000,0,1.2572569847,,,
5.3750000000,0,1.7429850101,,,
5.3906250000,0,1.5656729937,,,
5.4062500000,0,0.8160886168,,,
5.4218750000,0,-0.1679085046,,,
5.4375000000,0,-0.9482756257,,,
5.4531250000,0,-1.2674720287,,,
5.4687500000,0,-1.1275080442,,,
5.4843750000,0,-0.8005400896,,,
5.5000000000,0,-0.6223812103,,,
5.5156250000,0,-0.8156980276,,,
5.5312500000,0,-1.3338689804,,,
5.5468750000,0,-1.8991290331,,,
5.5625000000,0,-2.1601939201,,,
5.5781250000,0,-1.8473880291,,,
5.5937500000,0,-0.8996508718,,,
5.6093750000,0,0.4480274022,,,
5.6250000000,0,1.7942370176,,,
5.6406250000,0,2.7534360886,,,
5.6562500000,0,3.0480239391,,,
5.6718750000,0,2.6734099388,,,
5.6875000000,0,1.7759180069,,,
5.7031250000,0,0.6457864046,,,
5.7187500000,0,-0.4596000016,,,
5.7343750000,0,-1.3763780594,,,
5.7500000000,0,-2.0334920883,,,
5.7656250000,0,-2.4221560955,,,
5.7812500000,0,-2.5658740997,,,
5.7968750000,0,-2.5378739834,,,
5.8125000000,0,-2.4055159092,,,
5.8281250000,0,-2.2480270863,,,
5.8437500000,0,-2.1134591103,,,
5.8593750000,0,-1.9950510263,,,
5.8750000000,0,-1.8192019463,,,
5.8906250000,0,-1.5098769665,,,
5.9062500000,0,-1.0166319609,,,
5.9218750000,0,-0.3823055029,,,
5.9375000000,0,0.2704755962,,,
5.9531250000,0,0.7486969829,,,
5.9687500000,0,0.9070566893,,,
5.9843750000,0,0.7300245166,,,
6.0000000000,0,0.3480319977,,,
6.0156250000,0,0.0075700879,,,
6.0312500000,0,-0.1093195975,,,
6.0468750000,0,0.1129740998,,,
6.0625000000,0,0.5953174233,,,
6.0781250000,0,1.1859329939,,,
6.0937500000,0,1.7070660591,,,
6.1093750000,0,2.0854849815,,,
6.1250000000,0,2.2915310860,,,
6.1406250000,0,2.3461189270,,,
6.1562500000,0,2.2375860214,,,
6.1718750000,0,1.9119280577,,,
6.1875000000,0,1.3525929451,,,
6.2031250000,0,0.6329100132,,,
6.2187500000,0,-0.0990591794,,,
6.2343750000,0,-0.6269416809,,,
6.2500000000,0,-0.8053423166,,,
6.2656250000,0,-0.6285337806,,,
6.2812500000,0,-0.2259650975,,,
6.2968750000,0,0.2003404051,,,
6.3125000000,0,0.4959704876,,,
6.3281250000,0,0.5891491175,,,
6.3437500000,0,0.5028359890,,,
6.3593750000,0,0.2596654892,,,
6.3750000000,0,-0.0745194629,,,
6.3906250000,0,-0.4158591926,,,
6.4062500000,0,-0.6562948823,,,
6.4218750000,0,-0.6711151004,,,
6.4375000000,0,-0.3815670013,,,
6.4531250000,0,0.1468890011,,,
6.4687500000,0,0.7200816870,,,
6.4843750000,0,1.0963729620,,,
6.5000000000,0,1.0749499798,,,
6.5156250000,0,0.6432570815,,,
6.5312500000,0,-0.0658333302,,,
6.5468750000,0,-0.8030477166,,,
6.5625000000,0,-1.2697579861,,,
6.5781250000,0,-1.2684520483,,,
6.5937500000,0,-0.7236626148,,,
6.6093750000,0,0.2528688014,,,
6.6250000000,0,1.3959439993,,,
6.6406250000,0,2.3779330254,,,
6.6562500000,0,2.8683919907,,,
6.6718750000,0,2.7044150829,,,
6.6875000000,0,1.9330199957,,,
6.7031250000,0,0.7791289091,,,
6.7187500000,0,-0.4379382133,,,
6.7343750000,0,-1.4425450563,,,
6.7500000000,0,-2.0928630829,,,
6.7656250000,0,-2.4014899731,,,
6.7812500000,0,-2.4725730419,,,
6.7968750000,0,-2.4015290737,,,
6.8125000000,0,-2.2060260773,,,
6.8281250000,0,-1.8166509867,,,
6.8437500000,0,-1.1693799496,,,
6.8593750000,0,-0.3233461976,,,
6.8750000000,0,0.5578227043,,,
6.8906250000,0,1.2378100157,,,
6.9062500000,0,1.5180070400,,,
6.9218750000,0,1.3241820335,,,
6.9375000000,0,0.7865757942,,,
6.9531250000,0,0.1266815960,,,
6.9687500000,0,-0.4359388053,,,
6.9843750000,0,-0.8089743257,,,
7.0000000000,0,-0.9956933856,,,
7.0156250000,0,-1.1101360321,,,
7.0312500000,0,-1.2387139797,,,
7.0468750000,0,-1.4118670225,,,
7.0625000000,0,-1.6008930206,,,
7.0781250000,0,-1.7580000162,,,
7.0937500000,0,-1.8695650101,,,
7.1093750000,0,-1.9029120207,,,
7.1250000000,0,-1.8009020090,,,
7.1406250000,0,-1.4515810013,,,
7.1562500000,0,-0.7653431892,,,
7.1718750000,0,0.2279527038,,,
7.1875000000,0,1.3214340210,,,
7.2031250000,0,2.2379848957,,,
7.2187500000,0,2.7239210606,,,
7.2343750000,0,2.7090959549,,,
7.2500000000,0,2.3124730587,,,
7.2656250000,0,1.7497869730,,,
7.2812500000,0,1.1653720140,,,
7.2968750000,0,0.5745589733,,,
7.3125000000,0,-0.0715025663,,,
7.3281250000,0,-0.7691497803,,,
7.3437500000,0,-1.3582680225,,,
7.3593750000,0,-1.5841970444,,,
7.3750000000,0,-1.2135469913,,,
7.3906250000,0,-0.2952043116,,,
7.4062500000,0,0.8740100265,,,
7.4218750000,0,1.8076879978,,,
7.4375000000,0,2.1953649521,,,
7.4531250000,0,1.9747220278,,,
7.4687500000,0,1.4208370447,,,
7.4843750000,0,0.8998057842,,,
7.5000000000,0,0.6747369766,,,
7.5156250000,0,0.7539603114,,,
7.5312500000,0,0.9444143176,,,
7.5468750000,0,1.0362800360,,,
7.5625000000,0,0.9244477153,,,
7.5781250000,0,0.7294549942,,,
7.5937500000,0,0.6114199758,,,
7.6093750000,0,0.7077090740,,,
7.6250000000,0,0.9881166816,,,
7.6406250000,0,1.3304519653,,,
7.6562500000,0,1.5697820187,,,
7.6718750000,0,1.6551090479,,,
7.6875000000,0,1.5918949842,,,
7.7031250000,0,1.4327260256,,,
7.7187500000,0,1.2187800407,,,
7.7343750000,0,0.9263532758,,,
7.7500000000,0,0.5396515131,,,
7.7656250000,0,0.0835962296,,,
7.7812500000,0,-0.3891940117,,,
7.7968750000,0,-0.8124654889,,,
7.8125000000,0,-1.1431920528,,,
7.8281250000,0,-1.3701000214,,,
7.8437500000,0,-1.5252799988,,,
7.8593750000,0,-1.5976500511,,,
7.8750000000,0,-1.5692650080,,,
7.8906250000,0,-1.4226349592,,,
7.9062500000,0,-1.1601480246,,,
7.9218750000,0,-0.8551182747,,,
7.9375000000,0,-0.5578386784,,,
7.9531250000,0,-0.3567698896,,,
7.9687500000,0,-0.2879670858,,,
7.9843750000,0,-0.3576819003,,,
8.0000000000,1,-0.5364922285,,,
8.0156250000,1,-0.7739645243,,,
8.0312500000,1,-1.0484759808,,,
8.0468750000,1,-1.3492660522,,,
8.0625000000,1,-1.6855520010,,,
8.0781250000,1,-2.0831780434,,,
8.0937500000,1,-2.4960811138,,,
8.1093750000,1,-2.8063449860,,,
8.1250000000,1,-2.8688449860,,,
8.1406250000,1,-2.5259959698,,,
8.1562500000,1,-1.7523620129,,,
8.1718750000,1,-0.6927289963,,,
8.1875000000,1,0.3661758900,,,
8.2031250000,1,1.1845029593,,,
8.2187500000,1,1.6093850136,,,
8.2343750000,1,1.6617490053,,,
8.2500000000,1,1.5034259558,,,
8.2656250000,1,1.3138370514,,,
8.2812500000,1,1.1882669926,,,
8.2968750000,1,1.1155070066,,,
8.3125000000,1,1.0217460394,,,
8.3281250000,1,0.8245639801,,,
8.3437500000,1,0.4925144017,,,
8.3593750000,1,0.1199650988,,,
8.3750000000,1,-0.1444032043,,,
8.3906250000,1,-0.1821018010,,,
8.4062500000,1,0.1008910015,,,
8.4218750000,1,0.6503434181,,,
8.4375000000,1,1.3446079493,,,
8.4531250000,1,1.9832229614,,,
8.4687500000,1,2.4205470085,,,
8.4843750000,1,2.5724050999,,,
8.5000000000,1,2.4830830097,,,
8.5156250000,1,2.2684431076,,,
8.5312500000,1,2.0089330673,,,
8.5468750000,1,1.7399649620,,,
8.5625000000,1,1.4219499826,,,
8.5781250000,1,1.0053700209,,,
8.5937500000,1,0.4929193854,,,
8.6093750000,1,-0.0943117067,,,
8.6250000000,1,-0.7283418179,,,
8.6406250000,1,-1.4164320230,,,
8.6562500000,1,-2.1801869869,,,
8.6718750000,1,-3.0004029274,,,
8.6875000000,1,-3.7714920044,,,
8.7031250000,1,-4.3344488144,,,
8.7187500000,1,-4.5104842186,,,
8.7343750000,1,-4.2493858337,,,
8.7500000000,1,-3.6919898987,,,
8.7656250000,1,-3.1031420231,,,
8.7812500000,1,-2.7442240715,,,
8.7968750000,1,-2.7364330292,,,
8.8125000000,1,-3.0081329346,,,
8.8281250000,1,-3.3003580570,,,
8.8437500000,1,-3.4066359997,,,
8.8593750000,1,-3.2042229176,,,
8.8750000000,1,-2.7529149055,,,
8.8906250000,1,-2.2129800320,,,
8.9062500000,1,-1.6934829950,,,
8.9218750000,1,-1.2418719530,,,
8.9375000000,1,-0.7943723202,,,
8.9531250000,1,-0.3039763868,,,
8.9687500000,1,0.2671948969,,,
8.9843750000,1,0.8374490738,,,
9.0000000000,1,1.3229030371,,,
9.0156250000,1,1.7037750483,,,
9.0312500000,1,2.0152490139,,,
9.0468750000,1,2.3319630623,,,
9.0625000000,1,2.6913299561,,,
9.0781250000,1,3.0273180008,,,
9.0937500000,1,3.2122759819,,,
9.1093750000,1,3.1192760468,,,
9.1250000000,1,2.7203879356,,,
9.1406250000,1,2.1177539825,,,
9.1562500000,1,1.5111750364,,,
9.1718750000,1,1.0717029572,,,
9.1875000000,1,0.8508852720,,,
9.2031250000,1,0.8182932138,,,
9.2187500000,1,0.9134218097,,,
9.2343750000,1,1.1222649813,,,
9.2500000000,1,1.4776610136,,,
9.2656250000,1,1.9888919592,,,
9.2812500000,1,2.5616800785,,,
9.2968750000,1,3.0112578869,,,
9.3125000000,1,3.1270859241,,,
9.3281250000,1,2.8283410072,,,
9.3437500000,1,2.2011411190,,,
9.3593750000,1,1.4665050507,,,
9.3750000000,1,0.8573746085,,,
9.3906250000,1,0.4671719968,,,
9.4062500000,1,0.2198376954,,,
9.4218750000,1,-0.0254350398,,,
9.4375000000,1,-0.3334822953,,,
9.4531250000,1,-0.6630743146,,,
9.4687500000,1,-0.8557962179,,,
9.4843750000,1,-0.8163633943,,,
9.5000000000,1,-0.5683342814,,,
9.5156250000,1,-0.2642410994,,,
9.5312500000,1,-0.0693217665,,,
9.5468750000,1,-0.0592373796,,,
9.5625000000,1,-0.2027236074,,,
9.5781250000,1,-0.4075163007,,,
9.5937500000,1,-0.5384846926,,,
9.6093750000,1,-0.5690773726,,,
9.6250000000,1,-0.5194619298,,,
9.6406250000,1,-0.4341231883,,,
9.6562500000,1,-0.3517355919,,,
9.6718750000,1,-0.2520987093,,,
9.6875000000,1,-0.1258112937,,,
9.7031250000,1,0.0394353904,,,
9.7187500000,1,0.2118929029,,,
9.7343750000,1,0.3087958992,,,
9.7500000000,1,0.2503766119,,,
9.7656250000,1,0.0019764900,,,
9.7812500000,1,-0.4022817016,,,
9.7968750000,1,-0.8848555088,,,
9.8125000000,1,-1.3510860205,,,
9.8281250000,1,-1.7332559824,,,
9.8437500000,1,-2.0195670128,,,
9.8593750000,1,-2.2226619720,,,
9.8750000000,1,-2.3723111153,,,
9.8906250000,1,-2.4607260227,,,
9.9062500000,1,-2.4851551056,,,
9.9218750000,1,-2.4186921120,,,
9.9375000000,1,-2.2753520012,,,
9.9531250000,1,-2.0825350285,,,
9.9687500000,1,-1.8640149832,,,
9.9843750000,1,-1.6166989803,,,
10.0000000000,1,-1.3025330305,,,
10.0156250000,1,-0.9005231857,,,
10.0312500000,1,-0.4093033969,,,
10.0468750000,1,0.1148381010,,,
10.0625000000,1,0.6133427024,,,
10.0781250000,1,1.0092680454,,,
10.0937500000,1,1.3156089783,,,
10.1093750000,1,1.5018340349,,,
10.1250000000,1,1.6141049862,,,
10.1406250000,1,1.6715949774,,,
10.1562500000,1,1.7012870312,,,
10.1718750000,1,1.7112749815,,,
10.1875000000,1,1.7259089947,,,
10.2031250000,1,1.7685149908,,,
10.2187500000,1,1.8572490215,,,
10.2343750000,1,2.0481309891,,,
10.2500000000,1,2.3943750858,,,
10.2656250000,1,2.9088029861,,,
10.2812500000,1,3.4846138954,,,
10.2968750000,1,3.8917310238,,,
10.3125000000,1,3.8682510853,,,
10.3281250000,1,3.2684040070,,,
10.3437500000,1,2.1882669926,,,
10.3593750000,1,0.9623507857,,,
10.3750000000,1,-0.0303684603,,,
10.3906250000,1,-0.5534881949,,,
10.4062500000,1,-0.6537663937,,,
10.4218750000,1,-0.6565774083,,,
10.4375000000,1,-0.8890876174,,,
10.4531250000,1,-1.5109260082,,,
10.4687500000,1,-2.4242839813,,,
10.4843750000,1,-3.3386609554,,,
10.5000000000,1,-4.0155940056,,,
10.5156250000,1,-4.4189929962,,,
10.5312500000,1,-4.6266551018,,,
10.5468750000,1,-4.7789149284,,,
10.5625000000,1,-4.8781027794,,,
10.5781250000,1,-4.7474417686,,,
10.5937500000,1,-4.1591777802,,,
10.6093750000,1,-3.0381240845,,,
10.6250000000,1,-1.5194849968,,,
10.6406250000,1,0.0470465310,,,
10.6562500000,1,1.2772279978,,,
10.6718750000,1,1.8897000551,,,
10.6875000000,1,1.8657670021,,,
10.7031250000,1,1.4050860405,,,
10.7187500000,1,0.8731759787,,,
10.7343750000,1,0.5867313743,,,
10.7500000000,1,0.7510846257,,,
10.7656250000,1,1.4232909679,,,
10.7812500000,1,2.4386589527,,,
10.7968750000,1,3.5799679756,,,
10.8125000000,1,4.5935850143,,,
10.8281250000,1,5.2858490944,,,
10.8437500000,1,5.5657300949,,,
10.8593750000,1,5.4325928688,,,
10.8750000000,1,4.8639831543,,,
10.8906250000,1,3.8815081120,,,
10.9062500000,1,2.5260519981,,,
10.9218750000,1,0.9270622134,,,
10.9375000000,1,-0.7079774141,,,
10.9531250000,1,-2.0528171062,,,
10.9687500000,1,-2.8258800507,,,
10.9843750000,1,-2.8811120987,,,
11.0000000000,1,-2.2704000473,,,
11.0156250000,1,-1.2674349546,,,
11.0312500000,1,-0.2106910050,,,
11.0468750000,1,0.5773025155,,,
11.0625000000,1,0.8934087157,,,
11.0781250000,1,0.6946793199,,,
11.0937500000,1,0.0887798667,,,
11.1093750000,1,-0.7616977096,,,
11.1250000000,1,-1.6347229481,,,
11.1406250000,1,-2.3446700573,,,
11.1562500000,1,-2.7604889870,,,
11.1718750000,1,-2.8344249725,,,
11.1875000000,1,-2.5979199409,,,
11.2031250000,1,-2.1893270016,,,
11.2187500000,1,-1.7599940300,,,
11.2343750000,1,-1.4417029619,,,
11.2500000000,1,-1.2751359940,,,
11.2656250000,1,-1.1950889826,,,
11.2812500000,1,-1.0857969522,,,
11.2968750000,1,-0.8953149915,,,
11.3125000000,1,-0.6592928171,,,
11.3281250000,1,-0.4604384005,,,
11.3437500000,1,-0.3619750142,,,
11.3593750000,1,-0.3337155879,,,
11.3750000000,1,-0.2459743023,,,
11.3906250000,1,0.0017570700,,,
11.4062500000,1,0.3841550052,,,
11.4218750000,1,0.7758389711,,,
11.4375000000,1,0.9187325239,,,
11.4531250000,1,0.6765552163,,,
11.4687500000,1,0.1314385980,,,
11.4843750000,1,-0.3971092999,,,
11.5000000000,1,-0.5527809858,,,
11.5156250000,1,-0.1080337018,,,
11.5312500000,1,0.8553388119,,,
11.5468750000,1,1.9603990316,,,
11.5625000000,1,2.7696640491,,,
11.5781250000,1,2.9870529175,,,
11.5937500000,1,2.5962939262,,,
11.6093750000,1,1.8302960396,,,
11.6250000000,1,0.9962993860,,,
11.6406250000,1,0.2688064873,,,
11.6562500000,1,-0.3399459124,,,
11.6718750000,1,-0.9531465769,,,
11.6875000000,1,-1.6465779543,,,
11.7031250000,1,-2.3800690174,,,
11.7187500000,1,-2.9973680973,,,
11.7343750000,1,-3.3230600357,,,
11.7500000000,1,-3.2207129002,,,
11.7656250000,1,-2.7060780525,,,
11.7812500000,1,-1.8724999428,,,
11.7968750000,1,-0.8389356136,,,
11.8125000000,1,0.2824647129,,,
11.8281250000,1,1.3792690039,,,
11.8437500000,1,2.3279969692,,,
11.8593750000,1,2.9586520195,,,
11.8750000000,1,3.1313829422,,,
11.8906250000,1,2.8240659237,,,
11.9062500000,1,2.1457569599,,,
11.9218750000,1,1.3243850470,,,
11.9375000000,1,0.5854817033,,,
11.9531250000,1,0.0557731390,,,
11.9687500000,1,-0.2503829896,,,
11.9843750000,1,-0.3298059106,,,
12.0000000000,1,-0.2199089974,,,
12.0156250000,1,0.0756891370,,,
12.0312500000,1,0.5075207949,,,
12.0468750000,1,0.9254429936,,,
12.0625000000,1,1.1424560547,,,
12.0781250000,1,0.9647942185,,,
12.0937500000,1,0.3502349854,,,
12.1093750000,1,-0.5773103237,,,
12.1250000000,1,-1.5687190294,,,
12.1406250000,1,-2.3381299973,,,
12.1562500000,1,-2.6589629650,,,
12.1718750000,1,-2.4705450535,,,
12.1875000000,1,-1.8419890404,,,
12.2031250000,1,-0.9048675895,,,
12.2187500000,1,0.2017001957,,,
12.2343750000,1,1.3253949881,,,
12.2500000000,1,2.3084650040,,,
12.2656250000,1,2.9903030396,,,
12.2812500000,1,3.1853470802,,,
12.2968750000,1,2.8192310333,,,
12.3125000000,1,1.9222700596,,,
12.3281250000,1,0.7145339847,,,
12.3437500000,1,-0.4772497118,,,
12.3593750000,1,-1.2630939484,,,
12.3750000000,1,-1.3858619928,,,
12.3906250000,1,-0.7846164703,,,
12.4062500000,1,0.3619576991,,,
12.4218750000,1,1.7039799690,,,
12.4375000000,1,2.8137218952,,,
12.4531250000,1,3.3829081059,,,
12.4687500000,1,3.2698779106,,,
12.4843750000,1,2.5506489277,,,
12.5000000000,1,1.4290540218,,,
12.5156250000,1,0.1414476037,,,
12.5312500000,1,-1.0859220028,,,
12.5468750000,1,-2.1311039925,,,
12.5625000000,1,-2.9132699966,,,
12.5781250000,1,-3.4123420715,,,
12.5937500000,1,-3.6319639683,,,
12.6093750000,1,-3.5745379925,,,
12.6250000000,1,-3.2311220169,,,
12.6406250000,1,-2.6336870193,,,
12.6562500000,1,-1.8761329651,,,
12.6718750000,1,-1.0992699862,,,
12.6875000000,1,-0.4782662094,,,
12.7031250000,1,-0.1270229071,,,
12.7187500000,1,-0.0093788337,,,
12.7343750000,1,-0.0036777700,,,
12.7500000000,1,-0.0121255498,,,
12.7656250000,1,0.0264774300,,,
12.7812500000,1,0.0775082111,,,
12.7968750000,1,0.1185372025,,,
12.8125000000,1,0.1674007028,,,
12.8281250000,1,0.3377222121,,,
12.8437500000,1,0.7241159081,,,
12.8593750000,1,1.3589799404,,,
12.8750000000,1,2.0875589848,,,
12.8906250000,1,2.6597940922,,,
12.9062500000,1,2.8239839077,,,
12.9218750000,1,2.5056190491,,,
12.9375000000,1,1.7914040089,,,
12.9531250000,1,0.8858063221,,,
12.9687500000,1,-0.0512428395,,,
12.9843750000,1,-0.9188585281,,,
13.0000000000,1,-1.6997989416,,,
13.0156250000,1,-2.3783860207,,,
13.0312500000,1,-2.8495929241,,,
13.0468750000,1,-3.0171210766,,,
13.0625000000,1,-2.8126549721,,,
13.0781250000,1,-2.3406550884,,,
13.0937500000,1,-1.7933470011,,,
13.1093750000,1,-1.3861860037,,,
13.1250000000,1,-1.2278480530,,,
13.1406250000,1,-1.2355539799,,,
13.1562500000,1,-1.2481529713,,,
13.1718750000,1,-1.0647890568,,,
13.1875000000,1,-0.6504693031,,,
13.2031250000,1,-0.0967695117,,,
13.2187500000,1,0.3956921101,,,
13.2343750000,1,0.6684548855,,,
13.2500000000,1,0.6795967817,,,
13.2656250000,1,0.5236898065,,,
13.2812500000,1,0.3439565003,,,
13.2968750000,1,0.2190642953,,,
13.3125000000,1,0.1394294947,,,
13.3281250000,1,0.0030839441,,,
13.3437500000,1,-0.2563394010,,,
13.3593750000,1,-0.5515493155,,,
13.3750000000,1,-0.6905884147,,,
13.3906250000,1,-0.4435498118,,,
13.4062500000,1,0.2291392982,,,
13.4218750000,1,1.1725089550,,,
13.4375000000,1,2.0214560032,,,
13.4531250000,1,2.4335789680,,,
13.4687500000,1,2.2500109673,,,
13.4843750000,1,1.5815589428,,,
13.5000000000,1,0.7181839943,,,
13.5156250000,1,0.0051925178,,,
13.5312500000,1,-0.3809520006,,,
13.5468750000,1,-0.4530879855,,,
13.5625000000,1,-0.3590519130,,,
13.5781250000,1,-0.2336059064,,,
13.5937500000,1,-0.1056590006,,,
13.6093750000,1,0.1096478999,,,
13.6250000000,1,0.5035862923,,,
13.6406250000,1,1.0682990551,,,
13.6562500000,1,1.6816300154,,,
13.6718750000,1,2.1593399048,,,
13.6875000000,1,2.3603188992,,,
13.7031250000,1,2.2886838913,,,
13.7187500000,1,2.0744140148,,,
13.7343750000,1,1.8847949505,,,
13.7500000000,1,1.8142930269,,,
13.7656250000,1,1.7739449739,,,
13.7812500000,1,1.5949180126,,,
13.7968750000,1,1.0956250429,,,
13.8125000000,1,0.2588005066,,,
13.8281250000,1,-0.7169296741,,,
13.8437500000,1,-1.4977439642,,,
13.8593750000,1,-1.8086349964,,,
13.8750000000,1,-1.6303730011,,,
13.8906250000,1,-1.1389230490,,,
13.9062500000,1,-0.6954185963,,,
13.9218750000,1,-0.4756956995,,,
13.9375000000,1,-0.4601038098,,,
13.9531250000,1,-0.4359262884,,,
13.9687500000,1,-0.1959898025,,,
13.9843750000,1,0.2866657078,,,
14.0000000000,1,0.8074216247,,,
14.0156250000,1,1.0638339520,,,
14.0312500000,1,0.8659086227,,,
14.0468750000,1,0.2874895036,,,
14.0625000000,1,-0.3791871071,,,
14.0781250000,1,-0.7726215124,,,
14.0937500000,1,-0.6907147765,,,
14.1093750000,1,-0.2043129057,,,
14.1250000000,1,0.4138565063,,,
14.1406250000,1,0.8287435174,,,
14.1562500000,1,0.8520094752,,,
14.1718750000,1,0.5067231059,,,
14.1875000000,1,-0.0212688409,,,
14.2031250000,1,-0.4640310109,,,
14.2187500000,1,-0.6279479861,,,
14.2343750000,1,-0.4722996056,,,
14.2500000000,1,-0.0875969529,,,
14.2656250000,1,0.3272567093,,,
14.2812500000,1,0.6157761216,,,
14.2968750000,1,0.7045677900,,,
14.3125000000,1,0.5873270035,,,
14.3281250000,1,0.3868097961,,,
14.3437500000,1,0.2116905004,,,
14.3593750000,1,0.1800851971,,,
14.3750000000,1,0.3041855991,,,
14.3906250000,1,0.5817660093,,,
14.4062500000,1,0.9283307791,,,
14.4218750000,1,1.1939150095,,,
14.4375000000,1,1.1343109608,,,
14.4531250000,1,0.5515248775,,,
14.4687500000,1,-0.5697047114,,,
14.4843750000,1,-2.0072801113,,,
14.5000000000,1,-3.3327519894,,,
14.5156250000,1,-4.1001639366,,,
14.5312500000,1,-4.0979490280,,,
14.5468750000,1,-3.4470119476,,,
14.5625000000,1,-2.5455579758,,,
14.5781250000,1,-1.8784539700,,,
14.5937500000,1,-1.7245600224,,,
14.6093750000,1,-2.0474870205,,,
14.6250000000,1,-2.5703461170,,,
14.6406250000,1,-2.9350399971,,,
14.6562500000,1,-2.8779039383,,,
14.6718750000,1,-2.3344540596,,,
14.6875000000,1,-1.3838920593,,,
14.7031250000,1,-0.1739432067,,,
14.7187500000,1,1.1395449638,,,
14.7343750000,1,2.3740448952,,,
14.7500000000,1,3.3837339878,,,
14.7656250000,1,3.9851078987,,,
14.7812500000,1,4.0373740196,,,
14.7968750000,1,3.5359599590,,,
14.8125000000,1,2.5856499672,,,
14.8281250000,1,1.4554289579,,,
14.8437500000,1,0.4190813899,,,
14.8593750000,1,-0.2268330008,,,
14.8750000000,1,-0.3802111149,,,
14.8906250000,1,-0.0385901891,,,
14.9062500000,1,0.6301645041,,,
14.9218750000,1,1.3930499554,,,
14.9375000000,1,2.0205559731,,,
14.9531250000,1,2.3567779064,,,
14.9687500000,1,2.3255600929,,,
14.9843750000,1,1.9418690205,,,
15.0000000000,1,1.2204860449,,,
15.0156250000,1,0.2080000937,,,
15.0312500000,1,-1.0330450535,,,
15.0468750000,1,-2.3870980740,,,
15.0625000000,1,-3.6280589104,,,
15.0781250000,1,-4.5247030258,,,
15.0937500000,1,-4.8974699974,,,
15.1093750000,1,-4.7004208565,,,
15.1250000000,1,-4.0437879562,,,
15.1406250000,1,-3.1199769974,,,
15.1562500000,1,-2.1030929089,,,
15.1718750000,1,-1.0720130205,,,
15.1875000000,1,-0.0692383125,,,
15.2031250000,1,0.8090850711,,,
15.2187500000,1,1.4421700239,,,
15.2343750000,1,1.6803519726,,,
15.2500000000,1,1.4862190485,,,
15.2656250000,1,0.9852169156,,,
15.2812500000,1,0.4505470097,,,
15.2968750000,1,0.1181939989,,,
15.3125000000,1,0.0951051712,,,
15.3281250000,1,0.2662406862,,,
15.3437500000,1,0.4112406969,,,
15.3593750000,1,0.3857888877,,,
15.3750000000,1,0.1806841940,,,
15.3906250000,1,-0.0239059906,,,
15.4062500000,1,-0.0234144907,,,
15.4218750000,1,0.2699413896,,,
15.4375000000,1,0.7615935206,,,
15.4531250000,1,1.2873950005,,,
15.4687500000,1,1.6912410259,,,
15.4843750000,1,1.9363809824,,,
15.5000000000,1,2.0757749081,,,
15.5156250000,1,2.1929709911,,,
15.5312500000,1,2.2907590866,,,
15.5468750000,1,2.2407250404,,,
15.5625000000,1,1.8690840006,,,
15.5781250000,1,1.0053750277,,,
15.5937500000,1,-0.2816495001,,,
15.6093750000,1,-1.7430130243,,,
15.6250000000,1,-2.9370369911,,,
15.6406250000,1,-3.5033299923,,,
15.6562500000,1,-3.2891359329,,,
15.6718750000,1,-2.4631180763,,,
15.6875000000,1,-1.3975900412,,,
15.7031250000,1,-0.4802651107,,,
15.7187500000,1,0.1240886003,,,
15.7343750000,1,0.4625509977,,,
15.7500000000,1,0.7041496038,,,
15.7656250000,1,0.9110612273,,,
15.7812500000,1,1.0536049604,,,
15.7968750000,1,0.9915947914,,,
15.8125000000,1,0.7151582837,,,
15.8281250000,1,0.3542582095,,,
15.8437500000,1,0.1814958006,,,
15.8593750000,1,0.3842585087,,,
15.8750000000,1,0.9382205009,,,
15.8906250000,1,1.5753999949,,,
15.9062500000,1,1.9652539492,,,
15.9218750000,1,1.9261380434,,,
15.9375000000,1,1.4819879532,,,
15.9531250000,1,0.8786777258,,,
15.9687500000,1,0.3520834148,,,
15.9843750000,1,0.0701263025,,,
16.0000000000,2,0.0211881399,,,
16.0156250000,2,0.1185994968,,,
16.0312500000,2,0.2296991050,,,
16.0468750000,2,0.3183402121,,,
16.0625000000,2,0.3927066028,,,
16.0781250000,2,0.4880425930,,,
16.0937500000,2,0.6247724891,,,
16.1093750000,2,0.7408022881,,,
16.1250000000,2,0.7660655975,,,
16.1406250000,2,0.5864877105,,,
16.1562500000,2,0.1965527982,,,
16.1718750000,2,-0.3619404137,,,
16.1875000000,2,-0.9111555219,,,
16.2031250000,2,-1.2635999918,,,
16.2187500000,2,-1.2264360189,,,
16.2343750000,2,-0.7369089127,,,
16.2500000000,2,0.1454641074,,,
16.2656250000,2,1.2133519650,,,
16.2812500000,2,2.1888380051,,,
16.2968750000,2,2.8708500862,,,
16.3125000000,2,3.0760641098,,,
16.3281250000,2,2.7516639233,,,
16.3437500000,2,1.9382029772,,,
16.3593750000,2,0.8088839054,,,
16.3750000000,2,-0.3549427986,,,
16.3906250000,2,-1.2769169807,,,
16.4062500000,2,-1.7304799557,,,
16.4218750000,2,-1.6636869907,,,
16.4375000000,2,-1.1975929737,,,
16.4531250000,2,-0.5812410116,,,
16.4687500000,2,-0.0299614705,,,
16.4843750000,2,0.3416849077,,,
16.5000000000,2,0.5380383730,,,
16.5156250000,2,0.6764491200,,,
16.5312500000,2,0.8076843023,,,
16.5468750000,2,0.9705547094,,,
16.5625000000,2,1.0766819715,,,
16.5781250000,2,1.0623910427,,,
16.5937500000,2,0.8970401287,,,
16.6093750000,2,0.6409285069,,,
16.6250000000,2,0.3842484951,,,
16.6406250000,2,0.1743821949,,,
16.6562500000,2,0.0074573760,,,
16.6718750000,2,-0.2101204991,,,
16.6875000000,2,-0.5722830892,,,
16.7031250000,2,-1.1471500397,,,
16.7187500000,2,-1.9223129749,,,
16.7343750000,2,-2.8556149006,,,
16.7500000000,2,-3.7729129791,,,
16.7656250000,2,-4.5144648552,,,
16.7812500000,2,-4.9102368355,,,
16.7968750000,2,-4.8633580208,,,
16.8125000000,2,-4.3627128601,,,
16.8281250000,2,-3.4338030815,,,
16.8437500000,2,-2.2104051113,,,
16.8593750000,2,-0.8181942105,,,
16.8750000000,2,0.5439366102,,,
16.8906250000,2,1.6861040592,,,
16.9062500000,2,2.3509330750,,,
16.9218750000,2,2.4208810329,,,
16.9375000000,2,1.8832869530,,,
16.9531250000,2,0.9155209064,,,
16.9687500000,2,-0.1366524994,,,
16.9843750000,2,-0.9144238830,,,
17.0000000000,2,-1.1645840406,,,
17.0156250000,2,-0.8798474073,,,
17.0312500000,2,-0.2307782024,,,
17.0468750000,2,0.5425087810,,,
17.0625000000,2,1.2342519760,,,
17.0781250000,2,1.7725169659,,,
17.0937500000,2,2.1435790062,,,
17.1093750000,2,2.3353750706,,,
17.1250000000,2,2.2855141163,,,
17.1406250000,2,1.9278090000,,,
17.1562500000,2,1.2155630589,,,
17.1718750000,2,0.2360015959,,,
17.1875000000,2,-0.8594936728,,,
17.2031250000,2,-1.8478120565,,,
17.2187500000,2,-2.5210790634,,,
17.2343750000,2,-2.7469320297,,,
17.2500000000,2,-2.4979190826,,,
17.2656250000,2,-1.8891299963,,,
17.2812500000,2,-1.0993789434,,,
17.2968750000,2,-0.3685559928,,,
17.3125000000,2,0.1217473000,,,
17.3281250000,2,0.3237656057,,,
17.3437500000,2,0.3321614861,,,
17.3593750000,2,0.3464845121,,,
17.3750000000,2,0.5359058976,,,
17.3906250000,2,0.9528201818,,,
17.4062500000,2,1.4587889910,,,
17.4218750000,2,1.8332530260,,,
17.4375000000,2,1.8438559771,,,
17.4531250000,2,1.3751560450,,,
17.4687500000,2,0.4899617136,,,
17.4843750000,2,-0.6169219017,,,
17.5000000000,2,-1.6957089901,,,
17.5156250000,2,-2.5153689384,,,
17.5312500000,2,-2.9932060242,,,
17.5468750000,2,-3.1113309860,,,
17.5625000000,2,-2.9322199821,,,
17.5781250000,2,-2.5358309746,,,
17.5937500000,2,-1.9816169739,,,
17.6093750000,2,-1.2848370075,,,
17.6250000000,2,-0.5070831776,,,
17.6406250000,2,0.2916448116,,,
17.6562500000,2,1.0044490099,,,
17.6718750000,2,1.5119680166,,,
17.6875000000,2,1.7520040274,,,
17.7031250000,2,1.7033480406,,,
17.7187500000,2,1.4551680088,,,
17.7343750000,2,1.0642260313,,,
17.7500000000,2,0.6231083274,,,
17.7656250000,2,0.1918628961,,,
17.7812500000,2,-0.1909897029,,,
17.7968750000,2,-0.4494333863,,,
17.8125000000,2,-0.5030317903,,,
17.8281250000,2,-0.3614740968,,,
17.8437500000,2,-0.0672378466,,,
17.8593750000,2,0.2787055075,,,
17.8750000000,2,0.5599398017,,,
17.8906250000,2,0.7328302264,,,
17.9062500000,2,0.8033154011,,,
17.9218750000,2,0.8117172718,,,
17.9375000000,2,0.7964242101,,,
17.9531250000,2,0.7469642162,,,
17.9687500000,2,0.6355710030,,,
17.9843750000,2,0.4353365898,,,
18.0000000000,2,0.1484950930,,,
18.0156250000,2,-0.1948318034,,,
18.0312500000,2,-0.5434932113,,,
18.0468750000,2,-0.8206623197,,,
18.0625000000,2,-0.9296787977,,,
18.0781250000,2,-0.7499042749,,,
18.0937500000,2,-0.2087498009,,,
18.1093750000,2,0.6811296940,,,
18.1250000000,2,1.7236150503,,,
18.1406250000,2,2.6261909008,,,
18.1562500000,2,3.0601329803,,,
18.1718750000,2,2.8420300484,,,
18.1875000000,2,1.9967360497,,,
18.2031250000,2,0.7907255292,,,
18.2187500000,2,-0.4201200008,,,
18.2343750000,2,-1.2995389700,,,
18.2500000000,2,-1.7287909985,,,
18.2656250000,2,-1.7637079954,,,
18.2812500000,2,-1.5797549486,,,
18.2968750000,2,-1.3290790319,,,
18.3125000000,2,-1.0237619877,,,
18.3281250000,2,-0.6064910889,,,
18.3437500000,2,0.0050423150,,,
18.3593750000,2,0.7880092263,,,
18.3750000000,2,1.6488510370,,,
18.3906250000,2,2.3462738991,,,
18.4062500000,2,2.7037429810,,,
18.4218750000,2,2.6519689560,,,
18.4375000000,2,2.3033080101,,,
18.4531250000,2,1.7934019566,,,
18.4687500000,2,1.2778719664,,,
18.4843750000,2,0.7761673927,,,
18.5000000000,2,0.2460462004,,,
18.5156250000,2,-0.3684932888,,,
18.5312500000,2,-0.9934179187,,,
18.5468750000,2,-1.4624389410,,,
18.5625000000,2,-1.6149120331,,,
18.5781250000,2,-1.4388990402,,,
18.5937500000,2,-1.0579010248,,,
18.6093750000,2,-0.6906610131,,,
18.6250000000,2,-0.5352416039,,,
18.6406250000,2,-0.5671892166,,,
18.6562500000,2,-0.6159070134,,,
18.6718750000,2,-0.4953872859,,,
18.6875000000,2,-0.1546016037,,,
18.7031250000,2,0.2386835068,,,
18.7187500000,2,0.3735679090,,,
18.7343750000,2,0.0058201551,,,
18.7500000000,2,-0.8667747974,,,
18.7656250000,2,-1.9834909439,,,
18.7812500000,2,-2.9157459736,,,
18.7968750000,2,-3.3158578873,,,
18.8125000000,2,-3.0733439922,,,
18.8281250000,2,-2.3642749786,,,
18.8437500000,2,-1.4922120571,,,
18.8593750000,2,-0.7376112938,,,
18.8750000000,2,-0.1741822064,,,
18.8906250000,2,0.2818866968,,,
18.9062500000,2,0.8002715111,,,
18.9218750000,2,1.4369319677,,,
18.9375000000,2,2.1316521168,,,
18.9531250000,2,2.6330299377,,,
18.9687500000,2,2.7142000198,,,
18.9843750000,2,2.2854290009,,,
19.0000000000,2,1.4890279770,,,
19.0156250000,2,0.5905575156,,,
19.0312500000,2,-0.1106489971,,,
19.0468750000,2,-0.4394432008,,,
19.0625000000,2,-0.4307323992,,,
19.0781250000,2,-0.2139486969,,,
19.0937500000,2,0.0247955304,,,
19.1093750000,2,0.2450460047,,,
19.1250000000,2,0.4440844059,,,
19.1406250000,2,0.6591904163,,,
19.1562500000,2,0.8915582895,,,
19.1718750000,2,1.0994679928,,,
19.1875000000,2,1.2490069866,,,
19.2031250000,2,1.3186299801,,,
19.2187500000,2,1.3546969891,,,
19.2343750000,2,1.4163180590,,,
19.2500000000,2,1.5353250504,,,
19.2656250000,2,1.6765830517,,,
19.2812500000,2,1.7838950157,,,
19.2968750000,2,1.7678209543,,,
19.3125000000,2,1.5753970146,,,
19.3281250000,2,1.2282650471,,,
19.3437500000,2,0.7468128800,,,
19.3593750000,2,0.1804105937,,,
19.3750000000,2,-0.3947030902,,,
19.3906250000,2,-0.9219712019,,,
19.4062500000,2,-1.3022010326,,,
19.4218750000,2,-1.4731409550,,,
19.4375000000,2,-1.4218660593,,,
19.4531250000,2,-1.1878939867,,,
19.4687500000,2,-0.8821812272,,,
19.4843750000,2,-0.6427468061,,,
19.5000000000,2,-0.5453150272,,,
19.5156250000,2,-0.6352847815,,,
19.5312500000,2,-0.8886812925,,,
19.5468750000,2,-1.2534079552,,,
19.5625000000,2,-1.6049760580,,,
19.5781250000,2,-1.8346810341,,,
19.5937500000,2,-1.8326790333,,,
19.6093750000,2,-1.5805239677,,,
19.6250000000,2,-1.1493940353,,,
19.6406250000,2,-0.6764627099,,,
19.6562500000,2,-0.2892409861,,,
19.6718750000,2,-0.0562861003,,,
19.6875000000,2,0.0477595292,,,
19.7031250000,2,0.0460332595,,,
19.7187500000,2,-0.0532544889,,,
19.7343750000,2,-0.2462798059,,,
19.7500000000,2,-0.5360882878,,,
19.7656250000,2,-0.8790094852,,,
19.7812500000,2,-1.1339930296,,,
19.7968750000,2,-1.2135269642,,,
19.8125000000,2,-1.1015950441,,,
19.8281250000,2,-0.9009463787,,,
19.8437500000,2,-0.7798702121,,,
19.8593750000,2,-0.7948387861,,,
19.8750000000,2,-0.8706982136,,,
19.8906250000,2,-0.7792596221,,,
19.9062500000,2,-0.2962481081,,,
19.9218750000,2,0.6241745949,,,
19.9375000000,2,1.7832870483,,,
19.9531250000,2,2.8564050198,,,
19.9687500000,2,3.5594360828,,,
19.9843750000,2,3.7694730759,,,
20.0000000000,2,3.6180880070,,,
20.0156250000,2,3.3690829277,,,
20.0312500000,2,3.2423460484,,,
20.0468750000,2,3.3091259003,,,
20.0625000000,2,3.5029439926,,,
20.0781250000,2,3.5817959309,,,
20.0937500000,2,3.3236210346,,,
20.1093750000,2,2.6029620171,,,
20.1250000000,2,1.4670130014,,,
20.1406250000,2,0.0850045681,,,
20.1562500000,2,-1.2865580320,,,
20.1718750000,2,-2.3757960796,,,
20.1875000000,2,-3.0387210846,,,
20.2031250000,2,-3.2148599625,,,
20.2187500000,2,-2.9871239662,,,
20.2343750000,2,-2.4983680248,,,
20.2500000000,2,-1.9698270559,,,
20.2656250000,2,-1.6055639982,,,
20.2812500000,2,-1.5647269487,,,
20.2968750000,2,-1.8361439705,,,
20.3125000000,2,-2.2752571106,,,
20.3281250000,2,-2.6382310390,,,
20.3437500000,2,-2.7195510864,,,
20.3593750000,2,-2.4602680206,,,
20.3750000000,2,-1.9948259592,,,
20.3906250000,2,-1.5825109482,,,
20.4062500000,2,-1.3839509487,,,
20.4218750000,2,-1.4313420057,,,
20.4375000000,2,-1.5634779930,,,
20.4531250000,2,-1.5727900267,,,
20.4687500000,2,-1.3545739651,,,
20.4843750000,2,-0.9723144770,,,
20.5000000000,2,-0.5989642143,,,
20.5156250000,2,-0.3717423975,,,
20.5312500000,2,-0.2900027037,,,
20.5468750000,2,-0.1979189962,,,
20.5625000000,2,0.0572242104,,,
20.5781250000,2,0.5142232776,,,
20.5937500000,2,1.0364840031,,,
20.6093750000,2,1.3947559595,,,
20.6250000000,2,1.4206600189,,,
20.6406250000,2,1.0724740028,,,
20.6562500000,2,0.4885598123,,,
20.6718750000,2,-0.1343307048,,,
20.6875000000,2,-0.6093907952,,,
20.7031250000,2,-0.8472661972,,,
20.7187500000,2,-0.8315864801,,,
20.7343750000,2,-0.5526543856,,,
20.7500000000,2,-0.0341768898,,,
20.7656250000,2,0.7008696198,,,
20.7812500000,2,1.5348559618,,,
20.7968750000,2,2.2835121155,,,
20.8125000000,2,2.6982440948,,,
20.8281250000,2,2.6357519627,,,
20.8437500000,2,2.0678830147,,,
20.8593750000,2,1.1931730509,,,
20.8750000000,2,0.3044368923,,,
20.8906250000,2,-0.2938446105,,,
20.9062500000,2,-0.4487552941,,,
20.9218750000,2,-0.2140166014,,,
20.9375000000,2,0.1920437068,,,
20.9531250000,2,0.5275704861,,,
20.9687500000,2,0.6168543100,,,
20.9843750000,2,0.4300202131,,,
21.0000000000,2,0.1424528062,,,
21.0156250000,2,-0.0626330376,,,
21.0312500000,2,-0.0402381383,,,
21.0468750000,2,0.2210994065,,,
21.0625000000,2,0.6182540059,,,
21.0781250000,2,0.9896230102,,,
21.0937500000,2,1.1943659782,,,
21.1093750000,2,1.2198690176,,,
21.1250000000,2,1.1539590359,,,
21.1406250000,2,1.1236490011,,,
21.1562500000,2,1.1889419556,,,
21.1718750000,2,1.3007550240,,,
21.1875000000,2,1.3070809841,,,
21.2031250000,2,1.0426510572,,,
21.2187500000,2,0.4319218993,,,
21.2343750000,2,-0.4638946950,,,
21.2500000000,2,-1.4615169764,,,
21.2656250000,2,-2.3752810955,,,
21.2812500000,2,-3.0454950333,,,
21.2968750000,2,-3.3939130306,,,
21.3125000000,2,-3.4039649963,,,
21.3281250000,2,-3.0777409077,,,
21.3437500000,2,-2.4310278893,,,
21.3593750000,2,-1.4992990494,,,
21.3750000000,2,-0.4084616899,,,
21.3906250000,2,0.6227586269,,,
21.4062500000,2,1.3076709509,,,
21.4218750000,2,1.4538530111,,,
21.4375000000,2,1.0601660013,,,
21.4531250000,2,0.3825623989,,,
21.4687500000,2,-0.2290903032,,,
21.4843750000,2,-0.4834581912,,,
21.5000000000,2,-0.2971951962,,,
21.5156250000,2,0.1386801004,,,
21.5312500000,2,0.5102102160,,,
21.5468750000,2,0.5567790270,,,
21.5625000000,2,0.2380772978,,,
21.5781250000,2,-0.2792102098,,,
21.5937500000,2,-0.7369214892,,,
21.6093750000,2,-0.9926679134,,,
21.6250000000,2,-1.0527679920,,,
21.6406250000,2,-1.0515049696,,,
21.6562500000,2,-1.0860149860,,,
21.6718750000,2,-1.1236809492,,,
21.6875000000,2,-1.0096980333,,,
21.7031250000,2,-0.6302952170,,,
21.7187500000,2,-0.0186679401,,,
21.7343750000,2,0.6365054250,,,
21.7500000000,2,1.0528000593,,,
21.7656250000,2,1.0235300064,,,
21.7812500000,2,0.5521783829,,,
21.7968750000,2,-0.1496472061,,,
21.8125000000,2,-0.7528908849,,,
21.8281250000,2,-0.9827604890,,,
21.8437500000,2,-0.7449852824,,,
21.8593750000,2,-0.1418509036,,,
21.8750000000,2,0.5830451846,,,
21.8906250000,2,1.2187860012,,,
21.9062500000,2,1.6443029642,,,
21.9218750000,2,1.8747509718,,,
21.9375000000,2,2.0080540180,,,
21.9531250000,2,2.1219549179,,,
21.9687500000,2,2.1726939678,,,
21.9843750000,2,2.0806529522,,,
22.0000000000,2,1.7617000341,,,
22.0156250000,2,1.2096049786,,,
22.0312500000,2,0.5602890849,,,
22.0468750000,2,0.0125970803,,,
22.0625000000,2,-0.2595939934,,,
22.0781250000,2,-0.2122883946,,,
22.0937500000,2,0.0854010582,,,
22.1093750000,2,0.4334763885,,,
22.1250000000,2,0.6694893837,,,
22.1406250000,2,0.7165542245,,,
22.1562500000,2,0.6270114183,,,
22.1718750000,2,0.5097929835,,,
22.1875000000,2,0.4859941006,,,
22.2031250000,2,0.5492237210,,,
22.2187500000,2,0.6433498859,,,
22.2343750000,2,0.6660550833,,,
22.2500000000,2,0.5616546273,,,
22.2656250000,2,0.3511461914,,,
22.2812500000,2,0.1343190968,,,
22.2968750000,2,-0.0277812500,,,
22.3125000000,2,-0.1399399936,,,
22.3281250000,2,-0.2868301868,,,
22.3437500000,2,-0.5739777088,,,
22.3593750000,2,-0.9570348263,,,
22.3750000000,2,-1.2651970387,,,
22.3906250000,2,-1.2641119957,,,
22.4062500000,2,-0.8648794889,,,
22.4218750000,2,-0.1605449021,,,
22.4375000000,2,0.5239381790,,,
22.4531250000,2,0.8458266854,,,
22.4687500000,2,0.6341807842,,,
22.4843750000,2,0.0200088006,,,
22.5000000000,2,-0.6641088128,,,
22.5156250000,2,-1.0483180285,,,
22.5312500000,2,-0.9421870708,,,
22.5468750000,2,-0.4689948857,,,
22.5625000000,2,0.0454782210,,,
22.5781250000,2,0.2120925933,,,
22.5937500000,2,-0.1426648945,,,
22.6093750000,2,-0.9113147259,,,
22.6250000000,2,-1.7211539745,,,
22.6406250000,2,-2.1956288815,,,
22.6562500000,2,-2.1139349937,,,
22.6718750000,2,-1.5502970219,,,
22.6875000000,2,-0.8106834292,,,
22.7031250000,2,-0.2309875041,,,
22.7187500000,2,-0.0075688362,,,
22.7343750000,2,-0.0652900934,,,
22.7500000000,2,-0.1703319997,,,
22.7656250000,2,-0.0723313093,,,
22.7812500000,2,0.3312362134,,,
22.7968750000,2,0.8759353757,,,
22.8125000000,2,1.3162360191,,,
22.8281250000,2,1.3995449543,,,
22.8437500000,2,1.0523929596,,,
22.8593750000,2,0.3903681040,,,
22.8750000000,2,-0.3100534976,,,
22.8906250000,2,-0.8197693229,,,
22.9062500000,2,-1.0193940401,,,
22.9218750000,2,-0.9117836952,,,
22.9375000000,2,-0.6246228814,,,
22.9531250000,2,-0.2443052977,,,
22.9687500000,2,0.1607508957,,,
22.9843750000,2,0.6319599152,,,
23.0000000000,2,1.1482579708,,,
23.0156250000,2,1.6883319616,,,
23.0312500000,2,2.1308109760,,,
23.0468750000,2,2.3685839176,,,
23.0625000000,2,2.3414070606,,,
23.0781250000,2,2.0627338886,,,
23.0937500000,2,1.6174360514,,,
23.1093750000,2,1.1114200354,,,
23.1250000000,2,0.5900676847,,,
23.1406250000,2,0.0213537198,,,
23.1562500000,2,-0.6188278198,,,
23.1718750000,2,-1.3528300524,,,
23.1875000000,2,-2.1070570946,,,
23.2031250000,2,-2.7342219353,,,
23.2187500000,2,-3.0619940758,,,
23.2343750000,2,-2.9661810398,,,
23.2500000000,2,-2.4332990646,,,
23.2656250000,2,-1.6246180534,,,
23.2812500000,2,-0.7320784926,,,
23.2968750000,2,0.0043878560,,,
23.3125000000,2,0.4935187995,,,
23.3281250000,2,0.7487729192,,,
23.3437500000,2,0.9169501066,,,
23.3593750000,2,1.1540039778,,,
23.3750000000,2,1.5259430408,,,
23.3906250000,2,1.9426100254,,,
23.4062500000,2,2.2126851082,,,
23.4218750000,2,2.1780359745,,,
23.4375000000,2,1.8079010248,,,
23.4531250000,2,1.2582050562,,,
23.4687500000,2,0.7168123126,,,
23.4843750000,2,0.3600297868,,,
23.5000000000,2,0.2082446069,,,
23.5156250000,2,0.1880805045,,,
23.5312500000,2,0.1350587010,,,
23.5468750000,2,-0.0444431007,,,
23.5625000000,2,-0.3277446032,,,
23.5781250000,2,-0.5823547840,,,
23.5937500000,2,-0.6452335715,,,
23.6093750000,2,-0.4357940853,,,
23.6250000000,2,-0.0483399592,,,
23.6406250000,2,0.3340330124,,,
23.6562500000,2,0.5169718266,,,
23.6718750000,2,0.4216147959,,,
23.6875000000,2,0.1063268036,,,
23.7031250000,2,-0.2425149977,,,
23.7187500000,2,-0.4682286978,,,
23.7343750000,2,-0.5246595144,,,
23.7500000000,2,-0.4442709982,,,
23.7656250000,2,-0.3439485133,,,
23.7812500000,2,-0.2846648097,,,
23.7968750000,2,-0.2458419055,,,
23.8125000000,2,-0.1393837035,,,
23.8281250000,2,0.0777473524,,,
23.8437500000,2,0.3673206866,,,
23.8593750000,2,0.5248320103,,,
23.8750000000,2,0.3917379975,,,
23.8906250000,2,-0.0687928125,,,
23.9062500000,2,-0.7213252187,,,
23.9218750000,2,-1.3046150208,,,
23.9375000000,2,-1.6182190180,,,
23.9531250000,2,-1.6089609861,,,
23.9687500000,2,-1.3953499794,,,
23.9843750000,2,-1.1903460026,,,
24.0000000000,3,-1.1346750259,,,
24.0156250000,3,-1.2321699858,,,
24.0312500000,3,-1.3627660275,,,
24.0468750000,3,-1.3868889809,,,
24.0625000000,3,-1.2618260384,,,
24.0781250000,3,-1.0214500427,,,
24.0937500000,3,-0.7581626177,,,
24.1093750000,3,-0.5374590158,,,
24.1250000000,3,-0.3747108877,,,
24.1406250000,3,-0.2270181030,,,
24.1562500000,3,-0.0631260276,,,
24.1718750000,3,0.1198180020,,,
24.1875000000,3,0.2720206976,,,
24.2031250000,3,0.3462351859,,,
24.2187500000,3,0.2953312099,,,
24.2343750000,3,0.0727168322,,,
24.2500000000,3,-0.3559747040,,,
24.2656250000,3,-0.9501435161,,,
24.2812500000,3,-1.6273770332,,,
24.2968750000,3,-2.1924200058,,,
24.3125000000,3,-2.4720349312,,,
24.3281250000,3,-2.3577499390,,,
24.3437500000,3,-1.8402980566,,,
24.3593750000,3,-1.0376600027,,,
24.3750000000,3,-0.0730493367,,,
24.3906250000,3,0.8636149168,,,
24.4062500000,3,1.6293250322,,,
24.4218750000,3,2.0465750694,,,
24.4375000000,3,2.0261459351,,,
24.4531250000,3,1.5551710129,,,
24.4687500000,3,0.7726523876,,,
24.4843750000,3,-0.0534696616,,,
24.5000000000,3,-0.6707525253,,,
24.5156250000,3,-0.9228885174,,,
24.5312500000,3,-0.8574693799,,,
24.5468750000,3,-0.6274507046,,,
24.5625000000,3,-0.4000655115,,,
24.5781250000,3,-0.2158035934,,,
24.5937500000,3,-0.0725455284,,,
24.6093750000,3,0.0952743292,,,
24.6250000000,3,0.2945246100,,,
24.6406250000,3,0.4724059105,,,
24.6562500000,3,0.6099992990,,,
24.6718750000,3,0.7318629026,,,
24.6875000000,3,0.9660248756,,,
24.7031250000,3,1.3918999434,,,
24.7187500000,3,1.9882030487,,,
24.7343750000,3,2.5572299957,,,
24.7500000000,3,2.8467009068,,,
24.7656250000,3,2.7153570652,,,
24.7812500000,3,2.1561639309,,,
24.7968750000,3,1.3761390448,,,
24.8125000000,3,0.6370921731,,,
24.8281250000,3,0.1675723940,,,
24.8437500000,3,0.0327339210,,,
24.8593750000,3,0.1732016951,,,
24.8750000000,3,0.4688048065,,,
24.8906250000,3,0.7495648861,,,
24.9062500000,3,0.8837767839,,,
24.9218750000,3,0.7751696706,,,
24.9375000000,3,0.4282402992,,,
24.9531250000,3,-0.0815167427,,,
24.9687500000,3,-0.5815231800,,,
24.9843750000,3,-0.8890194893,,,
25.0000000000,3,-0.8578799963,,,
25.0156250000,3,-0.4757755995,,,
25.0312500000,3,0.1521884948,,,
25.0468750000,3,0.7981464267,,,
25.0625000000,3,1.2119950056,,,
25.0781250000,3,1.2115839720,,,
25.0937500000,3,0.7128347754,,,
25.1093750000,3,-0.1496928036,,,
25.1250000000,3,-1.1306730509,,,
25.1406250000,3,-1.8703709841,,,
25.1562500000,3,-2.0848550797,,,
25.1718750000,3,-1.6195149422,,,
25.1875000000,3,-0.5689635873,,,
25.2031250000,3,0.7811130881,,,
25.2187500000,3,2.0486319065,,,
25.2343750000,3,2.8848700523,,,
25.2500000000,3,3.1211760044,,,
25.2656250000,3,2.7781369686,,,
25.2812500000,3,2.0336980820,,,
25.2968750000,3,1.0930429697,,,
25.3125000000,3,0.1747639030,,,
25.3281250000,3,-0.5722308159,,,
25.3437500000,3,-1.0765730143,,,
25.3593750000,3,-1.3147909641,,,
25.3750000000,3,-1.3378380537,,,
25.3906250000,3,-1.2123080492,,,
25.4062500000,3,-1.0488979816,,,
25.4218750000,3,-0.8968055248,,,
25.4375000000,3,-0.7731621861,,,
25.4531250000,3,-0.6485204101,,,
25.4687500000,3,-0.5126258135,,,
25.4843750000,3,-0.4052334130,,,
25.5000000000,3,-0.3905822933,,,
25.5156250000,3,-0.5569388866,,,
25.5312500000,3,-0.9200736284,,,
25.5468750000,3,-1.4279019833,,,
25.5625000000,3,-1.9421570301,,,
25.5781250000,3,-2.2884509563,,,
25.5937500000,3,-2.3781189919,,,
25.6093750000,3,-2.2213540077,,,
25.6250000000,3,-1.8989100456,,,
25.6406250000,3,-1.5093090534,,,
25.6562500000,3,-1.1015080214,,,
25.6718750000,3,-0.6601874828,,,
25.6875000000,3,-0.1575316042,,,
25.7031250000,3,0.3985615969,,,
25.7187500000,3,0.9299796224,,,
25.7343750000,3,1.3192930222,,,
25.7500000000,3,1.4995239973,,,
25.7656250000,3,1.5204080343,,,
25.7812500000,3,1.4973759651,,,
25.7968750000,3,1.5624849796,,,
25.8125000000,3,1.7667829990,,,
25.8281250000,3,2.0469660759,,,
25.8437500000,3,2.2665801048,,,
25.8593750000,3,2.2446119785,,,
25.8750000000,3,1.8912680149,,,
25.8906250000,3,1.2530959845,,,
25.9062500000,3,0.4459568858,,,
25.9218750000,3,-0.3411405087,,,
25.9375000000,3,-0.9454482198,,,
25.9531250000,3,-1.2572629452,,,
25.9687500000,3,-1.2755459547,,,
25.9843750000,3,-1.0819879770,,,
26.0000000000,3,-0.8027039766,,,
26.0156250000,3,-0.6016734838,,,
26.0312500000,3,-0.5415108800,,,
26.0468750000,3,-0.6148282290,,,
26.0625000000,3,-0.7144631147,,,
26.0781250000,3,-0.7513331175,,,
26.0937500000,3,-0.6805912256,,,
26.1093750000,3,-0.5829380751,,,
26.1250000000,3,-0.5331197977,,,
26.1406250000,3,-0.5578913093,,,
26.1562500000,3,-0.5883213282,,,
26.1718750000,3,-0.5389686823,,,
26.1875000000,3,-0.3565515876,,,
26.2031250000,3,-0.0959905982,,,
26.2187500000,3,0.1287955046,,,
26.2343750000,3,0.2246592939,,,
26.2500000000,3,0.1828141063,,,
26.2656250000,3,0.1241639033,,,
26.2812500000,3,0.1818366051,,,
26.2968750000,3,0.4285773933,,,
26.3125000000,3,0.7908207178,,,
26.3281250000,3,1.1125509739,,,
26.3437500000,3,1.2337249517,,,
26.3593750000,3,1.0685219765,,,
26.3750000000,3,0.6496459842,,,
26.3906250000,3,0.1263280064,,,
26.4062500000,3,-0.3831669092,,,
26.4218750000,3,-0.7312834263,,,
26.4375000000,3,-0.8771029711,,,
26.4531250000,3,-0.7847868204,,,
26.4687500000,3,-0.5536394715,,,
26.4843750000,3,-0.3693540096,,,
26.5000000000,3,-0.3684586883,,,
26.5156250000,3,-0.6476687193,,,
26.5312500000,3,-1.1484930515,,,
26.5468750000,3,-1.7207109928,,,
26.5625000000,3,-2.1089110374,,,
26.5781250000,3,-2.1980919838,,,
26.5937500000,3,-1.9491989613,,,
26.6093750000,3,-1.4560539722,,,
26.6250000000,3,-0.8533912897,,,
26.6406250000,3,-0.2472867072,,,
26.6562500000,3,0.3043982983,,,
26.6718750000,3,0.7725574970,,,
26.6875000000,3,1.1139400005,,,
26.7031250000,3,1.2797199488,,,
26.7187500000,3,1.2343959808,,,
26.7343750000,3,1.0167160034,,,
26.7500000000,3,0.7329006195,,,
26.7656250000,3,0.5134896040,,,
26.7812500000,3,0.4403653145,,,
26.7968750000,3,0.5082157254,,,
26.8125000000,3,0.6287847757,,,
26.8281250000,3,0.7242984176,,,
26.8437500000,3,0.7577527165,,,
26.8593750000,3,0.7671440244,,,
26.8750000000,3,0.8419405222,,,
26.8906250000,3,1.0861599445,,,
26.9062500000,3,1.5102339983,,,
26.9218750000,3,2.0363180637,,,
26.9375000000,3,2.4993209839,,,
26.9531250000,3,2.7464239597,,,
26.9687500000,3,2.6654078960,,,
26.9843750000,3,2.2557189465,,,
27.0000000000,3,1.6219120026,,,
27.0156250000,3,0.9424455166,,,
27.0312500000,3,0.3731189072,,,
27.0468750000,3,-0.0105112800,,,
27.0625000000,3,-0.2325637043,,,
27.0781250000,3,-0.3815217912,,,
27.0937500000,3,-0.5546011925,,,
27.1093750000,3,-0.7967094183,,,
27.1250000000,3,-1.0788489580,,,
27.1406250000,3,-1.3557859659,,,
27.1562500000,3,-1.5562659502,,,
27.1718750000,3,-1.6102509499,,,
27.1875000000,3,-1.4756649733,,,
27.2031250000,3,-1.1121629477,,,
27.2187500000,3,-0.5012850165,,,
27.2343750000,3,0.2584922910,,,
27.2500000000,3,0.9819431901,,,
27.2656250000,3,1.4340519905,,,
27.2812500000,3,1.4401199818,,,
27.2968750000,3,0.9758080840,,,
27.3125000000,3,0.1886238009,,,
27.3281250000,3,-0.6659482718,,,
27.3437500000,3,-1.3319660425,,,
27.3593750000,3,-1.6811289787,,,
27.3750000000,3,-1.7282199860,,,
27.3906250000,3,-1.5593669415,,,
27.4062500000,3,-1.2921600342,,,
27.4218750000,3,-0.9868648052,,,
27.4375000000,3,-0.6408880949,,,
27.4531250000,3,-0.2195862979,,,
27.4687500000,3,0.2928834856,,,
27.4843750000,3,0.8801773190,,,
27.5000000000,3,1.4480119944,,,
27.5156250000,3,1.8465629816,,,
27.5312500000,3,1.9630769491,,,
27.5468750000,3,1.7623800039,,,
27.5625000000,3,1.3064579964,,,
27.5781250000,3,0.7457669973,,,
27.5937500000,3,0.2393718064,,,
27.6093750000,3,-0.1147821024,,,
27.6250000000,3,-0.3134522140,,,
27.6406250000,3,-0.3931660056,,,
27.6562500000,3,-0.4188070893,,,
27.6718750000,3,-0.4027953148,,,
27.6875000000,3,-0.3227337897,,,
27.7031250000,3,-0.1601659954,,,
27.7187500000,3,0.0460901111,,,
27.7343750000,3,0.2181199044,,,
27.7500000000,3,0.2600269020,,,
27.7656250000,3,0.1080221012,,,
27.7812500000,3,-0.2505810857,,,
27.7968750000,3,-0.7700263262,,,
27.8125000000,3,-1.3573620319,,,
27.8281250000,3,-1.8978749514,,,
27.8437500000,3,-2.2682011127,,,
27.8593750000,3,-2.3754570484,,,
27.8750000000,3,-2.1995110512,,,
27.8906250000,3,-1.8079069853,,,
27.9062500000,3,-1.3291250467,,,
27.9218750000,3,-0.9131894708,,,
27.9375000000,3,-0.6263849139,,,
27.9531250000,3,-0.4585193098,,,
27.9687500000,3,-0.3697240055,,,
27.9843750000,3,-0.2780717909,,,
28.0000000000,3,-0.1814274043,,,
28.0156250000,3,-0.0961505398,,,
28.0312500000,3,-0.0732051134,,,
28.0468750000,3,-0.1646800935,,,
28.0625000000,3,-0.4194338024,,,
28.0781250000,3,-0.8335564137,,,
28.0937500000,3,-1.3570430279,,,
28.1093750000,3,-1.8801380396,,,
28.1250000000,3,-2.2609770298,,,
28.1406250000,3,-2.3752698898,,,
28.1562500000,3,-2.1627380848,,,
28.1718750000,3,-1.6941980124,,,
28.1875000000,3,-1.1353110075,,,
28.2031250000,3,-0.6704708934,,,
28.2187500000,3,-0.3996843994,,,
28.2343750000,3,-0.2578690946,,,
28.2500000000,3,-0.0854282379,,,
28.2656250000,3,0.3055104911,,,
28.2812500000,3,0.9964991808,,,
28.2968750000,3,1.9219100475,,,
28.3125000000,3,2.8758850098,,,
28.3281250000,3,3.6253809929,,,
28.3437500000,3,4.0056829453,,,
28.3593750000,3,3.9414639473,,,
28.3750000000,3,3.4696750641,,,
28.3906250000,3,2.6782979965,,,
28.4062500000,3,1.7246910334,,,
28.4218750000,3,0.7672017217,,,
28.4375000000,3,-0.0587501489,,,
28.4531250000,3,-0.6097897291,,,
28.4687500000,3,-0.8241589069,,,
28.4843750000,3,-0.6916229129,,,
28.5000000000,3,-0.2856447101,,,
28.5156250000,3,0.2836697996,,,
28.5312500000,3,0.8694493175,,,
28.5468750000,3,1.3276020288,,,
28.5625000000,3,1.5341620445,,,
28.5781250000,3,1.4150630236,,,
28.5937500000,3,0.9687238932,,,
28.6093750000,3,0.3069511950,,,
28.6250000000,3,-0.3633288145,,,
28.6406250000,3,-0.8108841181,,,
28.6562500000,3,-0.8803123832,,,
28.6718750000,3,-0.6001374125,,,
28.6875000000,3,-0.1465878040,,,
28.7031250000,3,0.2228703052,,,
28.7187500000,3,0.3311797082,,,
28.7343750000,3,0.1904670000,,,
28.7500000000,3,-0.0151237203,,,
28.7656250000,3,-0.0348615609,,,
28.7812500000,3,0.3148390949,,,
28.7968750000,3,0.9553347230,,,
28.8125000000,3,1.6437640190,,,
28.8281250000,3,2.0647649765,,,
28.8437500000,3,2.0091619492,,,
28.8593750000,3,1.4818140268,,,
28.8750000000,3,0.6666589975,,,
28.8906250000,3,-0.2090831995,,,
28.9062500000,3,-0.9723420143,,,
28.9218750000,3,-1.5758060217,,,
28.9375000000,3,-2.0468959808,,,
28.9531250000,3,-2.3917500973,,,
28.9687500000,3,-2.5529129505,,,
28.9843750000,3,-2.4263789654,,,
29.0000000000,3,-1.9608969688,,,
29.0156250000,3,-1.1912540197,,,
29.0312500000,3,-0.2698638141,,,
29.0468750000,3,0.5981845260,,,
29.0625000000,3,1.2379599810,,,
29.0781250000,3,1.5990329981,,,
29.0937500000,3,1.7267600298,,,
29.1093750000,3,1.7374919653,,,
29.1250000000,3,1.6746729612,,,
29.1406250000,3,1.5575549603,,,
29.1562500000,3,1.3233170509,,,
29.1718750000,3,0.9304476976,,,
29.1875000000,3,0.4090349972,,,
29.2031250000,3,-0.1525328010,,,
29.2187500000,3,-0.6203122735,,,
29.2343750000,3,-0.8733112812,,,
29.2500000000,3,-0.8413760066,,,
29.2656250000,3,-0.5702893138,,,
29.2812500000,3,-0.1749747992,,,
29.2968750000,3,0.1793289036,,,
29.3125000000,3,0.3670454025,,,
29.3281250000,3,0.3702160120,,,
29.3437500000,3,0.2749798894,,,
29.3593750000,3,0.2560878098,,,
29.3750000000,3,0.4375512004,,,
29.3906250000,3,0.8397291899,,,
29.4062500000,3,1.3323450089,,,
29.4218750000,3,1.7111619711,,,
29.4375000000,3,1.7513500452,,,
29.4531250000,3,1.3547929525,,,
29.4687500000,3,0.6095151901,,,
29.4843750000,3,-0.2291134000,,,
29.5000000000,3,-0.9101020098,,,
29.5156250000,3,-1.2612010241,,,
29.5312500000,3,-1.2809439898,,,
29.5468750000,3,-1.1128989458,,,
29.5625000000,3,-0.9113413095,,,
29.5781250000,3,-0.7572044134,,,
29.5937500000,3,-0.6087403893,,,
29.6093750000,3,-0.3098849058,,,
29.6250000000,3,0.2245022058,,,
29.6406250000,3,0.9502410293,,,
29.6562500000,3,1.5795329809,,,
29.6718750000,3,1.7250159979,,,
29.6875000000,3,1.0486840010,,,
29.7031250000,3,-0.4763070047,,,
29.7187500000,3,-2.5281729698,,,
29.7343750000,3,-4.5012178421,,,
29.7500000000,3,-5.7485899925,,,
29.7656250000,3,-5.9091391563,,,
29.7812500000,3,-5.0468449593,,,
29.7968750000,3,-3.6419529915,,,
29.8125000000,3,-2.2786469460,,,
29.8281250000,3,-1.4162709713,,,
29.8437500000,3,-1.1351510286,,,
29.8593750000,3,-1.1745400429,,,
29.8750000000,3,-1.1559560299,,,
29.8906250000,3,-0.7967785001,,,
29.9062500000,3,-0.0763240531,,,
29.9218750000,3,0.8110386133,,,
29.9375000000,3,1.5828479528,,,
29.9531250000,3,2.0772991180,,,
29.9687500000,3,2.3034489155,,,
29.9843750000,3,2.3970069885,,,
30.0000000000,3,2.4883909225,,,
30.0156250000,3,2.5362360477,,,
30.0312500000,3,2.4367189407,,,
30.0468750000,3,2.0017380714,,,
30.0625000000,3,1.2069319487,,,
30.0781250000,3,0.2380836010,,,
30.0937500000,3,-0.5690878034,,,
30.1093750000,3,-0.9339535832,,,
30.1250000000,3,-0.7705612183,,,
30.1406250000,3,-0.2297707945,,,
30.1562500000,3,0.3416247964,,,
30.1718750000,3,0.6475576162,,,
30.1875000000,3,0.5499188900,,,
30.2031250000,3,0.1339989007,,,
30.2187500000,3,-0.4443955123,,,
30.2343750000,3,-1.0705369711,,,
30.2500000000,3,-1.7277350426,,,
30.2656250000,3,-2.4695429802,,,
30.2812500000,3,-3.2437009811,,,
30.2968750000,3,-3.8888280392,,,
30.3125000000,3,-4.1397471428,,,
30.3281250000,3,-3.7931458950,,,
30.3437500000,3,-2.8269751072,,,
30.3593750000,3,-1.4551600218,,,
30.3750000000,3,0.0107118301,,,
30.3906250000,3,1.2560780048,,,
30.4062500000,3,2.1207070351,,,
30.4218750000,3,2.6172471046,,,
30.4375000000,3,2.8331980705,,,
30.4531250000,3,2.8905060291,,,
30.4687500000,3,2.8397109509,,,
30.4843750000,3,2.7113080025,,,
30.5000000000,3,2.5199899673,,,
30.5156250000,3,2.2479450703,,,
30.5312500000,3,1.8852779865,,,
30.5468750000,3,1.3994599581,,,
30.5625000000,3,0.7854263783,,,
30.5781250000,3,0.0923162699,,,
30.5937500000,3,-0.4938333035,,,
30.6093750000,3,-0.8060845733,,,
30.6250000000,3,-0.7361525893,,,
30.6406250000,3,-0.2986972034,,,
30.6562500000,3,0.2930329144,,,
30.6718750000,3,0.7815937996,,,
30.6875000000,3,0.9388480186,,,
30.7031250000,3,0.7473943233,,,
30.7187500000,3,0.3496116102,,,
30.7343750000,3,-0.0368788205,,,
30.7500000000,3,-0.2517749071,,,
30.7656250000,3,-0.2730109990,,,
30.7812500000,3,-0.2209224999,,,
30.7968750000,3,-0.2399805039,,,
30.8125000000,3,-0.4086498022,,,
30.8281250000,3,-0.7021768093,,,
30.8437500000,3,-0.9996327162,,,
30.8593750000,3,-1.1506400108,,,
30.8750000000,3,-1.0347850323,,,
30.8906250000,3,-0.6140267253,,,
30.9062500000,3,0.0675405264,,,
30.9218750000,3,0.8837829828,,,
30.9375000000,3,1.6863679886,,,
30.9531250000,3,2.3268749714,,,
30.9687500000,3,2.6956510544,,,
30.9843750000,3,2.7262480259,,,
31.0000000000,3,2.4323449135,,,
31.0156250000,3,1.8505640030,,,
31.0312500000,3,1.0893369913,,,
31.0468750000,3,0.2819763124,,,
31.0625000000,3,-0.4311730862,,,
31.0781250000,3,-0.9304232001,,,
31.0937500000,3,-1.1576830149,,,
31.1093750000,3,-1.1403839588,,,
31.1250000000,3,-0.9674835801,,,
31.1406250000,3,-0.7340083122,,,
31.1562500000,3,-0.5242220759,,,
31.1718750000,3,-0.3449845016,,,
31.1875000000,3,-0.1656381041,,,
31.2031250000,3,0.0548813902,,,
31.2187500000,3,0.3214482963,,,
31.2343750000,3,0.5885112286,,,
31.2500000000,3,0.8123996854,,,
31.2656250000,3,1.0109289885,,,
31.2812500000,3,1.2352540493,,,
31.2968750000,3,1.5598460436,,,
31.3125000000,3,1.9750800133,,,
31.3281250000,3,2.4038009644,,,
31.3437500000,3,2.6839640141,,,
31.3593750000,3,2.7058000565,,,
31.3750000000,3,2.4223799706,,,
31.3906250000,3,1.9198199511,,,
31.4062500000,3,1.3644700050,,,
31.4218750000,3,0.9209176898,,,
31.4375000000,3,0.6380959153,,,
31.4531250000,3,0.4678694010,,,
31.4687500000,3,0.2686612904,,,
31.4843750000,3,-0.0773678124,,,
31.5000000000,3,-0.5510938168,,,
31.5156250000,3,-1.0549039841,,,
31.5312500000,3,-1.4508270025,,,
31.5468750000,3,-1.7357170582,,,
31.5625000000,3,-2.0483438969,,,
31.5781250000,3,-2.6027059555,,,
31.5937500000,3,-3.4897000790,,,
31.6093750000,3,-4.5781278610,,,
31.6250000000,3,-5.5185670853,,,
31.6406250000,3,-5.8870730400,,,
31.6562500000,3,-5.4203262329,,,
31.6718750000,3,-4.1870379448,,,
31.6875000000,3,-2.5542399883,,,
31.7031250000,3,-0.9778383970,,,
31.7187500000,3,0.2150143981,,,
31.7343750000,3,0.9919304252,,,
31.7500000000,3,1.5519340038,,,
31.7656250000,3,2.1127219200,,,
31.7812500000,3,2.7789430618,,,
31.7968750000,3,3.3981039524,,,
31.8125000000,3,3.7146170139,,,
31.8281250000,3,3.5130660534,,,
31.8437500000,3,2.7777709961,,,
31.8593750000,3,1.7028880119,,,
31.8750000000,3,0.5941361785,,,
31.8906250000,3,-0.2886599004,,,
31.9062500000,3,-0.8423141837,,,
31.9218750000,3,-1.1130369902,,,
31.9375000000,3,-1.2642430067,,,
31.9531250000,3,-1.4232540131,,,
31.9687500000,3,-1.5903439522,,,
31.9843750000,3,-1.6870830059,,,
32.0000000000,4,-1.5629340410,,,
32.0156250000,4,-1.1667979956,,,
32.0312500000,4,-0.5501918197,,,
32.0468750000,4,0.0973112583,,,
32.0625000000,4,0.5486345291,,,
32.0781250000,4,0.6759799719,,,
32.0937500000,4,0.4640663862,,,
32.1093750000,4,0.0165212192,,,
32.1250000000,4,-0.4817455113,,,
32.1406250000,4,-0.8939793706,,,
32.1562500000,4,-1.1513619423,,,
32.1718750000,4,-1.2329189777,,,
32.1875000000,4,-1.1832000017,,,
32.2031250000,4,-1.0241379738,,,
32.2187500000,4,-0.7677946091,,,
32.2343750000,4,-0.4258274138,,,
32.2500000000,4,-0.0418106318,,,
32.2656250000,4,0.3147144020,,,
32.2812500000,4,0.5508074164,,,
32.2968750000,4,0.5923408866,,,
32.3125000000,4,0.4030002058,,,
32.3281250000,4,0.0389177799,,,
32.3437500000,4,-0.4170508087,,,
32.3593750000,4,-0.8598384261,,,
32.3750000000,4,-1.1959079504,,,
32.3906250000,4,-1.3741229773,,,
32.4062500000,4,-1.3933349848,,,
32.4218750000,4,-1.2733399868,,,
32.4375000000,4,-1.0479600430,,,
32.4531250000,4,-0.7653216124,,,
32.4687500000,4,-0.4763835967,,,
32.4843750000,4,-0.2693923116,,,
32.5000000000,4,-0.1688552052,,,
32.5156250000,4,-0.1663078070,,,
32.5312500000,4,-0.1533351988,,,
32.5468750000,4,-0.0359543003,,,
32.5625000000,4,0.2552742958,,,
32.5781250000,4,0.6873471737,,,
32.5937500000,4,1.1209629774,,,
32.6093750000,4,1.3593389988,,,
32.6250000000,4,1.2646460533,,,
32.6406250000,4,0.8434144855,,,
32.6562500000,4,0.2092600018,,,
32.6718750000,4,-0.4227767885,,,
32.6875000000,4,-0.8288301229,,,
32.7031250000,4,-0.8768908978,,,
32.7187500000,4,-0.5535972118,,,
32.7343750000,4,0.0465789400,,,
32.7500000000,4,0.7933127880,,,
32.7656250000,4,1.5056740046,,,
32.7812500000,4,2.0820009708,,,
32.7968750000,4,2.4937989712,,,
32.8125000000,4,2.7477691174,,,
32.8281250000,4,2.9071879387,,,
32.8437500000,4,2.9682729244,,,
32.8593750000,4,2.8994419575,,,
32.8750000000,4,2.6428029537,,,
32.8906250000,4,2.1898460388,,,
32.9062500000,4,1.5716019869,,,
32.9218750000,4,0.9230173230,,,
32.9375000000,4,0.3690024912,,,
32.9531250000,4,-0.0053876941,,,
32.9687500000,4,-0.2141107023,,,
32.9843750000,4,-0.3413594961,,,
33.0000000000,4,-0.4803468883,,,
33.0156250000,4,-0.7206860781,,,
33.0312500000,4,-1.0172480345,,,
33.0468750000,4,-1.2785340548,,,
33.0625000000,4,-1.3634810448,,,
33.0781250000,4,-1.1670449972,,,
33.0937500000,4,-0.6943308711,,,
33.1093750000,4,-0.0559480786,,,
33.1250000000,4,0.5211244822,,,
33.1406250000,4,0.8125898242,,,
33.1562500000,4,0.6667714715,,,
33.1718750000,4,0.0989203006,,,
33.1875000000,4,-0.7444403768,,,
33.2031250000,4,-1.6386280060,,,
33.2187500000,4,-2.3446750641,,,
33.2343750000,4,-2.7551600933,,,
33.2500000000,4,-2.8567299843,,,
33.2656250000,4,-2.7121040821,,,
33.2812500000,4,-2.3813819885,,,
33.2968750000,4,-1.9105789661,,,
33.3125000000,4,-1.3044550419,,,
33.3281250000,4,-0.5823178291,,,
33.3437500000,4,0.1998730004,,,
33.3593750000,4,0.9663872123,,,
33.3750000000,4,1.5939769745,,,
33.3906250000,4,2.0004200935,,,
33.4062500000,4,2.1081659794,,,
33.4218750000,4,1.8932390213,,,
33.4375000000,4,1.3782329559,,,
33.4531250000,4,0.6582664847,,,
33.4687500000,4,-0.1322546005,,,
33.4843750000,4,-0.8309388757,,,
33.5000000000,4,-1.2732249498,,,
33.5156250000,4,-1.3923840523,,,
33.5312500000,4,-1.2187629938,,,
33.5468750000,4,-0.8965244293,,,
33.5625000000,4,-0.5891106129,,,
33.5781250000,4,-0.4026365876,,,
33.5937500000,4,-0.3091023862,,,
33.6093750000,4,-0.1938810050,,,
33.6250000000,4,0.0703753978,,,
33.6406250000,4,0.5026909709,,,
33.6562500000,4,1.0206739902,,,
33.6718750000,4,1.4594000578,,,
33.6875000000,4,1.6664140224,,,
33.7031250000,4,1.5742870569,,,
33.7187500000,4,1.2876180410,,,
33.7343750000,4,0.9443215728,,,
33.7500000000,4,0.6644477248,,,
33.7656250000,4,0.5194060206,,,
33.7812500000,4,0.4905677140,,,
33.7968750000,4,0.5170485973,,,
33.8125000000,4,0.5236200094,,,
33.8281250000,4,0.4615744948,,,
33.8437500000,4,0.3435139954,,,
33.8593750000,4,0.1974473000,,,
33.8750000000,4,0.0866267979,,,
33.8906250000,4,0.0745374337,,,
33.9062500000,4,0.1749742031,,,
33.9218750000,4,0.3675388098,,,
33.9375000000,4,0.5406981707,,,
33.9531250000,4,0.6051936746,,,
33.9687500000,4,0.4594354928,,,
33.9843750000,4,0.0459511317,,,
34.0000000000,4,-0.6085665822,,,
34.0156250000,4,-1.4571670294,,,
34.0312500000,4,-2.3623769283,,,
34.0468750000,4,-3.1437160969,,,
34.0625000000,4,-3.5939269066,,,
34.0781250000,4,-3.5706698895,,,
34.0937500000,4,-3.0043699741,,,
34.1093750000,4,-2.0296330452,,,
34.1250000000,4,-0.8614047766,,,
34.1406250000,4,0.2341773063,,,
34.1562500000,4,1.1020369530,,,
34.1718750000,4,1.7234630585,,,
34.1875000000,4,2.1717500687,,,
34.2031250000,4,2.4937269688,,,
34.2187500000,4,2.6694009304,,,
34.2343750000,4,2.6188130379,,,
34.2500000000,4,2.2615320683,,,
34.2656250000,4,1.6502490044,,,
34.2812500000,4,0.9350544810,,,
34.2968750000,4,0.3478502929,,,
34.3125000000,4,0.0717484131,,,
34.3281250000,4,0.1717765033,,,
34.3437500000,4,0.5428879857,,,
34.3593750000,4,0.9982013702,,,
34.3750000000,4,1.3156460524,,,
34.3906250000,4,1.3425170183,,,
34.4062500000,4,1.0511169434,,,
34.4218750000,4,0.5718982220,,,
34.4375000000,4,0.0733412877,,,
34.4531250000,4,-0.2607904077,,,
34.4687500000,4,-0.3485783041,,,
34.4843750000,4,-0.2520822883,,,
34.5000000000,4,-0.1161893979,,,
34.5156250000,4,-0.1238835007,,,
34.5312500000,4,-0.3698618114,,,
34.5468750000,4,-0.8108451962,,,
34.5625000000,4,-1.2702790499,,,
34.5781250000,4,-1.5374670029,,,
34.5937500000,4,-1.4268579483,,,
34.6093750000,4,-0.8774641156,,,
34.6250000000,4,0.0239064693,,,
34.6406250000,4,1.0716240406,,,
34.6562500000,4,2.0211091042,,,
34.6718750000,4,2.6744949818,,,
34.6875000000,4,2.9251658916,,,
34.7031250000,4,2.7966148853,,,
34.7187500000,4,2.4026069641,,,
34.7343750000,4,1.8755170107,,,
34.7500000000,4,1.3007400036,,,
34.7656250000,4,0.6679388285,,,
34.7812500000,4,-0.0392261706,,,
34.7968750000,4,-0.8607516885,,,
34.8125000000,4,-1.7706199884,,,
34.8281250000,4,-2.6828029156,,,
34.8437500000,4,-3.4897658825,,,
34.8593750000,4,-4.1099271774,,,
34.8750000000,4,-4.5082631111,,,
34.8906250000,4,-4.6617259979,,,
34.9062500000,4,-4.5942578316,,,
34.9218750000,4,-4.2843780518,,,
34.9375000000,4,-3.7678790092,,,
34.9531250000,4,-3.1087419987,,,
34.9687500000,4,-2.3831050396,,,
34.9843750000,4,-1.7082209587,,,
35.0000000000,4,-1.1367169619,,,
35.0156250000,4,-0.6560050845,,,
35.0312500000,4,-0.2035136074,,,
35.0468750000,4,0.2840214968,,,
35.0625000000,4,0.8325557113,,,
35.0781250000,4,1.3813580275,,,
35.0937500000,4,1.8239680529,,,
35.1093750000,4,2.1040260792,,,
35.1250000000,4,2.2514519691,,,
35.1406250000,4,2.3581659794,,,
35.1562500000,4,2.5366780758,,,
35.1718750000,4,2.8398630619,,,
35.1875000000,4,3.2136030197,,,
35.2031250000,4,3.5391089916,,,
35.2187500000,4,3.7105309963,,,
35.2343750000,4,3.6859829426,,,
35.2500000000,4,3.4821889400,,,
35.2656250000,4,3.1336159706,,,
35.2812500000,4,2.6088678837,,,
35.2968750000,4,1.8715540171,,,
35.3125000000,4,0.9003096223,,,
35.3281250000,4,-0.2193665951,,,
35.3437500000,4,-1.3049199581,,,
35.3593750000,4,-2.1386029720,,,
35.3750000000,4,-2.5883181095,,,
35.3906250000,4,-2.6298429966,,,
35.4062500000,4,-2.3907260895,,,
35.4218750000,4,-2.0022261143,,,
35.4375000000,4,-1.5677160025,,,
35.4531250000,4,-1.1346420050,,,
35.4687500000,4,-0.7950742245,,,
35.4843750000,4,-0.6083390117,,,
35.5000000000,4,-0.6696389914,,,
35.5156250000,4,-0.9865084291,,,
35.5312500000,4,-1.4621560574,,,
35.5468750000,4,-1.9253089428,,,
35.5625000000,4,-2.1998050213,,,
35.5781250000,4,-2.1807110310,,,
35.5937500000,4,-1.9020969868,,,
35.6093750000,4,-1.5284379721,,,
35.6250000000,4,-1.1952069998,,,
35.6406250000,4,-1.0226219893,,,
35.6562500000,4,-1.0245929956,,,
35.6718750000,4,-1.1655470133,,,
35.6875000000,4,-1.3430570364,,,
35.7031250000,4,-1.4456130266,,,
35.7187500000,4,-1.3666820526,,,
35.7343750000,4,-1.0340180397,,,
35.7500000000,4,-0.4774020016,,,
35.7656250000,4,0.1974373013,,,
35.7812500000,4,0.7892134786,,,
35.7968750000,4,1.1271690130,,,
35.8125000000,4,1.1081720591,,,
35.8281250000,4,0.7840797901,,,
35.8437500000,4,0.2912259996,,,
35.8593750000,4,-0.1652639955,,,
35.8750000000,4,-0.4520250857,,,
35.8906250000,4,-0.4979324043,,,
35.9062500000,4,-0.3284963071,,,
35.9218750000,4,0.0179331005,,,
35.9375000000,4,0.4603877962,,,
35.9531250000,4,0.9733477831,,,
35.9687500000,4,1.4985829592,,,
35.9843750000,4,1.9714050293,,,
36.0000000000,4,2.3528149128,,,
36.0156250000,4,2.6350009441,,,
36.0312500000,4,2.8641080856,,,
36.0468750000,4,3.0542440414,,,
36.0625000000,4,3.1308810711,,,
36.0781250000,4,2.9463939667,,,
36.0937500000,4,2.3721330166,,,
36.1093750000,4,1.3701100349,,,
36.1250000000,4,0.1362131983,,,
36.1406250000,4,-1.0207270384,,,
36.1562500000,4,-1.8092789650,,,
36.1718750000,4,-2.1250340939,,,
36.1875000000,4,-2.0427010059,,,
36.2031250000,4,-1.7966560125,,,
36.2187500000,4,-1.5582259893,,,
36.2343750000,4,-1.3592669964,,,
36.2500000000,4,-1.1356320381,,,
36.2656250000,4,-0.8368399739,,,
36.2812500000,4,-0.4930037856,,,
36.2968750000,4,-0.2786195874,,,
36.3125000000,4,-0.3354550004,,,
36.3281250000,4,-0.7004249096,,,
36.3437500000,4,-1.2262580395,,,
36.3593750000,4,-1.6912410259,,,
36.3750000000,4,-1.9184880257,,,
36.3906250000,4,-1.8605270386,,,
36.4062500000,4,-1.5874170065,,,
36.4218750000,4,-1.1763310432,,,
36.4375000000,4,-0.6903663874,,,
36.4531250000,4,-0.0936862826,,,
36.4687500000,4,0.6394726038,,,
36.4843750000,4,1.4778959751,,,
36.5000000000,4,2.2977170944,,,
36.5156250000,4,2.9789481163,,,
36.5312500000,4,3.4303789139,,,
36.5468750000,4,3.6818211079,,,
36.5625000000,4,3.8040149212,,,
36.5781250000,4,3.8522078991,,,
36.5937500000,4,3.7614810467,,,
36.6093750000,4,3.3862841129,,,
36.6250000000,4,2.5537509918,,,
36.6406250000,4,1.2040560246,,,
36.6562500000,4,-0.4550308883,,,
36.6718750000,4,-2.0588929653,,,
36.6875000000,4,-3.1993179321,,,
36.7031250000,4,-3.5977449417,,,
36.7187500000,4,-3.2545111179,,,
36.7343750000,4,-2.4293949604,,,
36.7500000000,4,-1.4848049879,,,
36.7656250000,4,-0.6986982226,,,
36.7812500000,4,-0.1732459962,,,
36.7968750000,4,0.1770582944,,,
36.8125000000,4,0.5013728142,,,
36.8281250000,4,0.8891168833,,,
36.8437500000,4,1.3113100529,,,
36.8593750000,4,1.6313619614,,,
36.8750000000,4,1.7149670124,,,
36.8906250000,4,1.5204609632,,,
36.9062500000,4,1.1067249775,,,
36.9218750000,4,0.6093869805,,,
36.9375000000,4,0.1654110998,,,
36.9531250000,4,-0.1484580934,,,
36.9687500000,4,-0.3288806975,,,
36.9843750000,4,-0.4167521894,,,
37.0000000000,4,-0.4381110966,,,
37.0156250000,4,-0.3787842095,,,
37.0312500000,4,-0.2100854069,,,
37.0468750000,4,0.1207123026,,,
37.0625000000,4,0.5502806902,,,
37.0781250000,4,0.9737241864,,,
37.0937500000,4,1.2085880041,,,
37.1093750000,4,1.1203249693,,,
37.1250000000,4,0.6289880276,,,
37.1406250000,4,-0.2039248049,,,
37.1562500000,4,-1.1940579414,,,
37.1718750000,4,-2.0894069672,,,
37.1875000000,4,-2.6231060028,,,
37.2031250000,4,-2.6715350151,,,
37.2187500000,4,-2.2835340500,,,
37.2343750000,4,-1.6571630239,,,
37.2500000000,4,-1.0391839743,,,
37.2656250000,4,-0.6136605740,,,
37.2812500000,4,-0.4020231962,,,
37.2968750000,4,-0.2794845998,,,
37.3125000000,4,-0.1125183031,,,
37.3281250000,4,0.1855740994,,,
37.3437500000,4,0.5502864718,,,
37.3593750000,4,0.8054593205,,,
37.3750000000,4,0.7991107106,,,
37.3906250000,4,0.4965269864,,,
37.4062500000,4,0.0152676702,,,
37.4218750000,4,-0.4358707964,,,
37.4375000000,4,-0.6928536296,,,
37.4531250000,4,-0.7224869132,,,
37.4687500000,4,-0.5816454291,,,
37.4843750000,4,-0.3947348893,,,
37.5000000000,4,-0.2668809891,,,
37.5156250000,4,-0.1876911968,,,
37.5312500000,4,-0.1069654971,,,
37.5468750000,4,0.0854601264,,,
37.5625000000,4,0.4261159003,,,
37.5781250000,4,0.9170765877,,,
37.5937500000,4,1.4314080477,,,
37.6093750000,4,1.8221980333,,,
37.6250000000,4,1.9557559490,,,
37.6406250000,4,1.7915159464,,,
37.6562500000,4,1.4121350050,,,
37.6718750000,4,0.9591515064,,,
37.6875000000,4,0.5841482878,,,
37.7031250000,4,0.3694846928,,,
37.7187500000,4,0.3083910048,,,
37.7343750000,4,0.3191305101,,,
37.7500000000,4,0.3369168043,,,
37.7656250000,4,0.3445476890,,,
37.7812500000,4,0.3905121982,,,
37.7968750000,4,0.4988335073,,,
37.8125000000,4,0.6969723105,,,
37.8281250000,4,0.9203931093,,,
37.8437500000,4,1.1132199764,,,
37.8593750000,4,1.2131390572,,,
37.8750000000,4,1.2163419724,,,
37.8906250000,4,1.1194210052,,,
37.9062500000,4,0.9073339105,,,
37.9218750000,4,0.5431463122,,,
37.9375000000,4,-0.0421007089,,,
37.9531250000,4,-0.8608247042,,,
37.9687500000,4,-1.8403789997,,,
37.9843750000,4,-2.8020799160,,,
38.0000000000,4,-3.5128018856,,,
38.0156250000,4,-3.7769989967,,,
38.0312500000,4,-3.4903919697,,,
38.0468750000,4,-2.7604329586,,,
38.0625000000,4,-1.8314919472,,,
38.0781250000,4,-0.9923449159,,,
38.0937500000,4,-0.4454033971,,,
38.1093750000,4,-0.2135968953,,,
38.1250000000,4,-0.1916490048,,,
38.1406250000,4,-0.1958201975,,,
38.1562500000,4,-0.0999527872,,,
38.1718750000,4,0.1135435998,,,
38.1875000000,4,0.3288100064,,,
38.2031250000,4,0.4254519939,,,
38.2187500000,4,0.3094924986,,,
38.2343750000,4,0.0111144204,,,
38.2500000000,4,-0.3604072928,,,
38.2656250000,4,-0.7045146227,,,
38.2812500000,4,-0.9214906096,,,
38.2968750000,4,-1.0392440557,,,
38.3125000000,4,-1.0651069880,,,
38.3281250000,4,-1.0592039824,,,
38.3437500000,4,-1.0089999437,,,
38.3593750000,4,-0.9147115946,,,
38.3750000000,4,-0.7619603872,,,
38.3906250000,4,-0.5539224744,,,
38.4062500000,4,-0.3269478083,,,
38.4218750000,4,-0.1279506981,,,
38.4375000000,4,-0.0056450660,,,
38.4531250000,4,0.0484526493,,,
38.4687500000,4,0.0398273803,,,
38.4843750000,4,-0.0192902107,,,
38.5000000000,4,-0.1190659031,,,
38.5156250000,4,-0.2580372989,,,
38.5312500000,4,-0.3928591907,,,
38.5468750000,4,-0.4464344084,,,
38.5625000000,4,-0.3004567027,,,
38.5781250000,4,0.0787550807,,,
38.5937500000,4,0.6415807009,,,
38.6093750000,4,1.2551610470,,,
38.6250000000,4,1.7500410080,,,
38.6406250000,4,1.9897300005,,,
38.6562500000,4,1.9386310577,,,
38.6718750000,4,1.6494239569,,,
38.6875000000,4,1.2041720152,,,
38.7031250000,4,0.7547945976,,,
38.7187500000,4,0.3986861110,,,
38.7343750000,4,0.1952338070,,,
38.7500000000,4,0.1568676978,,,
38.7656250000,4,0.2621037066,,,
38.7812500000,4,0.4433465004,,,
38.7968750000,4,0.6424118280,,,
38.8125000000,4,0.8190283179,,,
38.8281250000,4,0.9554275274,,,
38.8437500000,4,1.0556399822,,,
38.8593750000,4,1.0858930349,,,
38.8750000000,4,1.0375699997,,,
38.8906250000,4,0.8953059912,,,
38.9062500000,4,0.7252752185,,,
38.9218750000,4,0.6166754961,,,
38.9375000000,4,0.6794043183,,,
38.9531250000,4,0.9098122716,,,
38.9687500000,4,1.1438930035,,,
38.9843750000,4,1.0879470110,,,
39.0000000000,4,0.4847379029,,,
39.0156250000,4,-0.7069292068,,,
39.0312500000,4,-2.2023189068,,,
39.0468750000,4,-3.5250279903,,,
39.0625000000,4,-4.1773347855,,,
39.0781250000,4,-3.8812849522,,,
39.0937500000,4,-2.7943038940,,,
39.1093750000,4,-1.3497550488,,,
39.1250000000,4,-0.0648649931,,,
39.1406250000,4,0.7088943124,,,
39.1562500000,4,0.9120426178,,,
39.1718750000,4,0.7557526231,,,
39.1875000000,4,0.5144122243,,,
39.2031250000,4,0.3784574866,,,
39.2187500000,4,0.3573515117,,,
39.2343750000,4,0.3637134135,,,
39.2500000000,4,0.3492910862,,,
39.2656250000,4,0.3207099140,,,
39.2812500000,4,0.3552927971,,,
39.2968750000,4,0.4886631072,,,
39.3125000000,4,0.6792374253,,,
39.3281250000,4,0.8068193793,,,
39.3437500000,4,0.7949239016,,,
39.3593750000,4,0.6776638031,,,
39.3750000000,4,0.5735424161,,,
39.3906250000,4,0.6838256121,,,
39.4062500000,4,1.0852940083,,,
39.4218750000,4,1.7203789949,,,
39.4375000000,4,2.3908679485,,,
39.4531250000,4,2.8484599590,,,
39.4687500000,4,2.9585220814,,,
39.4843750000,4,2.7230761051,,,
39.5000000000,4,2.3200619221,,,
39.5156250000,4,1.9178880453,,,
39.5312500000,4,1.6525559425,,,
39.5468750000,4,1.4980490208,,,
39.5625000000,4,1.2904050350,,,
39.5781250000,4,0.8980695009,,,
39.5937500000,4,0.2882663906,,,
39.6093750000,4,-0.4080415964,,,
39.6250000000,4,-0.9853944778,,,
39.6406250000,4,-1.2675600052,,,
39.6562500000,4,-1.2928040028,,,
39.6718750000,4,-1.1706279516,,,
39.6875000000,4,-1.1131440401,,,
39.7031250000,4,-1.1985369921,,,
39.7187500000,4,-1.3404400349,,,
39.7343750000,4,-1.4009579420,,,
39.7500000000,4,-1.2859209776,,,
39.7656250000,4,-1.0761580467,,,
39.7812500000,4,-0.9914175868,,,
39.7968750000,4,-1.2709980011,,,
39.8125000000,4,-1.9671889544,,,
39.8281250000,4,-2.9048581123,,,
39.8437500000,4,-3.7966110706,,,
39.8593750000,4,-4.3348388672,,,
39.8750000000,4,-4.3942718506,,,
39.8906250000,4,-4.0302400589,,,
39.9062500000,4,-3.3972480297,,,
39.9218750000,4,-2.6638560295,,,
39.9375000000,4,-1.9639890194,,,
39.9531250000,4,-1.3125419617,,,
39.9687500000,4,-0.7315791845,,,
39.9843750000,4,-0.2100573033,,,
40.0000000000,5,0.2777261138,,,
40.0156250000,5,0.7246773839,,,
40.0312500000,5,1.1141799688,,,
40.0468750000,5,1.3766210079,,,
40.0625000000,5,1.4482630491,,,
40.0781250000,5,1.2579790354,,,
40.0937500000,5,0.8022742271,,,
40.1093750000,5,0.1641623974,,,
40.1250000000,5,-0.4901362956,,,
40.1406250000,5,-0.9249864221,,,
40.1562500000,5,-1.0229480267,,,
40.1718750000,5,-0.7125235200,,,
40.1875000000,5,-0.1124090031,,,
40.2031250000,5,0.6176248789,,,
40.2187500000,5,1.2903579473,,,
40.2343750000,5,1.7752519846,,,
40.2500000000,5,2.0042541027,,,
40.2656250000,5,2.0121760368,,,
40.2812500000,5,1.8824690580,,,
40.2968750000,5,1.6794029474,,,
40.3125000000,5,1.4572349787,,,
40.3281250000,5,1.2230529785,,,
40.3437500000,5,0.9658089876,,,
40.3593750000,5,0.7335162163,,,
40.3750000000,5,0.6056923866,,,
40.3906250000,5,0.6497262120,,,
40.4062500000,5,0.8800470233,,,
40.4218750000,5,1.2033900023,,,
40.4375000000,5,1.4722069502,,,
40.4531250000,5,1.5586409569,,,
40.4687500000,5,1.4499549866,,,
40.4843750000,5,1.2004790306,,,
40.5000000000,5,0.9897441864,,,
40.5156250000,5,0.9619098902,,,
40.5312500000,5,1.1516720057,,,
40.5468750000,5,1.4523780346,,,
40.5625000000,5,1.6514630318,,,
40.5781250000,5,1.5232800245,,,
40.5937500000,5,0.9946811199,,,
40.6093750000,5,0.1288101971,,,
40.6250000000,5,-0.8866943717,,,
40.6406250000,5,-1.8161660433,,,
40.6562500000,5,-2.5176041126,,,
40.6718750000,5,-2.9020619392,,,
40.6875000000,5,-3.0056200027,,,
40.7031250000,5,-2.8848130703,,,
40.7187500000,5,-2.6217720509,,,
40.7343750000,5,-2.2390170097,,,
40.7500000000,5,-1.7586439848,,,
40.7656250000,5,-1.2230839729,,,
40.7812500000,5,-0.6660752296,,,
40.7968750000,5,-0.1888768971,,,
40.8125000000,5,0.1551436931,,,
40.8281250000,5,0.3224343956,,,
40.8437500000,5,0.3002640903,,,
40.8593750000,5,0.1236628965,,,
40.8750000000,5,-0.1141005009,,,
40.8906250000,5,-0.2745535076,,,
40.9062500000,5,-0.2017485946,,,
40.9218750000,5,0.1935970932,,,
40.9375000000,5,0.9064847827,,,
40.9531250000,5,1.7696629763,,,
40.9687500000,5,2.5342381001,,,
40.9843750000,5,2.9887750149,,,
41.0000000000,5,3.0309820175,,,
41.0156250000,5,2.7066090107,,,
41.0312500000,5,2.1717910767,,,
41.0468750000,5,1.5673209429,,,
41.0625000000,5,0.9594364762,,,
41.0781250000,5,0.3192766905,,,
41.0937500000,5,-0.4455449879,,,
41.1093750000,5,-1.3272279501,,,
41.1250000000,5,-2.2282478809,,,
41.1406250000,5,-2.9693300724,,,
41.1562500000,5,-3.3716700077,,,
41.1718750000,5,-3.3329849243,,,
41.1875000000,5,-2.9242520332,,,
41.2031250000,5,-2.3408560753,,,
41.2187500000,5,-1.8086019754,,,
41.2343750000,5,-1.4970719814,,,
41.2500000000,5,-1.4306709766,,,
41.2656250000,5,-1.4458450079,,,
41.2812500000,5,-1.3449970484,,,
41.2968750000,5,-0.9469004273,,,
41.3125000000,5,-0.2162750065,,,
41.3281250000,5,0.7021837234,,,
41.3437500000,5,1.5995670557,,,
41.3593750000,5,2.2818191051,,,
41.3750000000,5,2.6637129784,,,
41.3906250000,5,2.8152379990,,,
41.4062500000,5,2.8303530216,,,
41.4218750000,5,2.8072669506,,,
41.4375000000,5,2.7370541096,,,
41.4531250000,5,2.5953299999,,,
41.4687500000,5,2.3793129921,,,
41.4843750000,5,2.1471459866,,,
41.5000000000,5,2.0172619820,,,
41.5156250000,5,2.0772800446,,,
41.5312500000,5,2.3161919117,,,
41.5468750000,5,2.6058490276,,,
41.5625000000,5,2.8062489033,,,
41.5781250000,5,2.8346168995,,,
41.5937500000,5,2.7190470695,,,
41.6093750000,5,2.5564670563,,,
41.6250000000,5,2.4566359520,,,
41.6406250000,5,2.4424109459,,,
41.6562500000,5,2.4256870747,,,
41.6718750000,5,2.2801599503,,,
41.6875000000,5,1.9057099819,,,
41.7031250000,5,1.3199650049,,,
41.7187500000,5,0.6033993959,,,
41.7343750000,5,-0.0858814716,,,
41.7500000000,5,-0.6278647184,,,
41.7656250000,5,-0.9963126183,,,
41.7812500000,5,-1.2410579920,,,
41.7968750000,5,-1.4596270323,,,
41.8125000000,5,-1.7561069727,,,
41.8281250000,5,-2.1706969738,,,
41.8437500000,5,-2.6770250797,,,
41.8593750000,5,-3.1490139961,,,
41.8750000000,5,-3.4835369587,,,
41.8906250000,5,-3.6670770645,,,
41.9062500000,5,-3.8270149231,,,
41.9218750000,5,-4.1362781525,,,
41.9375000000,5,-4.7348070145,,,
41.9531250000,5,-5.5448179245,,,
41.9687500000,5,-6.3097810745,,,
41.9843750000,5,-6.6886801720,,,
42.0000000000,5,-6.4471812248,,,
42.0156250000,5,-5.6195721626,,,
42.0312500000,5,-4.3978872299,,,
42.0468750000,5,-3.0695040226,,,
42.0625000000,5,-1.8029580116,,,
42.0781250000,5,-0.6209086180,,,
42.0937500000,5,0.5824664235,,,
42.1093750000,5,1.7739210129,,,
42.1250000000,5,2.7983620167,,,
42.1406250000,5,3.3805160522,,,
42.1562500000,5,3.3049941063,,,
42.1718750000,5,2.5796399117,,,
42.1875000000,5,1.4847279787,,,
42.2031250000,5,0.4172387123,,,
42.2187500000,5,-0.3052026033,,,
42.2343750000,5,-0.5897613168,,,
42.2500000000,5,-0.5518277287,,,
42.2656250000,5,-0.3794685006,,,
42.2812500000,5,-0.2317762971,,,
42.2968750000,5,-0.1179914027,,,
42.3125000000,5,0.0407933593,,,
42.3281250000,5,0.3351640105,,,
42.3437500000,5,0.7352644205,,,
42.3593750000,5,1.1588230133,,,
42.3750000000,5,1.4798369408,,,
42.3906250000,5,1.6463049650,,,
42.4062500000,5,1.7025469542,,,
42.4218750000,5,1.7466859818,,,
42.4375000000,5,1.8187470436,,,
42.4531250000,5,1.8740979433,,,
42.4687500000,5,1.7684439421,,,
42.4843750000,5,1.3858369589,,,
42.5000000000,5,0.7143657804,,,
42.5156250000,5,-0.1173484027,,,
42.5312500000,5,-0.9096968770,,,
42.5468750000,5,-1.4561870098,,,
42.5625000000,5,-1.6387799978,,,
42.5781250000,5,-1.4287379980,,,
42.5937500000,5,-0.8513354063,,,
42.6093750000,5,-0.0108364196,,,
42.6250000000,5,0.9445539117,,,
42.6406250000,5,1.7643740177,,,
42.6562500000,5,2.2083399296,,,
42.6718750000,5,2.1010510921,,,
42.6875000000,5,1.4902540445,,,
42.7031250000,5,0.5897182822,,,
42.7187500000,5,-0.2259436995,,,
42.7343750000,5,-0.6672400832,,,
42.7500000000,5,-0.6728640795,,,
42.7656250000,5,-0.4054987133,,,
42.7812500000,5,-0.1316647977,,,
42.7968750000,5,-0.0342074595,,,
42.8125000000,5,-0.1241926029,,,
42.8281250000,5,-0.2672269046,,,
42.8437500000,5,-0.2884916961,,,
42.8593750000,5,-0.0891849995,,,
42.8750000000,5,0.2703027129,,,
42.8906250000,5,0.6926515102,,,
42.9062500000,5,1.0637780428,,,
42.9218750000,5,1.3301639557,,,
42.9375000000,5,1.5076730251,,,
42.9531250000,5,1.5433739424,,,
42.9687500000,5,1.4110829830,,,
42.9843750000,5,1.0620330572,,,
43.0000000000,5,0.4930697978,,,
43.0156250000,5,-0.2200217992,,,
43.0312500000,5,-1.0297069550,,,
43.0468750000,5,-1.7740859985,,,
43.0625000000,5,-2.3671860695,,,
43.0781250000,5,-2.7062230110,,,
43.0937500000,5,-2.7191920280,,,
43.1093750000,5,-2.4040019512,,,
43.1250000000,5,-1.7932729721,,,
43.1406250000,5,-1.0853250027,,,
43.1562500000,5,-0.4494661093,,,
43.1718750000,5,-0.0416048802,,,
43.1875000000,5,0.1418340951,,,
43.2031250000,5,0.2256848961,,,
43.2187500000,5,0.3619976044,,,
43.2343750000,5,0.6076139212,,,
43.2500000000,5,0.9119753838,,,
43.2656250000,5,1.1315009594,,,
43.2812500000,5,1.1624239683,,,
43.2968750000,5,1.0542529821,,,
43.3125000000,5,0.9178267121,,,
43.3281250000,5,0.8995906115,,,
43.3437500000,5,1.0212750435,,,
43.3593750000,5,1.2164859772,,,
43.3750000000,5,1.3280479908,,,
43.3906250000,5,1.3082439899,,,
43.4062500000,5,1.1429979801,,,
43.4218750000,5,0.9433388114,,,
43.4375000000,5,0.8379251957,,,
43.4531250000,5,0.8823465705,,,
43.4687500000,5,1.0800830126,,,
43.4843750000,5,1.3882900476,,,
43.5000000000,5,1.7592430115,,,
43.5156250000,5,2.1294350624,,,
43.5312500000,5,2.3822839260,,,
43.5468750000,5,2.3775629997,,,
43.5625000000,5,2.0160501003,,,
43.5781250000,5,1.2951869965,,,
43.5937500000,5,0.3396612108,,,
43.6093750000,5,-0.6603652239,,,
43.6250000000,5,-1.4675810337,,,
43.6406250000,5,-1.9442809820,,,
43.6562500000,5,-2.0460031033,,,
43.6718750000,5,-1.8114279509,,,
43.6875000000,5,-1.3332070112,,,
43.7031250000,5,-0.7436022758,,,
43.7187500000,5,-0.1669588983,,,
43.7343750000,5,0.2762995064,,,
43.7500000000,5,0.4992874861,,,
43.7656250000,5,0.4435822070,,,
43.7812500000,5,0.0829989910,,,
43.7968750000,5,-0.5882791281,,,
43.8125000000,5,-1.5244040489,,,
43.8281250000,5,-2.6218008995,,,
43.8437500000,5,-3.6649129391,,,
43.8593750000,5,-4.3888988495,,,
43.8750000000,5,-4.5911269188,,,
43.8906250000,5,-4.1721658707,,,
43.9062500000,5,-3.2775459290,,,
43.9218750000,5,-2.1678230762,,,
43.9375000000,5,-1.1479350328,,,
43.9531250000,5,-0.4026989043,,,
43.9687500000,5,0.0650507808,,,
43.9843750000,5,0.3783339858,,,
44.0000000000,5,0.6617053151,,,
44.0156250000,5,0.9323343039,,,
44.0312500000,5,1.1268409491,,,
44.0468750000,5,1.1157380342,,,
44.0625000000,5,0.8797777891,,,
44.0781250000,5,0.5405892730,,,
44.0937500000,5,0.2973622978,,,
44.1093750000,5,0.2985301912,,,
44.1250000000,5,0.5771586895,,,
44.1406250000,5,1.0561189651,,,
44.1562500000,5,1.5578980446,,,
44.1718750000,5,1.9489699602,,,
44.1875000000,5,2.1562800407,,,
44.2031250000,5,2.1733410358,,,
44.2187500000,5,2.0525739193,,,
44.2343750000,5,1.8567229509,,,
44.2500000000,5,1.7088379860,,,
44.2656250000,5,1.6991510391,,,
44.2812500000,5,1.9134449959,,,
44.2968750000,5,2.3468859196,,,
44.3125000000,5,2.9085810184,,,
44.3281250000,5,3.3156371117,,,
44.3437500000,5,3.2916219234,,,
44.3593750000,5,2.6334750652,,,
44.3750000000,5,1.3510940075,,,
44.3906250000,5,-0.2866010964,,,
44.4062500000,5,-1.8440150023,,,
44.4218750000,5,-2.8791160583,,,
44.4375000000,5,-3.1758959293,,,
44.4531250000,5,-2.7708859444,,,
44.4687500000,5,-1.9486479759,,,
44.4843750000,5,-1.0702849627,,,
44.5000000000,5,-0.4647757113,,,
44.5156250000,5,-0.2526319921,,,
44.5312500000,5,-0.3644034863,,,
44.5468750000,5,-0.6228626966,,,
44.5625000000,5,-0.8688827753,,,
44.5781250000,5,-1.0538580418,,,
44.5937500000,5,-1.2204990387,,,
44.6093750000,5,-1.4632680416,,,
44.6250000000,5,-1.7889399529,,,
44.6406250000,5,-2.1330449581,,,
44.6562500000,5,-2.3459949493,,,
44.6718750000,5,-2.3178579807,,,
44.6875000000,5,-2.0365889072,,,
44.7031250000,5,-1.5896309614,,,
44.7187500000,5,-1.1292810440,,,
44.7343750000,5,-0.7886598706,,,
44.7500000000,5,-0.5817406178,,,
44.7656250000,5,-0.4360922873,,,
44.7812500000,5,-0.2333443016,,,
44.7968750000,5,0.0847118422,,,
44.8125000000,5,0.5220673084,,,
44.8281250000,5,0.9735190868,,,
44.8437500000,5,1.3201129436,,,
44.8593750000,5,1.4464859962,,,
44.8750000000,5,1.3170789480,,,
44.8906250000,5,0.9398447275,,,
44.9062500000,5,0.3990992010,,,
44.9218750000,5,-0.1772409976,,,
44.9375000000,5,-0.6506701112,,,
44.9531250000,5,-0.8630468249,,,
44.9687500000,5,-0.7317336202,,,
44.9843750000,5,-0.2388163060,,,
45.0000000000,5,0.5017200708,,,
45.0156250000,5,1.3224990368,,,
45.0312500000,5,2.0236980915,,,
45.0468750000,5,2.4501819611,,,
45.0625000000,5,2.5094380379,,,
45.0781250000,5,2.2233200073,,,
45.0937500000,5,1.6512149572,,,
45.1093750000,5,0.9442656040,,,
45.1250000000,5,0.2655799091,,,
45.1406250000,5,-0.2424222976,,,
45.1562500000,5,-0.5142549872,,,
45.1718750000,5,-0.5754824877,,,
45.1875000000,5,-0.5393459797,,,
45.2031250000,5,-0.5872234106,,,
45.2187500000,5,-0.8016149998,,,
45.2343750000,5,-1.2245390415,,,
45.2500000000,5,-1.7239769697,,,
45.2656250000,5,-2.1265540123,,,
45.2812500000,5,-2.2761669159,,,
45.2968750000,5,-2.1399919987,,,
45.3125000000,5,-1.8368020058,,,
45.3281250000,5,-1.5746120214,,,
45.3437500000,5,-1.5058389902,,,
45.3593750000,5,-1.6973220110,,,
45.3750000000,5,-2.0489439964,,,
45.3906250000,5,-2.3398869038,,,
45.4062500000,5,-2.3649389744,,,
45.4218750000,5,-1.9867889881,,,
45.4375000000,5,-1.2489700317,,,
45.4531250000,5,-0.2955270112,,,
45.4687500000,5,0.6639019847,,,
45.4843750000,5,1.4969630241,,,
45.5000000000,5,2.1410911083,,,
45.5156250000,5,2.6293671131,,,
45.5312500000,5,3.0011470318,,,
45.5468750000,5,3.2300820351,,,
45.5625000000,5,3.2420508862,,,
45.5781250000,5,2.9707219601,,,
45.5937500000,5,2.4240260124,,,
45.6093750000,5,1.7182550430,,,
45.6250000000,5,1.0103089809,,,
45.6406250000,5,0.4547154903,,,
45.6562500000,5,0.0974074602,,,
45.6718750000,5,-0.0499461293,,,
45.6875000000,5,-0.0508393608,,,
45.7031250000,5,0.0698287189,,,
45.7187500000,5,0.3385545909,,,
45.7343750000,5,0.7683851719,,,
45.7500000000,5,1.3357219696,,,
45.7656250000,5,1.9064849615,,,
45.7812500000,5,2.3255450726,,,
45.7968750000,5,2.4291479588,,,
45.8125000000,5,2.1782219410,,,
45.8281250000,5,1.6350660324,,,
45.8437500000,5,0.9393844008,,,
45.8593750000,5,0.2478051931,,,
45.8750000000,5,-0.3468525112,,,
45.8906250000,5,-0.7681580186,,,
45.9062500000,5,-0.9879307747,,,
45.9218750000,5,-0.9642584920,,,
45.9375000000,5,-0.6920244098,,,
45.9531250000,5,-0.2092106044,,,
45.9687500000,5,0.3702400029,,,
45.9843750000,5,0.9172142744,,,
46.0000000000,5,1.2653009892,,,
46.0156250000,5,1.2691620588,,,
46.0312500000,5,0.8528537154,,,
46.0468750000,5,0.0226882696,,,
46.0625000000,5,-1.1063280106,,,
46.0781250000,5,-2.3386280537,,,
46.0937500000,5,-3.4236760139,,,
46.1093750000,5,-4.1202888489,,,
46.1250000000,5,-4.3083820343,,,
46.1406250000,5,-4.0050640106,,,
46.1562500000,5,-3.4251670837,,,
46.1718750000,5,-2.8533449173,,,
46.1875000000,5,-2.5282249451,,,
46.2031250000,5,-2.5321929455,,,
46.2187500000,5,-2.7254550457,,,
46.2343750000,5,-2.8384459019,,,
46.2500000000,5,-2.5580410957,,,
46.2656250000,5,-1.7890080214,,,
46.2812500000,5,-0.6180521846,,,
46.2968750000,5,0.6484392881,,,
46.3125000000,5,1.6587430239,,,
46.3281250000,5,2.1351790428,,,
46.3437500000,5,2.0139269829,,,
46.3593750000,5,1.4280040264,,,
46.3750000000,5,0.5936350822,,,
46.3906250000,5,-0.2481642067,,,
46.4062500000,5,-0.9733853936,,,
46.4218750000,5,-1.4743659496,,,
46.4375000000,5,-1.7182760239,,,
46.4531250000,5,-1.6887600422,,,
46.4687500000,5,-1.4026980400,,,
46.4843750000,5,-0.8884177208,,,
46.5000000000,5,-0.2207763046,,,
46.5156250000,5,0.5152909160,,,
46.5312500000,5,1.2545709610,,,
46.5468750000,5,1.9157550335,,,
46.5625000000,5,2.4724199772,,,
46.5781250000,5,2.8748550415,,,
46.5937500000,5,3.0937089920,,,
46.6093750000,5,3.1103820801,,,
46.6250000000,5,2.9391829967,,,
46.6406250000,5,2.6384270191,,,
46.6562500000,5,2.2590739727,,,
46.6718750000,5,1.8328870535,,,
46.6875000000,5,1.3514629602,,,
46.7031250000,5,0.8024970889,,,
46.7187500000,5,0.2251712978,,,
46.7343750000,5,-0.2815684974,,,
46.7500000000,5,-0.5685157776,,,
46.7656250000,5,-0.4985319972,,,
46.7812500000,5,-0.0395482183,,,
46.7968750000,5,0.6979519725,,,
46.8125000000,5,1.5139429569,,,
46.8281250000,5,2.1437690258,,,
46.8437500000,5,2.4133911133,,,
46.8593750000,5,2.2864279747,,,
46.8750000000,5,1.8799910545,,,
46.8906250000,5,1.3855220079,,,
46.9062500000,5,0.9502360225,,,
46.9218750000,5,0.6035863757,,,
46.9375000000,5,0.2528096139,,,
46.9531250000,5,-0.2263458073,,,
46.9687500000,5,-0.9088333845,,,
46.9843750000,5,-1.7667200565,,,
47.0000000000,5,-2.6767508984,,,
47.0156250000,5,-3.4748868942,,,
47.0312500000,5,-4.0116448402,,,
47.0468750000,5,-4.1723999977,,,
47.0625000000,5,-3.9721560478,,,
47.0781250000,5,-3.4278240204,,,
47.0937500000,5,-2.6702339649,,,
47.1093750000,5,-1.8159730434,,,
47.1250000000,5,-0.9959707260,,,
47.1406250000,5,-0.2741450071,,,
47.1562500000,5,0.3177284896,,,
47.1718750000,5,0.7773290277,,,
47.1875000000,5,1.1399350166,,,
47.2031250000,5,1.3722239733,,,
47.2187500000,5,1.4209100008,,,
47.2343750000,5,1.2369530201,,,
47.2500000000,5,0.8159803152,,,
47.2656250000,5,0.2032167017,,,
47.2812500000,5,-0.4661226869,,,
47.2968750000,5,-1.0500240326,,,
47.3125000000,5,-1.3996880054,,,
47.3281250000,5,-1.4081310034,,,
47.3437500000,5,-1.0500349998,,,
47.3593750000,5,-0.3487673104,,,
47.3750000000,5,0.5446270704,,,
47.3906250000,5,1.4701240063,,,
47.4062500000,5,2.2494299412,,,
47.4218750000,5,2.7342710495,,,
47.4375000000,5,2.8334019184,,,
47.4531250000,5,2.5662999153,,,
47.4687500000,5,2.0076360703,,,
47.4843750000,5,1.2864140272,,,
47.5000000000,5,0.5536689758,,,
47.5156250000,5,-0.1048517972,,,
47.5312500000,5,-0.6517819166,,,
47.5468750000,5,-1.1326409578,,,
47.5625000000,5,-1.5775090456,,,
47.5781250000,5,-1.9235379696,,,
47.5937500000,5,-2.0483260155,,,
47.6093750000,5,-1.7936409712,,,
47.6250000000,5,-1.1090140343,,,
47.6406250000,5,-0.1229567975,,,
47.6562500000,5,0.8762109280,,,
47.6718750000,5,1.5547380447,,,
47.6875000000,5,1.7086679935,,,
47.7031250000,5,1.3136750460,,,
47.7187500000,5,0.5545145869,,,
47.7343750000,5,-0.3083752096,,,
47.7500000000,5,-1.0544899702,,,
47.7656250000,5,-1.5638979673,,,
47.7812500000,5,-1.8042429686,,,
47.7968750000,5,-1.8128039837,,,
47.8125000000,5,-1.6002659798,,,
47.8281250000,5,-1.1767539978,,,
47.8437500000,5,-0.5633159280,,,
47.8593750000,5,0.1805060953,,,
47.8750000000,5,0.9472864866,,,
47.8906250000,5,1.6075739861,,,
47.9062500000,5,2.0295190811,,,
47.9218750000,5,2.0654489994,,,
47.9375000000,5,1.6645909548,,,
47.9531250000,5,0.8904256821,,,
47.9687500000,5,-0.0830779076,,,
47.9843750000,5,-0.9799668789,,,
48.0000000000,6,-1.5431740284,,,
48.0156250000,6,-1.6575009823,,,
48.0312500000,6,-1.4026119709,,,
48.0468750000,6,-1.0269240141,,,
48.0625000000,6,-0.8004450798,,,
48.0781250000,6,-0.8717427254,,,
48.0937500000,6,-1.2190690041,,,
48.1093750000,6,-1.6044590473,,,
48.1250000000,6,-1.7946490049,,,
48.1406250000,6,-1.6011910439,,,
48.1562500000,6,-0.9955049753,,,
48.1718750000,6,-0.1088287979,,,
48.1875000000,6,0.8525980115,,,
48.2031250000,6,1.7105760574,,,
48.2187500000,6,2.3929340839,,,
48.2343750000,6,2.9181489944,,,
48.2500000000,6,3.3586039543,,,
48.2656250000,6,3.7488300800,,,
48.2812500000,6,4.0397939682,,,
48.2968750000,6,4.1256008148,,,
48.3125000000,6,3.8611009121,,,
48.3281250000,6,3.1867051125,,,
48.3437500000,6,2.1700229645,,,
48.3593750000,6,0.9975960255,,,
48.3750000000,6,-0.0827164575,,,
48.3906250000,6,-0.8329877853,,,
48.4062500000,6,-1.1239689589,,,
48.4218750000,6,-0.9860147238,,,
48.4375000000,6,-0.5749089122,,,
48.4531250000,6,-0.1144725010,,,
48.4687500000,6,0.1952046007,,,
48.4843750000,6,0.2382194996,,,
48.5000000000,6,0.0227525197,,,
48.5156250000,6,-0.3528606892,,,
48.5312500000,6,-0.7078006268,,,
48.5468750000,6,-0.9049664140,,,
48.5625000000,6,-0.8667178750,,,
48.5781250000,6,-0.6325978041,,,
48.5937500000,6,-0.3431099951,,,
48.6093750000,6,-0.1100059003,,,
48.6250000000,6,0.0066201692,,,
48.6406250000,6,0.0504961014,,,
48.6562500000,6,0.0539205112,,,
48.6718750000,6,0.0723824501,,,
48.6875000000,6,0.0609421693,,,
48.7031250000,6,-0.0320147313,,,
48.7187500000,6,-0.2111078948,,,
48.7343750000,6,-0.4133828878,,,
48.7500000000,6,-0.5217767954,,,
48.7656250000,6,-0.4301840067,,,
48.7812500000,6,-0.1482889950,,,
48.7968750000,6,0.2027496994,,,
48.8125000000,6,0.4505654871,,,
48.8281250000,6,0.4524069130,,,
48.8437500000,6,0.1718789041,,,
48.8593750000,6,-0.2793101966,,,
48.8750000000,6,-0.7268075943,,,
48.8906250000,6,-0.9965534210,,,
48.9062500000,6,-0.9809169173,,,
48.9218750000,6,-0.6875591874,,,
48.9375000000,6,-0.1825025976,,,
48.9531250000,6,0.3996399939,,,
48.9687500000,6,0.9173921943,,,
48.9843750000,6,1.2263289690,,,
49.0000000000,6,1.2414729595,,,
49.0156250000,6,0.9366853833,,,
49.0312500000,6,0.3878082931,,,
49.0468750000,6,-0.2875098884,,,
49.0625000000,6,-0.9598640800,,,
49.0781250000,6,-1.5714139938,,,
49.0937500000,6,-2.1025929451,,,
49.1093750000,6,-2.5709750652,,,
49.1250000000,6,-2.9645109177,,,
49.1406250000,6,-3.2172770500,,,
49.1562500000,6,-3.2713379860,,,
49.1718750000,6,-3.0714690685,,,
49.1875000000,6,-2.6650810242,,,
49.2031250000,6,-2.1737279892,,,
49.2187500000,6,-1.7092339993,,,
49.2343750000,6,-1.3051840067,,,
49.2500000000,6,-0.9147940278,,,
49.2656250000,6,-0.4229323864,,,
49.2812500000,6,0.2039784044,,,
49.2968750000,6,0.8549466729,,,
49.3125000000,6,1.3194780350,,,
49.3281250000,6,1.3913069963,,,
49.3437500000,6,1.0407780409,,,
49.3593750000,6,0.4466553926,,,
49.3750000000,6,-0.0771974921,,,
49.3906250000,6,-0.2929345965,,,
49.4062500000,6,-0.1801650971,,,
49.4218750000,6,0.0632458925,,,
49.4375000000,6,0.1551114023,,,
49.4531250000,6,-0.0631049871,,,
49.4687500000,6,-0.4697703123,,,
49.4843750000,6,-0.7339673042,,,
49.5000000000,6,-0.4902079105,,,
49.5156250000,6,0.4250913858,,,
49.5312500000,6,1.8829749823,,,
49.5468750000,6,3.4857490063,,,
49.5625000000,6,4.7979397774,,,
49.5781250000,6,5.4810261726,,,
49.5937500000,6,5.4602680206,,,
49.6093750000,6,4.8576688766,,,
49.6250000000,6,3.8890469074,,,
49.6406250000,6,2.7428359985,,,
49.6562500000,6,1.5273959637,,,
49.6718750000,6,0.3311085999,,,
49.6875000000,6,-0.7252436876,,,
49.7031250000,6,-1.4680830240,,,
49.7187500000,6,-1.7278950214,,,
49.7343750000,6,-1.4504569769,,,
49.7500000000,6,-0.7812588215,,,
49.7656250000,6,-0.0455853902,,,
49.7812500000,6,0.3872275054,,,
49.7968750000,6,0.3258892000,,,
49.8125000000,6,-0.1798277944,,,
49.8281250000,6,-0.7954928279,,,
49.8437500000,6,-1.1482930183,,,
49.8593750000,6,-1.0066250563,,,
49.8750000000,6,-0.4551976919,,,
49.8906250000,6,0.1752651036,,,
49.9062500000,6,0.5065925121,,,
49.9218750000,6,0.3281277120,,,
49.9375000000,6,-0.3229432106,,,
49.9531250000,6,-1.2016839981,,,
49.9687500000,6,-2.0153698921,,,
49.9843750000,6,-2.5968530178,,,
50.0000000000,6,-2.8614439964,,,
50.0156250000,6,-2.8479509354,,,
50.0312500000,6,-2.5641028881,,,
50.0468750000,6,-2.0175220966,,,
50.0625000000,6,-1.1930589676,,,
50.0781250000,6,-0.1870232970,,,
50.0937500000,6,0.8110901713,,,
50.1093750000,6,1.5462139845,,,
50.1250000000,6,1.7883759737,,,
50.1406250000,6,1.4763319492,,,
50.1562500000,6,0.7389854789,,,
50.1718750000,6,-0.2177888006,,,
50.1875000000,6,-1.1407910585,,,
50.2031250000,6,-1.8331099749,,,
50.2187500000,6,-2.2441229820,,,
50.2343750000,6,-2.3782410622,,,
50.2500000000,6,-2.2721419334,,,
50.2656250000,6,-1.9430630207,,,
50.2812500000,6,-1.3995779753,,,
50.2968750000,6,-0.6642088294,,,
50.3125000000,6,0.1427682936,,,
50.3281250000,6,0.9052761197,,,
50.3437500000,6,1.4831190109,,,
50.3593750000,6,1.8348579407,,,
50.3750000000,6,2.0641620159,,,
50.3906250000,6,2.3138520718,,,
50.4062500000,6,2.7008569241,,,
50.4218750000,6,3.2057840824,,,
50.4375000000,6,3.6639330387,,,
50.4531250000,6,3.8545980453,,,
50.4687500000,6,3.6330330372,,,
50.4843750000,6,3.0097959042,,,
50.5000000000,6,2.1573069096,,,
50.5156250000,6,1.3103489876,,,
50.5312500000,6,0.6630582213,,,
50.5468750000,6,0.2665384114,,,
50.5625000000,6,0.0736631975,,,
50.5781250000,6,-0.0664240122,,,
50.5937500000,6,-0.2799769044,,,
50.6093750000,6,-0.6032741070,,,
50.6250000000,6,-0.9789428711,,,
50.6406250000,6,-1.2805860043,,,
50.6562500000,6,-1.4049739838,,,
50.6718750000,6,-1.3574810028,,,
50.6875000000,6,-1.2548459768,,,
50.7031250000,6,-1.2606639862,,,
50.7187500000,6,-1.5102909803,,,
50.7343750000,6,-2.0264940262,,,
50.7500000000,6,-2.6631479263,,,
50.7656250000,6,-3.2342569828,,,
50.7812500000,6,-3.5240979195,,,
50.7968750000,6,-3.4413900375,,,
50.8125000000,6,-3.0508289337,,,
50.8281250000,6,-2.5187849998,,,
50.8437500000,6,-1.9959169626,,,
50.8593750000,6,-1.5717699528,,,
50.8750000000,6,-1.2201689482,,,
50.8906250000,6,-0.8135548234,,,
50.9062500000,6,-0.2793453932,,,
50.9218750000,6,0.3569979072,,,
50.9375000000,6,0.9653211236,,,
50.9531250000,6,1.3569060564,,,
50.9687500000,6,1.3927990198,,,
50.9843750000,6,1.0709530115,,,
51.0000000000,6,0.5244479179,,,
51.0156250000,6,-0.0407186411,,,
51.0312500000,6,-0.4334861934,,,
51.0468750000,6,-0.6078479290,,,
51.0625000000,6,-0.5898606181,,,
51.0781250000,6,-0.5045421720,,,
51.0937500000,6,-0.3865301907,,,
51.1093750000,6,-0.2227251977,,,
51.1250000000,6,0.0844707489,,,
51.1406250000,6,0.5956581831,,,
51.1562500000,6,1.2607530355,,,
51.1718750000,6,1.8947860003,,,
51.1875000000,6,2.2442700863,,,
51.2031250000,6,2.1230890751,,,
51.2187500000,6,1.5349760056,,,
51.2343750000,6,0.6441493034,,,
51.2500000000,6,-0.2245319039,,,
51.2656250000,6,-0.8054736853,,,
51.2812500000,6,-0.9580280781,,,
51.2968750000,6,-0.7477980852,,,
51.3125000000,6,-0.3505094051,,,
51.3281250000,6,0.0508340597,,,
51.3437500000,6,0.3592433035,,,
51.3593750000,6,0.6656395197,,,
51.3750000000,6,1.0569720268,,,
51.3906250000,6,1.6138650179,,,
51.4062500000,6,2.2468531132,,,
51.4218750000,6,2.7314279079,,,
51.4375000000,6,2.8414731026,,,
51.4531250000,6,2.4807031155,,,
51.4687500000,6,1.7738410234,,,
51.4843750000,6,0.9265481234,,,
51.5000000000,6,0.1710944027,,,
51.5156250000,6,-0.4631563127,,,
51.5312500000,6,-1.0598690510,,,
51.5468750000,6,-1.7540019751,,,
51.5625000000,6,-2.5335459709,,,
51.5781250000,6,-3.2347929478,,,
51.5937500000,6,-3.5776689053,,,
51.6093750000,6,-3.3889958858,,,
51.6250000000,6,-2.7010478973,,,
51.6406250000,6,-1.7508579493,,,
51.6562500000,6,-0.8420789242,,,
51.6718750000,6,-0.1790125072,,,
51.6875000000,6,0.2555504143,,,
51.7031250000,6,0.5968307257,,,
51.7187500000,6,1.0251200199,,,
51.7343750000,6,1.5125099421,,,
51.7500000000,6,1.8942650557,,,
51.7656250000,6,1.9084739685,,,
51.7812500000,6,1.4575250149,,,
51.7968750000,6,0.6124604940,,,
51.8125000000,6,-0.3063941896,,,
51.8281250000,6,-0.9278537035,,,
51.8437500000,6,-1.0303519964,,,
51.8593750000,6,-0.6032968760,,,
51.8750000000,6,0.0549679399,,,
51.8906250000,6,0.6328974962,,,
51.9062500000,6,0.9003797770,,,
51.9218750000,6,0.9038043022,,,
51.9375000000,6,0.8968467712,,,
51.9531250000,6,1.1423369646,,,
51.9687500000,6,1.7676630020,,,
51.9843750000,6,2.6390750408,,,
52.0000000000,6,3.4487390518,,,
52.0156250000,6,3.8466451168,,,
52.0312500000,6,3.6481590271,,,
52.0468750000,6,2.8747711182,,,
52.0625000000,6,1.7595720291,,,
52.0781250000,6,0.5827146769,,,
52.0937500000,6,-0.3862127066,,,
52.1093750000,6,-1.0160609484,,,
52.1250000000,6,-1.2714300156,,,
52.1406250000,6,-1.2118459940,,,
52.1562500000,6,-0.8816878200,,,
52.1718750000,6,-0.3866379857,,,
52.1875000000,6,0.1629913002,,,
52.2031250000,6,0.6304590702,,,
52.2187500000,6,0.8521813154,,,
52.2343750000,6,0.7072892785,,,
52.2500000000,6,0.1741861999,,,
52.2656250000,6,-0.6424111128,,,
52.2812500000,6,-1.5005040169,,,
52.2968750000,6,-2.1247389317,,,
52.3125000000,6,-2.3227670193,,,
52.3281250000,6,-2.0791659355,,,
52.3437500000,6,-1.5624769926,,,
52.3593750000,6,-1.0155019760,,,
52.3750000000,6,-0.6355919242,,,
52.3906250000,6,-0.4943698943,,,
52.4062500000,6,-0.5486757159,,,
52.4218750000,6,-0.6504585147,,,
52.4375000000,6,-0.7521108985,,,
52.4531250000,6,-0.8320927024,,,
52.4687500000,6,-0.9539058208,,,
52.4843750000,6,-1.1108230352,,,
52.5000000000,6,-1.2547279596,,,
52.5156250000,6,-1.2928700447,,,
52.5312500000,6,-1.2179609537,,,
52.5468750000,6,-1.0546879768,,,
52.5625000000,6,-0.9244598746,,,
52.5781250000,6,-0.8956102133,,,
52.5937500000,6,-0.9246789217,,,
52.6093750000,6,-0.8873847127,,,
52.6250000000,6,-0.6794840097,,,
52.6406250000,6,-0.3176439106,,,
52.6562500000,6,0.0751305223,,,
52.6718750000,6,0.3189185858,,,
52.6875000000,6,0.3471099138,,,
52.7031250000,6,0.2692632973,,,
52.7187500000,6,0.2827368081,,,
52.7343750000,6,0.5324891806,,,
52.7500000000,6,0.9723914862,,,
52.7656250000,6,1.3385050297,,,
52.7812500000,6,1.3420469761,,,
52.7968750000,6,0.8174030185,,,
52.8125000000,6,-0.1294216067,,,
52.8281250000,6,-1.1700819731,,,
52.8437500000,6,-1.9233989716,,,
52.8593750000,6,-2.1339728832,,,
52.8750000000,6,-1.7700489759,,,
52.8906250000,6,-0.9691851735,,,
52.9062500000,6,0.0020247551,,,
52.9218750000,6,0.9388687015,,,
52.9375000000,6,1.7056070566,,,
52.9531250000,6,2.2736771107,,,
52.9687500000,6,2.6476340294,,,
52.9843750000,6,2.8464179039,,,
53.0000000000,6,2.8342380524,,,
53.0156250000,6,2.6009581089,,,
53.0312500000,6,2.1441340446,,,
53.0468750000,6,1.5824079514,,,
53.0625000000,6,1.0594730377,,,
53.0781250000,6,0.7485731840,,,
53.0937500000,6,0.7226132154,,,
53.1093750000,6,0.9214568734,,,
53.1250000000,6,1.1440609694,,,
53.1406250000,6,1.1355819702,,,
53.1562500000,6,0.7844043970,,,
53.1718750000,6,0.1141576022,,,
53.1875000000,6,-0.6417657733,,,
53.2031250000,6,-1.2048590183,,,
53.2187500000,6,-1.3867789507,,,
53.2343750000,6,-1.1459980011,,,
53.2500000000,6,-0.6309797764,,,
53.2656250000,6,-0.0526927710,,,
53.2812500000,6,0.3466624022,,,
53.2968750000,6,0.3955942988,,,
53.3125000000,6,0.0369518697,,,
53.3281250000,6,-0.6937500834,,,
53.3437500000,6,-1.6523059607,,,
53.3593750000,6,-2.6253221035,,,
53.3750000000,6,-3.4005379677,,,
53.3906250000,6,-3.7848060131,,,
53.4062500000,6,-3.6878430843,,,
53.4218750000,6,-3.1369280815,,,
53.4375000000,6,-2.2698819637,,,
53.4531250000,6,-1.3015780449,,,
53.4687500000,6,-0.4508853853,,,
53.4843750000,6,0.1295060068,,,
53.5000000000,6,0.4215345979,,,
53.5156250000,6,0.5087664723,,,
53.5312500000,6,0.5100445151,,,
53.5468750000,6,0.5473814011,,,
53.5625000000,6,0.6404131055,,,
53.5781250000,6,0.7451990843,,,
53.5937500000,6,0.7944689989,,,
53.6093750000,6,0.7773544788,,,
53.6250000000,6,0.7525815964,,,
53.6406250000,6,0.8277248144,,,
53.6562500000,6,1.0633180141,,,
53.6718750000,6,1.4336760044,,,
53.6875000000,6,1.8801749945,,,
53.7031250000,6,2.2940258980,,,
53.7187500000,6,2.6556169987,,,
53.7343750000,6,2.8861429691,,,
53.7500000000,6,2.8879210949,,,
53.7656250000,6,2.4949469566,,,
53.7812500000,6,1.6189479828,,,
53.7968750000,6,0.3433218896,,,
53.8125000000,6,-1.0127249956,,,
53.8281250000,6,-2.0139160156,,,
53.8437500000,6,-2.3716800213,,,
53.8593750000,6,-2.0823559761,,,
53.8750000000,6,-1.4989340305,,,
53.8906250000,6,-1.1033250093,,,
53.9062500000,6,-1.2333420515,,,
53.9218750000,6,-1.8492039442,,,
53.9375000000,6,-2.5564570427,,,
53.9531250000,6,-2.8743391037,,,
53.9687500000,6,-2.4627039433,,,
53.9843750000,6,-1.3679159880,,,
54.0000000000,6,0.0490064584,,,
54.0156250000,6,1.3336980343,,,
54.0312500000,6,2.1309220791,,,
54.0468750000,6,2.3639190197,,,
54.0625000000,6,2.1573090553,,,
54.0781250000,6,1.7343200445,,,
54.0937500000,6,1.2530670166,,,
54.1093750000,6,0.8147817254,,,
54.1250000000,6,0.4261978865,,,
54.1406250000,6,0.1031574979,,,
54.1562500000,6,-0.1657478958,,,
54.1718750000,6,-0.3513694108,,,
54.1875000000,6,-0.4440123141,,,
54.2031250000,6,-0.4732176960,,,
54.2187500000,6,-0.4743398130,,,
54.2343750000,6,-0.4926705062,,,
54.2500000000,6,-0.5082045794,,,
54.2656250000,6,-0.5184336901,,,
54.2812500000,6,-0.4887821078,,,
54.2968750000,6,-0.4476549923,,,
54.3125000000,6,-0.4315361977,,,
54.3281250000,6,-0.4368376136,,,
54.3437500000,6,-0.4212143123,,,
54.3593750000,6,-0.3602879941,,,
54.3750000000,6,-0.2502839863,,,
54.3906250000,6,-0.1745059043,,,
54.4062500000,6,-0.2518723905,,,
54.4218750000,6,-0.5612109900,,,
54.4375000000,6,-1.0747129917,,,
54.4531250000,6,-1.6439410448,,,
54.4687500000,6,-2.0689940453,,,
54.4843750000,6,-2.2124021053,,,
54.5000000000,6,-2.0476350784,,,
54.5156250000,6,-1.6537790298,,,
54.5312500000,6,-1.1633529663,,,
54.5468750000,6,-0.6546149850,,,
54.5625000000,6,-0.1536678970,,,
54.5781250000,6,0.3622854054,,,
54.5937500000,6,0.8921046853,,,
54.6093750000,6,1.3751269579,,,
54.6250000000,6,1.7159199715,,,
54.6406250000,6,1.8670099974,,,
54.6562500000,6,1.8288470507,,,
54.6718750000,6,1.6505910158,,,
54.6875000000,6,1.3676450253,,,
54.7031250000,6,0.9721766114,,,
54.7187500000,6,0.4351037145,,,
54.7343750000,6,-0.2240604013,,,
54.7500000000,6,-0.8998711109,,,
54.7656250000,6,-1.4490790367,,,
54.7812500000,6,-1.6882760525,,,
54.7968750000,6,-1.5720419884,,,
54.8125000000,6,-1.1542630196,,,
54.8281250000,6,-0.6142038703,,,
54.8437500000,6,-0.1115254015,,,
54.8593750000,6,0.2081954926,,,
54.8750000000,6,0.3427225053,,,
54.8906250000,6,0.3445382118,,,
54.9062500000,6,0.3132924139,,,
54.9218750000,6,0.3339901865,,,
54.9375000000,6,0.4344215095,,,
54.9531250000,6,0.5765632987,,,
54.9687500000,6,0.6953253746,,,
54.9843750000,6,0.7104856968,,,
55.0000000000,6,0.5772026777,,,
55.0156250000,6,0.3450875878,,,
55.0312500000,6,0.0958847404,,,
55.0468750000,6,-0.0090771914,,,
55.0625000000,6,0.1244070977,,,
55.0781250000,6,0.5267187953,,,
55.0937500000,6,1.1097340584,,,
55.1093750000,6,1.7735960484,,,
55.1250000000,6,2.3945078850,,,
55.1406250000,6,2.8840169907,,,
55.1562500000,6,3.1758348942,,,
55.1718750000,6,3.2403268814,,,
55.1875000000,6,3.0520980358,,,
55.2031250000,6,2.5979590416,,,
55.2187500000,6,1.8957179785,,,
55.2343750000,6,1.0287179947,,,
55.2500000000,6,0.1318836063,,,
55.2656250000,6,-0.6354656219,,,
55.2812500000,6,-1.1176069975,,,
55.2968750000,6,-1.2408369780,,,
55.3125000000,6,-1.0154880285,,,
55.3281250000,6,-0.5335687995,,,
55.3437500000,6,0.0718125105,,,
55.3593750000,6,0.6882408857,,,
55.3750000000,6,1.2038470507,,,
55.3906250000,6,1.5536450148,,,
55.4062500000,6,1.7098649740,,,
55.4218750000,6,1.6104110479,,,
55.4375000000,6,1.2106829882,,,
55.4531250000,6,0.4503186941,,,
55.4687500000,6,-0.6005241871,,,
55.4843750000,6,-1.8306289911,,,
55.5000000000,6,-3.0029659271,,,
55.5156250000,6,-3.8871259689,,,
55.5312500000,6,-4.3427629471,,,
55.5468750000,6,-4.3455147743,,,
55.5625000000,6,-3.9866321087,,,
55.5781250000,6,-3.3684868813,,,
55.5937500000,6,-2.6164839268,,,
55.6093750000,6,-1.7669810057,,,
55.6250000000,6,-0.8919227123,,,
55.6406250000,6,-0.0154504301,,,
55.6562500000,6,0.7452735901,,,
55.6718750000,6,1.2542589903,,,
55.6875000000,6,1.3953570127,,,
55.7031250000,6,1.1545109749,,,
55.7187500000,6,0.6229280233,,,
55.7343750000,6,-0.0159778595,,,
55.7500000000,6,-0.5644116998,,,
55.7656250000,6,-0.9797270298,,,
55.7812500000,6,-1.2671049833,,,
55.7968750000,6,-1.4999029636,,,
55.8125000000,6,-1.7277250290,,,
55.8281250000,6,-1.8743870258,,,
55.8437500000,6,-1.8047649860,,,
55.8593750000,6,-1.3595099449,,,
55.8750000000,6,-0.5156397223,,,
55.8906250000,6,0.6147729754,,,
55.9062500000,6,1.8080199957,,,
55.9218750000,6,2.8151359558,,,
55.9375000000,6,3.4669680595,,,
55.9531250000,6,3.7488811016,,,
55.9687500000,6,3.7307488918,,,
55.9843750000,6,3.4854109287,,,
56.0000000000,7,3.0193099976,,,
56.0156250000,7,2.2679328918,,,
56.0312500000,7,1.1959199905,,,
56.0468750000,7,-0.1012940034,,,
56.0625000000,7,-1.3842229843,,,
56.0781250000,7,-2.3471350670,,,
56.0937500000,7,-2.7729051113,,,
56.1093750000,7,-2.6206879616,,,
56.1250000000,7,-2.0992169380,,,
56.1406250000,7,-1.4883489609,,,
56.1562500000,7,-1.0862859488,,,
56.1718750000,7,-0.9744340181,,,
56.1875000000,7,-1.1001000404,,,
56.2031250000,7,-1.2934609652,,,
56.2187500000,7,-1.4435149431,,,
