Time:64Hz,Epoch,Channel 1,Event Id,Event Date,Event Duration
0,0,-1.902709961,,,
0.015625,0,-2.158569098,,,
0.03125,0,-2.269042969,,,
0.046875,0,-2.253967047,,,
0.0625,0,-2.106934071,,,
0.078125,0,-1.816588998,,,
0.09375,0,-1.373046994,,,
0.109375,0,-0.816711426,,,
0.125,0,-0.245971695,,,
0.140625,0,0.222351104,,,
0.15625,0,0.503479004,,,
0.171875,0,0.580810487,,,
0.1875,0,0.521606386,,,
0.203125,0,0.41986081,,,
0.21875,0,0.343383789,,,
0.234375,0,0.29107669,,,
0.25,0,0.186218306,,,
0.265625,0,-0.055969238,,,
0.28125,0,-0.484313995,,,
0.296875,0,-1.043395996,,,
0.3125,0,-1.576537967,,,
0.328125,0,-1.889893055,,,
0.34375,0,-1.857727051,,,
0.359375,0,-1.455626965,,,
0.375,0,-0.779418886,,,
0.390625,0,-0.001403809,,,
0.40625,0,0.706420898,,,
0.421875,0,1.214782953,,,
0.4375,0,1.458922982,,,
0.453125,0,1.412963986,,,
0.46875,0,1.116333008,,,
0.484375,0,0.624206483,,,
0.5,0,0.034729,,,
0.515625,0,-0.556213379,,,
0.53125,0,-1.077759028,,,
0.546875,0,-1.49890101,,,
0.5625,0,-1.806763053,,,
0.578125,0,-2.004395008,,,
0.59375,0,-2.059631109,,,
0.609375,0,-1.940551996,,,
0.625,0,-1.616515994,,,
0.640625,0,-1.110291004,,,
0.65625,0,-0.483825713,,,
0.671875,0,0.168335006,,,
0.6875,0,0.769287109,,,
0.703125,0,1.242614985,,,
0.71875,0,1.533630014,,,
0.734375,0,1.624145985,,,
0.75,0,1.517578006,,,
0.765625,0,1.278015018,,,
0.78125,0,0.993652284,,,
0.796875,0,0.754821777,,,
0.8125,0,0.610656679,,,
0.828125,0,0.545837402,,,
0.84375,0,0.52154541,,,
0.859375,0,0.537109375,,,
0.875,0,0.622314513,,,
0.890625,0,0.836242676,,,
0.90625,0,1.18829298,,,
0.921875,0,1.59838903,,,
0.9375,0,1.918884039,,,
0.953125,0,2.026000977,,,
0.96875,0,1.900207996,,,
0.984375,0,1.626708984,,,
1,0,1.348021984,,,
1.015625,0,1.152892947,,,
1.03125,0,0.997924805,,,
1.046875,0,0.738220215,,,
1.0625,0,0.247192398,,,
1.078125,0,-0.469665498,,,
1.09375,0,-1.243103027,,,
1.109375,0,-1.821594,,,
1.125,0,-1.988831043,,,
1.140625,0,-1.698547006,,,
1.15625,0,-1.105530024,,,
1.171875,0,-0.49053961,,,
1.1875,0,-0.092102051,,,
1.203125,0,-0.040161129,,,
1.21875,0,-0.31060791,,,
1.234375,0,-0.795593321,,,
1.25,0,-1.360291004,,,
1.265625,0,-1.881409049,,,
1.28125,0,-2.271239996,,,
1.296875,0,-2.458008051,,,
1.3125,0,-2.367919922,,,
1.328125,0,-1.970764041,,,
1.34375,0,-1.324890018,,,
1.359375,0,-0.577209473,,,
1.375,0,0.081970207,,,
1.390625,0,0.510864317,,,
1.40625,0,0.673583984,,,
1.421875,0,0.676391602,,,
1.4375,0,0.67175293,,,
1.453125,0,0.789001524,,,
1.46875,0,1.025573969,,,
1.484375,0,1.260558963,,,
1.5,0,1.326110959,,,
1.515625,0,1.146850944,,,
1.53125,0,0.781921387,,,
1.546875,0,0.401672393,,,
1.5625,0,0.162597701,,,
1.578125,0,0.102966301,,,
1.59375,0,0.119384803,,,
1.609375,0,0.031860352,,,
1.625,0,-0.282165498,,,
1.640625,0,-0.780395508,,,
1.65625,0,-1.283936024,,,
1.671875,0,-1.588135004,,,
1.6875,0,-1.565307975,,,
1.703125,0,-1.254333019,,,
1.71875,0,-0.823120117,,,
1.734375,0,-0.463439912,,,
1.75,0,-0.293151885,,,
1.765625,0,-0.329956114,,,
1.78125,0,-0.481689513,,,
1.796875,0,-0.637573183,,,
1.8125,0,-0.684387207,,,
1.828125,0,-0.571289122,,,
1.84375,0,-0.315063506,,,
1.859375,0,-0.007141113,,,
1.875,0,0.242248505,,,
1.890625,0,0.34185791,,,
1.90625,0,0.271728486,,,
1.921875,0,0.091369629,,,
1.9375,0,-0.118591301,,,
1.953125,0,-0.292480499,,,
1.96875,0,-0.438354492,,,
1.984375,0,-0.594055176,,,
2,0,-0.7890625,,,
2.015625,0,-0.975585878,,,
2.03125,0,-1.045287967,,,
2.046875,0,-0.882507324,,,
2.0625,0,-0.434448212,,,
2.078125,0,0.221313506,,,
2.09375,0,0.925354004,,,
2.109375,0,1.501525998,,,
2.125,0,1.843140006,,,
2.140625,0,1.936339974,,,
2.15625,0,1.827636957,,,
2.171875,0,1.580078006,,,
2.1875,0,1.234496951,,,
2.203125,0,0.801147521,,,
2.21875,0,0.305664092,,,
2.234375,0,-0.195922896,,,
2.25,0,-0.625183106,,,
2.265625,0,-0.912475586,,,
2.28125,0,-1.018921018,,,
2.296875,0,-0.98425293,,,
2.3125,0,-0.859680176,,,
2.328125,0,-0.683349609,,,
2.34375,0,-0.447448701,,,
2.359375,0,-0.136230499,,,
2.375,0,0.276001006,,,
2.390625,0,0.744018614,,,
2.40625,0,1.178588986,,,
2.421875,0,1.473510981,,,
2.4375,0,1.558593988,,,
2.453125,0,1.442505002,,,
2.46875,0,1.186462045,,,
2.484375,0,0.87853998,,,
2.5,0,0.581787109,,,
2.515625,0,0.303527802,,,
2.53125,0,0.015991209,,,
2.546875,0,-0.268188506,,,
2.5625,0,-0.516357422,,,
2.578125,0,-0.682067871,,,
2.59375,0,-0.746887207,,,
2.609375,0,-0.751037598,,,
2.625,0,-0.742126524,,,
2.640625,0,-0.728271484,,,
2.65625,0,-0.616271973,,,
2.671875,0,-0.284118712,,,
2.6875,0,0.367675811,,,
2.703125,0,1.275696039,,,
2.71875,0,2.213684082,,,
2.734375,0,2.875731945,,,
2.75,0,3.00830102,,,
2.765625,0,2.559509039,,,
2.78125,0,1.662994027,,,
2.796875,0,0.586303711,,,
2.8125,0,-0.430206299,,,
2.828125,0,-1.248412967,,,
2.84375,0,-1.829375982,,,
2.859375,0,-2.193268061,,,
2.875,0,-2.33566308,,,
2.890625,0,-2.241852045,,,
2.90625,0,-1.912659049,,,
2.921875,0,-1.430510998,,,
2.9375,0,-0.939117372,,,
2.953125,0,-0.602661073,,,
2.96875,0,-0.518615723,,,
2.984375,0,-0.66003418,,,
3,0,-0.854919374,,,
3.015625,0,-0.886413574,,,
3.03125,0,-0.62612921,,,
3.046875,0,-0.059753422,,,
3.0625,0,0.671356201,,,
3.078125,0,1.354218006,,,
3.09375,0,1.800078988,,,
3.109375,0,1.934326053,,,
3.125,0,1.809509039,,,
3.140625,0,1.504210949,,,
3.15625,0,1.105651975,,,
3.171875,0,0.6328125,,,
3.1875,0,0.102203399,,,
3.203125,0,-0.427612305,,,
3.21875,0,-0.833801329,,,
3.234375,0,-0.970550478,,,
3.25,0,-0.759948671,,,
3.265625,0,-0.251312286,,,
3.28125,0,0.331054688,,,
3.296875,0,0.738586426,,,
3.3125,0,0.780731201,,,
3.328125,0,0.445800811,,,
3.34375,0,-0.129455596,,,
3.359375,0,-0.744445801,,,
3.375,0,-1.23547399,,,
3.390625,0,-1.551666021,,,
3.40625,0,-1.743103027,,,
3.421875,0,-1.901610971,,,
3.4375,0,-2.099212885,,,
3.453125,0,-2.362061024,,,
3.46875,0,-2.6524961,,,
3.484375,0,-2.887726069,,,
3.5,0,-2.96774292,,,
3.515625,0,-2.796112061,,,
3.53125,0,-2.32147193,,,
3.546875,0,-1.559875011,,,
3.5625,0,-0.585479677,,,
3.578125,0,0.469024688,,,
3.59375,0,1.429718018,,,
3.609375,0,2.169555903,,,
3.625,0,2.620147944,,,
3.640625,0,2.793792963,,,
3.65625,0,2.778075934,,,
3.671875,0,2.659363031,,,
3.6875,0,2.489989996,,,
3.703125,0,2.233062983,,,
3.71875,0,1.797881961,,,
3.734375,0,1.051300049,,,
3.75,0,-0.06628418,,,
3.765625,0,-1.470245004,,,
3.78125,0,-2.917968988,,,
3.796875,0,-4.058594227,,,
3.8125,0,-4.563354015,,,
3.828125,0,-4.229888916,,,
3.84375,0,-3.105988026,,,
3.859375,0,-1.431061029,,,
3.875,0,0.440582305,,,
3.890625,0,2.212799072,,,
3.90625,0,3.649627924,,,
3.921875,0,4.622742176,,,
3.9375,0,5.04699707,,,
3.953125,0,4.898986816,,,
3.96875,0,4.203551769,,,
3.984375,0,3.110413075,,,
4,0,1.869964957,,,
4.015625,0,0.780090272,,,
4.03125,0,0.080657959,,,
4.046875,0,-0.149017304,,,
4.0625,0,0.01446533,,,
4.078125,0,0.378631592,,,
4.09375,0,0.723815918,,,
4.109375,0,0.909210205,,,
4.125,0,0.907653809,,,
4.140625,0,0.769348085,,,
4.15625,0,0.592926025,,,
4.171875,0,0.451446503,,,
4.1875,0,0.367431611,,,
4.203125,0,0.307556212,,,
4.21875,0,0.208068803,,,
4.234375,0,0.02868652,,,
4.25,0,-0.236358598,,,
4.265625,0,-0.542297423,,,
4.28125,0,-0.818939209,,,
4.296875,0,-1.011505008,,,
4.3125,0,-1.112396002,,,
4.328125,0,-1.141479015,,,
4.34375,0,-1.125182986,,,
4.359375,0,-1.080657959,,,
4.375,0,-1.002899051,,,
4.390625,0,-0.858398378,,,
4.40625,0,-0.623657227,,,
4.421875,0,-0.296539307,,,
4.4375,0,0.101379402,,,
4.453125,0,0.535339415,,,
4.46875,0,0.957733214,,,
4.484375,0,1.309844971,,,
4.5,0,1.554779053,,,
4.515625,0,1.699921012,,,
4.53125,0,1.780182004,,,
4.546875,0,1.839874029,,,
4.5625,0,1.907500982,,,
4.578125,0,1.928436041,,,
4.59375,0,1.823364019,,,
4.609375,0,1.507019043,,,
4.625,0,0.956298828,,,
4.640625,0,0.233490005,,,
4.65625,0,-0.521240175,,,
4.671875,0,-1.167266965,,,
4.6875,0,-1.585327029,,,
4.703125,0,-1.725646973,,,
4.71875,0,-1.593871951,,,
4.734375,0,-1.270995975,,,
4.75,0,-0.87387079,,,
4.765625,0,-0.529266417,,,
4.78125,0,-0.333007813,,,
4.796875,0,-0.301696807,,,
4.8125,0,-0.379974395,,,
4.828125,0,-0.466217011,,,
4.84375,0,-0.464813203,,,
4.859375,0,-0.365753204,,,
4.875,0,-0.228027299,,,
4.890625,0,-0.131835893,,,
4.90625,0,-0.127166703,,,
4.921875,0,-0.200653106,,,
4.9375,0,-0.307495087,,,
4.953125,0,-0.396118194,,,
4.96875,0,-0.433563203,,,
4.984375,0,-0.398162812,,,
5,0,-0.284362793,,,
5.015625,0,-0.065368652,,,
5.03125,0,0.264587402,,,
5.046875,0,0.669494629,,,
5.0625,0,1.070587039,,,
5.078125,0,1.352905035,,,
5.09375,0,1.409881949,,,
5.109375,0,1.199921012,,,
5.125,0,0.775390625,,,
5.140625,0,0.270446807,,,
5.15625,0,-0.1483154,,,
5.171875,0,-0.34060669,,,
5.1875,0,-0.268218994,,,
5.203125,0,-0.0140686,,,
5.21875,0,0.271728486,,,
5.234375,0,0.449340791,,,
5.25,0,0.455413789,,,
5.265625,0,0.340698212,,,
5.28125,0,0.212310806,,,
5.296875,0,0.160644501,,,
5.3125,0,0.192321807,,,
5.328125,0,0.228332505,,,
5.34375,0,0.184783906,,,
5.359375,0,0.029998779,,,
5.375,0,-0.186340302,,,
5.390625,0,-0.373321503,,,
5.40625,0,-0.452972412,,,
5.421875,0,-0.425384492,,,
5.4375,0,-0.318176299,,,
5.453125,0,-0.169067398,,,
5.46875,0,0.01119995,,,
5.484375,0,0.222686797,,,
5.5,0,0.438568085,,,
5.515625,0,0.598388672,,,
5.53125,0,0.632324219,,,
5.546875,0,0.492675811,,,
5.5625,0,0.192810103,,,
5.578125,0,-0.209228501,,,
5.59375,0,-0.649902284,,,
5.609375,0,-1.085419059,,,
5.625,0,-1.48428297,,,
5.640625,0,-1.792358041,,,
5.65625,0,-1.920410037,,,
5.671875,0,-1.765563965,,,
5.6875,0,-1.275725961,,,
5.703125,0,-0.498016387,,,
5.71875,0,0.4013367,,,
5.734375,0,1.190459967,,,
5.75,0,1.648589969,,,
5.765625,0,1.674103022,,,
5.78125,0,1.28134203,,,
5.796875,0,0.616210878,,,
5.8125,0,-0.121307403,,,
5.828125,0,-0.729705811,,,
5.84375,0,-1.073302984,,,
5.859375,0,-1.107543945,,,
5.875,0,-0.898010314,,,
5.890625,0,-0.573883116,,,
5.90625,0,-0.277740508,,,
5.921875,0,-0.114166297,,,
5.9375,0,-0.103881799,,,
5.953125,0,-0.218505904,,,
5.96875,0,-0.377410889,,,
5.984375,0,-0.523986816,,,
6,0,-0.612060487,,,
6.015625,0,-0.626098573,,,
6.03125,0,-0.508789122,,,
6.046875,0,-0.238677993,,,
6.0625,0,0.186065704,,,
6.078125,0,0.684570313,,,
6.09375,0,1.105133057,,,
6.109375,0,1.290923953,,,
6.125,0,1.170073986,,,
6.140625,0,0.80645752,,,
6.15625,0,0.367431611,,,
6.171875,0,0.0284729,,,
6.1875,0,-0.131897003,,,
6.203125,0,-0.162902802,,,
6.21875,0,-0.179077104,,,
6.234375,0,-0.280425996,,,
6.25,0,-0.454193085,,,
6.265625,0,-0.589050293,,,
6.28125,0,-0.540039122,,,
6.296875,0,-0.241485596,,,
6.3125,0,0.255187988,,,
6.328125,0,0.80090332,,,
6.34375,0,1.212005973,,,
6.359375,0,1.387115002,,,
6.375,0,1.329041004,,,
6.390625,0,1.153869987,,,
6.40625,0,0.98840332,,,
6.421875,0,0.913604677,,,
6.4375,0,0.908813477,,,
6.453125,0,0.887298584,,,
6.46875,0,0.753418028,,,
6.484375,0,0.474853486,,,
6.5,0,0.107299797,,,
6.515625,0,-0.263122588,,,
6.53125,0,-0.550018311,,,
6.546875,0,-0.734222412,,,
6.5625,0,-0.847839415,,,
6.578125,0,-0.945861816,,,
6.59375,0,-1.015807986,,,
6.609375,0,-1.035094976,,,
6.625,0,-0.942749023,,,
6.640625,0,-0.717926025,,,
6.65625,0,-0.367492706,,,
6.671875,0,0.080505371,,,
6.6875,0,0.604705811,,,
6.703125,0,1.176085949,,,
6.71875,0,1.715576053,,,
6.734375,0,2.060760021,,,
6.75,0,2.042022944,,,
6.765625,0,1.564514041,,,
6.78125,0,0.708343506,,,
6.796875,0,-0.279266387,,,
6.8125,0,-1.095551014,,,
6.828125,0,-1.53204298,,,
6.84375,0,-1.572723031,,,
6.859375,0,-1.390045047,,,
6.875,0,-1.216675043,,,
6.890625,0,-1.192047,,,
6.90625,0,-1.298859,,,
6.921875,0,-1.382233024,,,
6.9375,0,-1.298156977,,,
6.953125,0,-0.993591309,,,
6.96875,0,-0.570373476,,,
6.984375,0,-0.208526596,,,
7,0,-0.071868897,,,
7.015625,0,-0.1990356,,,
7.03125,0,-0.523254395,,,
7.046875,0,-0.850738525,,,
7.0625,0,-1.021392942,,,
7.078125,0,-0.957946777,,,
7.09375,0,-0.701324523,,,
7.109375,0,-0.396026611,,,
7.125,0,-0.188079804,,,
7.140625,0,-0.1434021,,,
7.15625,0,-0.189361602,,,
7.171875,0,-0.176605195,,,
7.1875,0,0.02719116,,,
7.203125,0,0.431518614,,,
7.21875,0,0.924530029,,,
7.234375,0,1.332793951,,,
7.25,0,1.528777957,,,
7.265625,0,1.498535037,,,
7.28125,0,1.33831799,,,
7.296875,0,1.161957026,,,
7.3125,0,1.04409802,,,
7.328125,0,0.978881776,,,
7.34375,0,0.912963927,,,
7.359375,0,0.796600282,,,
7.375,0,0.628387511,,,
7.390625,0,0.415649414,,,
7.40625,0,0.171569794,,,
7.421875,0,-0.112426803,,,
7.4375,0,-0.443969697,,,
7.453125,0,-0.793762207,,,
7.46875,0,-1.073456049,,,
7.484375,0,-1.194458008,,,
7.5,0,-1.105255008,,,
7.515625,0,-0.839080811,,,
7.53125,0,-0.523132324,,,
7.546875,0,-0.274932891,,,
7.5625,0,-0.169555694,,,
7.578125,0,-0.164245606,,,
7.59375,0,-0.173370406,,,
7.609375,0,-0.090545647,,,
7.625,0,0.111755401,,,
7.640625,0,0.387512207,,,
7.65625,0,0.651092529,,,
7.671875,0,0.817504883,,,
7.6875,0,0.849945128,,,
7.703125,0,0.75592041,,,
7.71875,0,0.573944092,,,
7.734375,0,0.32131961,,,
7.75,0,0.006835938,,,
7.765625,0,-0.376068085,,,
7.78125,0,-0.761749327,,,
7.796875,0,-1.040680051,,,
7.8125,0,-1.068542004,,,
7.828125,0,-0.739776611,,,
7.84375,0,-0.08493042,,,
7.859375,0,0.703185976,,,
7.875,0,1.339568973,,,
7.890625,0,1.573456049,,,
7.90625,0,1.335693002,,,
7.921875,0,0.760528624,,,
7.9375,0,0.114837602,,,
7.953125,0,-0.365661591,,,
7.96875,0,-0.592193604,,,
7.984375,0,-0.665802002,,,
8,1,-0.755310118,,,
8.015625,1,-0.973541319,,,
8.03125,1,-1.280395985,,,
8.046875,1,-1.515990973,,,
8.0625,1,-1.544250011,,,
8.078125,1,-1.349944949,,,
8.09375,1,-1.067505002,,,
8.109375,1,-0.897094727,,,
8.125,1,-0.963775575,,,
8.140625,1,-1.222136974,,,
8.15625,1,-1.482391,,,
8.171875,1,-1.516388059,,,
8.1875,1,-1.208312988,,,
8.203125,1,-0.595916688,,,
8.21875,1,0.158386201,,,
8.234375,1,0.85321039,,,
8.25,1,1.362548947,,,
8.265625,1,1.655853033,,,
8.28125,1,1.775969982,,,
8.296875,1,1.792572022,,,
8.3125,1,1.745941043,,,
8.328125,1,1.644531012,,,
8.34375,1,1.488006949,,,
8.359375,1,1.308928967,,,
8.375,1,1.164824963,,,
8.390625,1,1.102996945,,,
8.40625,1,1.130187988,,,
8.421875,1,1.194244027,,,
8.4375,1,1.218811035,,,
8.453125,1,1.155974984,,,
8.46875,1,1.018372059,,,
8.484375,1,0.869903624,,,
8.5,1,0.785888672,,,
8.515625,1,0.801666319,,,
8.53125,1,0.92111212,,,
8.546875,1,1.083495975,,,
8.5625,1,1.218780994,,,
8.578125,1,1.241729975,,,
8.59375,1,1.091827035,,,
8.609375,1,0.7706604,,,
8.625,1,0.347900391,,,
8.640625,1,-0.053070068,,,
8.65625,1,-0.28793329,,,
8.671875,1,-0.287261993,,,
8.6875,1,-0.08972168,,,
8.703125,1,0.167999297,,,
8.71875,1,0.309417695,,,
8.734375,1,0.2342529,,,
8.75,1,-0.02938843,,,
8.765625,1,-0.330993712,,,
8.78125,1,-0.518432617,,,
8.796875,1,-0.511322022,,,
8.8125,1,-0.354309112,,,
8.828125,1,-0.181213394,,,
8.84375,1,-0.117889397,,,
8.859375,1,-0.232849106,,,
8.875,1,-0.514160216,,,
8.890625,1,-0.905761719,,,
8.90625,1,-1.321014047,,,
8.921875,1,-1.658355951,,,
8.9375,1,-1.815582037,,,
8.953125,1,-1.720031977,,,
8.96875,1,-1.373870969,,,
8.984375,1,-0.881866515,,,
9,1,-0.421691895,,,
9.015625,1,-0.145965606,,,
9.03125,1,-0.118774399,,,
9.046875,1,-0.2706604,,,
9.0625,1,-0.446685791,,,
9.078125,1,-0.503631592,,,
9.09375,1,-0.385925293,,,
9.109375,1,-0.148193404,,,
9.125,1,0.106994599,,,
9.140625,1,0.281494111,,,
9.15625,1,0.372680694,,,
9.171875,1,0.407592803,,,
9.1875,1,0.41241461,,,
9.203125,1,0.363555908,,,
9.21875,1,0.220275894,,,
9.234375,1,-0.04788208,,,
9.25,1,-0.395080596,,,
9.265625,1,-0.686004579,,,
9.28125,1,-0.772125185,,,
9.296875,1,-0.553405821,,,
9.3125,1,-0.076782227,,,
9.328125,1,0.46295169,,,
9.34375,1,0.819793701,,,
9.359375,1,0.814819276,,,
9.375,1,0.450317413,,,
9.390625,1,-0.07522583,,,
9.40625,1,-0.490661591,,,
9.421875,1,-0.599731386,,,
9.4375,1,-0.399688691,,,
9.453125,1,-0.070648193,,,
9.46875,1,0.152252197,,,
9.484375,1,0.164794907,,,
9.5,1,0.034362789,,,
9.515625,1,-0.02877808,,,
9.53125,1,0.151763901,,,
9.546875,1,0.582183778,,,
9.5625,1,1.079712033,,,
9.578125,1,1.39526403,,,
9.59375,1,1.374817014,,,
9.609375,1,1.065215945,,,
9.625,1,0.676116884,,,
9.640625,1,0.415008485,,,
9.65625,1,0.349334687,,,
9.671875,1,0.347442597,,,
9.6875,1,0.192108199,,,
9.703125,1,-0.259307891,,,
9.71875,1,-0.933013916,,,
9.734375,1,-1.579162955,,,
9.75,1,-1.912750006,,,
9.765625,1,-1.777892947,,,
9.78125,1,-1.271118045,,,
9.796875,1,-0.65802002,,,
9.8125,1,-0.205108598,,,
9.828125,1,-0.05023193,,,
9.84375,1,-0.1377258,,,
9.859375,1,-0.29006961,,,
9.875,1,-0.344940186,,,
9.890625,1,-0.277648896,,,
9.90625,1,-0.1746521,,,
9.921875,1,-0.183288604,,,
9.9375,1,-0.362854004,,,
9.953125,1,-0.647613525,,,
9.96875,1,-0.880187988,,,
9.984375,1,-0.953491211,,,
10,1,-0.88369751,,,
10.015625,1,-0.813323975,,,
10.03125,1,-0.911377013,,,
10.046875,1,-1.227295041,,,
10.0625,1,-1.648529053,,,
10.078125,1,-1.935454965,,,
10.09375,1,-1.88320899,,,
10.109375,1,-1.413696051,,,
10.125,1,-0.657623291,,,
10.140625,1,0.164093003,,,
10.15625,1,0.844726622,,,
10.171875,1,1.308441043,,,
10.1875,1,1.585754037,,,
10.203125,1,1.763489008,,,
10.21875,1,1.873260021,,,
10.234375,1,1.868590951,,,
10.25,1,1.690642953,,,
10.265625,1,1.322844982,,,
10.28125,1,0.834106386,,,
10.296875,1,0.350036591,,,
10.3125,1,-0.030456539,,,
10.328125,1,-0.274658203,,,
10.34375,1,-0.426269501,,,
10.359375,1,-0.528991699,,,
10.375,1,-0.588745117,,,
10.390625,1,-0.547607422,,,
10.40625,1,-0.345428497,,,
10.421875,1,0.033752441,,,
10.4375,1,0.532562316,,,
10.453125,1,1.026703,,,
10.46875,1,1.393921018,,,
10.484375,1,1.556488037,,,
10.5,1,1.545897961,,,
10.515625,1,1.466125011,,,
10.53125,1,1.414031982,,,
10.546875,1,1.420685053,,,
10.5625,1,1.425354004,,,
10.578125,1,1.298125982,,,
10.59375,1,0.926330626,,,
10.609375,1,0.319458008,,,
10.625,1,-0.389160186,,,
10.640625,1,-0.951660216,,,
10.65625,1,-1.144408941,,,
10.671875,1,-0.851806581,,,
10.6875,1,-0.143096894,,,
10.703125,1,0.804290772,,,
10.71875,1,1.740172982,,,
10.734375,1,2.457031012,,,
10.75,1,2.844360113,,,
10.765625,1,2.883850098,,,
10.78125,1,2.615844965,,,
10.796875,1,2.112549067,,,
10.8125,1,1.456696034,,,
10.828125,1,0.74230957,,,
10.84375,1,0.071929932,,,
10.859375,1,-0.460235596,,,
10.875,1,-0.796264589,,,
10.890625,1,-0.919067383,,,
10.90625,1,-0.880371094,,,
10.921875,1,-0.75881958,,,
10.9375,1,-0.623504579,,,
10.953125,1,-0.51135248,,,
10.96875,1,-0.408172607,,,
10.984375,1,-0.301757813,,,
11,1,-0.200744599,,,
11.015625,1,-0.133575395,,,
11.03125,1,-0.130493194,,,
11.046875,1,-0.195983902,,,
11.0625,1,-0.254180908,,,
11.078125,1,-0.219482407,,,
11.09375,1,-0.02935791,,,
11.109375,1,0.256347686,,,
11.125,1,0.471618712,,,
11.140625,1,0.417633086,,,
11.15625,1,-0.026306151,,,
11.171875,1,-0.807037413,,,
11.1875,1,-1.700623035,,,
11.203125,1,-2.394774914,,,
11.21875,1,-2.63342309,,,
11.234375,1,-2.311340094,,,
11.25,1,-1.540009022,,,
11.265625,1,-0.550842285,,,
11.28125,1,0.39364621,,,
11.296875,1,1.108001947,,,
11.3125,1,1.520081043,,,
11.328125,1,1.67562902,,,
11.34375,1,1.64605701,,,
11.359375,1,1.471588016,,,
11.375,1,1.139861941,,,
11.390625,1,0.616546571,,,
11.40625,1,-0.095733643,,,
11.421875,1,-0.904174805,,,
11.4375,1,-1.662201047,,,
11.453125,1,-2.217133045,,,
11.46875,1,-2.46963501,,,
11.484375,1,-2.422516108,,,
11.5,1,-2.155975103,,,
11.515625,1,-1.761199951,,,
11.53125,1,-1.322265983,,,
11.546875,1,-0.914093018,,,
11.5625,1,-0.593810976,,,
11.578125,1,-0.407165498,,,
11.59375,1,-0.371124297,,,
11.609375,1,-0.432006806,,,
11.625,1,-0.481720001,,,
11.640625,1,-0.41986081,,,
11.65625,1,-0.197113007,,,
11.671875,1,0.1034851,,,
11.6875,1,0.326568604,,,
11.703125,1,0.296386689,,,
11.71875,1,-0.072998047,,,
11.734375,1,-0.715393126,,,
11.75,1,-1.458953977,,,
11.765625,1,-2.105041981,,,
11.78125,1,-2.487273932,,,
11.796875,1,-2.557007074,,,
11.8125,1,-2.357330084,,,
11.828125,1,-1.968871951,,,
11.84375,1,-1.435943961,,,
11.859375,1,-0.741729677,,,
11.875,1,0.136230499,,,
11.890625,1,1.196135998,,,
11.90625,1,2.339905024,,,
11.921875,1,3.382720947,,,
11.9375,1,4.095551014,,,
11.953125,1,4.319580078,,,
11.96875,1,4.029479981,,,
11.984375,1,3.305327892,,,
12,1,2.304534912,,,
12.015625,1,1.184692025,,,
12.03125,1,0.063140869,,,
12.046875,1,-0.987426817,,,
12.0625,1,-1.892058969,,,
12.078125,1,-2.566864014,,,
12.09375,1,-2.926300049,,,
12.109375,1,-2.918212891,,,
12.125,1,-2.568450928,,,
12.140625,1,-1.972442985,,,
12.15625,1,-1.257446051,,,
12.171875,1,-0.526184082,,,
12.1875,1,0.175628707,,,
12.203125,1,0.840789795,,,
12.21875,1,1.436218023,,,
12.234375,1,1.937103033,,,
12.25,1,2.28201294,,,
12.265625,1,2.429564953,,,
12.28125,1,2.401000977,,,
12.296875,1,2.269562006,,,
12.3125,1,2.146514893,,,
12.328125,1,2.119231939,,,
12.34375,1,2.216339111,,,
12.359375,1,2.380095959,,,
12.375,1,2.494385004,,,
12.390625,1,2.410706043,,,
12.40625,1,2.038054943,,,
12.421875,1,1.393280029,,,
12.4375,1,0.594024718,,,
12.453125,1,-0.1798096,,,
12.46875,1,-0.722137511,,,
12.484375,1,-0.914154112,,,
12.5,1,-0.7578125,,,
12.515625,1,-0.346221894,,,
12.53125,1,0.168395996,,,
12.546875,1,0.613647521,,,
12.5625,1,0.865356386,,,
12.578125,1,0.86038208,,,
12.59375,1,0.621185303,,,
12.609375,1,0.244567901,,,
12.625,1,-0.117981002,,,
12.640625,1,-0.3175354,,,
12.65625,1,-0.26675421,,,
12.671875,1,0.0112915,,,
12.6875,1,0.39956671,,,
12.703125,1,0.759643614,,,
12.71875,1,0.982421875,,,
12.734375,1,1.052368045,,,
12.75,1,0.999786377,,,
12.765625,1,0.864379883,,,
12.78125,1,0.65008539,,,
12.796875,1,0.3360596,,,
12.8125,1,-0.060852051,,,
12.828125,1,-0.450561494,,,
12.84375,1,-0.653045714,,,
12.859375,1,-0.5340271,,,
12.875,1,-0.042572022,,,
12.890625,1,0.695892274,,,
12.90625,1,1.465728998,,,
12.921875,1,2.042388916,,,
12.9375,1,2.288727045,,,
12.953125,1,2.199553967,,,
12.96875,1,1.859099984,,,
12.984375,1,1.402984977,,,
13,1,0.919616699,,,
13.015625,1,0.473144501,,,
13.03125,1,0.097137451,,,
13.046875,1,-0.200591996,,,
13.0625,1,-0.40512079,,,
13.078125,1,-0.528411925,,,
13.09375,1,-0.608825684,,,
13.109375,1,-0.717773378,,,
13.125,1,-0.92364502,,,
13.140625,1,-1.256500006,,,
13.15625,1,-1.65969801,,,
13.171875,1,-1.995116949,,,
13.1875,1,-2.107085943,,,
13.203125,1,-1.872040033,,,
13.21875,1,-1.302185059,,,
13.234375,1,-0.525573671,,,
13.25,1,0.250945985,,,
13.265625,1,0.836639404,,,
13.28125,1,1.127380014,,,
13.296875,1,1.126067996,,,
13.3125,1,0.893127382,,,
13.328125,1,0.478698701,,,
13.34375,1,-0.072845459,,,
13.359375,1,-0.746185303,,,
13.375,1,-1.471863031,,,
13.390625,1,-2.150939941,,,
13.40625,1,-2.618164063,,,
13.421875,1,-2.793945074,,,
13.4375,1,-2.674010992,,,
13.453125,1,-2.362731934,,,
13.46875,1,-2.011017084,,,
13.484375,1,-1.71310401,,,
13.5,1,-1.494873047,,,
13.515625,1,-1.288604975,,,
13.53125,1,-1.022338986,,,
13.546875,1,-0.671386719,,,
13.5625,1,-0.268554688,,,
13.578125,1,0.127960205,,,
13.59375,1,0.47467041,,,
13.609375,1,0.75076288,,,
13.625,1,0.964904785,,,
13.640625,1,1.120666981,,,
13.65625,1,1.176085949,,,
13.671875,1,1.079650998,,,
13.6875,1,0.78213501,,,
13.703125,1,0.309631288,,,
13.71875,1,-0.236968994,,,
13.734375,1,-0.691070616,,,
13.75,1,-0.900360107,,,
13.765625,1,-0.776184082,,,
13.78125,1,-0.358886689,,,
13.796875,1,0.242095903,,,
13.8125,1,0.871032715,,,
13.828125,1,1.409057975,,,
13.84375,1,1.793671012,,,
13.859375,1,2.015228033,,,
13.875,1,2.10095191,,,
13.890625,1,2.055358887,,,
13.90625,1,1.870574951,,,
13.921875,1,1.520568967,,,
13.9375,1,1.008178949,,,
13.953125,1,0.375488311,,,
13.96875,1,-0.307617188,,,
13.984375,1,-0.934020996,,,
14,1,-1.411803961,,,
14.015625,1,-1.648589969,,,
14.03125,1,-1.606627941,,,
14.046875,1,-1.319489002,,,
14.0625,1,-0.91796881,,,
14.078125,1,-0.565765381,,,
14.09375,1,-0.393249512,,,
14.109375,1,-0.422699004,,,
14.125,1,-0.562164307,,,
14.140625,1,-0.657043517,,,
14.15625,1,-0.606658876,,,
14.171875,1,-0.416747987,,,
14.1875,1,-0.194702104,,,
14.203125,1,-0.075439453,,,
14.21875,1,-0.115051299,,,
14.234375,1,-0.281463593,,,
14.25,1,-0.480010986,,,
14.265625,1,-0.614959717,,,
14.28125,1,-0.645721376,,,
14.296875,1,-0.589019775,,,
14.3125,1,-0.476348907,,,
14.328125,1,-0.307769805,,,
14.34375,1,-0.089233398,,,
14.359375,1,0.161743194,,,
14.375,1,0.374847412,,,
14.390625,1,0.472198486,,,
14.40625,1,0.425415009,,,
14.421875,1,0.277557403,,,
14.4375,1,0.106750503,,,
14.453125,1,-0.008392334,,,
14.46875,1,-0.059692379,,,
14.484375,1,-0.101104699,,,
14.5,1,-0.198638901,,,
14.515625,1,-0.345001191,,,
14.53125,1,-0.498657197,,,
14.546875,1,-0.583129883,,,
14.5625,1,-0.600402772,,,
14.578125,1,-0.614624023,,,
14.59375,1,-0.702056885,,,
14.609375,1,-0.89440918,,,
14.625,1,-1.108337045,,,
14.640625,1,-1.210631967,,,
14.65625,1,-1.07901001,,,
14.671875,1,-0.70123291,,,
14.6875,1,-0.180206299,,,
14.703125,1,0.342407197,,,
14.71875,1,0.767761171,,,
14.734375,1,1.086853027,,,
14.75,1,1.377715945,,,
14.765625,1,1.723633051,,,
14.78125,1,2.168395996,,,
14.796875,1,2.668700934,,,
14.8125,1,3.11657691,,,
14.828125,1,3.396362066,,,
14.84375,1,3.396393061,,,
14.859375,1,3.06149292,,,
14.875,1,2.4024961,,,
14.890625,1,1.465240002,,,
14.90625,1,0.355377197,,,
14.921875,1,-0.782623291,,,
14.9375,1,-1.793701053,,,
14.953125,1,-2.531830072,,,
14.96875,1,-2.892822027,,,
14.984375,1,-2.848754883,,,
15,1,-2.466187,,,
15.015625,1,-1.877105951,,,
15.03125,1,-1.252593994,,,
15.046875,1,-0.720672607,,,
15.0625,1,-0.345062286,,,
15.078125,1,-0.103973404,,,
15.09375,1,0.055938721,,,
15.109375,1,0.180206299,,,
15.125,1,0.249420196,,,
15.140625,1,0.234222397,,,
15.15625,1,0.089294434,,,
15.171875,1,-0.169586197,,,
15.1875,1,-0.48123169,,,
15.203125,1,-0.765075684,,,
15.21875,1,-0.957092285,,,
15.234375,1,-1.039885998,,,
15.25,1,-1.039978027,,,
15.265625,1,-1.030120969,,,
15.28125,1,-1.06527698,,,
15.296875,1,-1.190399051,,,
15.3125,1,-1.396545053,,,
15.328125,1,-1.633635998,,,
15.34375,1,-1.806823969,,,
15.359375,1,-1.790374994,,,
15.375,1,-1.473052979,,,
15.390625,1,-0.805908203,,,
15.40625,1,0.1669617,,,
15.421875,1,1.310302973,,,
15.4375,1,2.443787098,,,
15.453125,1,3.373260021,,,
15.46875,1,3.966399908,,,
15.484375,1,4.136901856,,,
15.5,1,3.864777088,,,
15.515625,1,3.200774908,,,
15.53125,1,2.26483202,,,
15.546875,1,1.235595942,,,
15.5625,1,0.321380585,,,
15.578125,1,-0.322113007,,,
15.59375,1,-0.651519775,,,
15.609375,1,-0.719787598,,,
15.625,1,-0.68145752,,,
15.640625,1,-0.672180176,,,
15.65625,1,-0.750854492,,,
15.671875,1,-0.868530273,,,
15.6875,1,-0.91873169,,,
15.703125,1,-0.79574579,,,
15.71875,1,-0.471710205,,,
15.734375,1,-0.02288818,,,
15.75,1,0.436126709,,,
15.765625,1,0.785339415,,,
15.78125,1,0.951416016,,,
15.796875,1,0.914978027,,,
15.8125,1,0.688323975,,,
15.828125,1,0.271728486,,,
15.84375,1,-0.307128906,,,
15.859375,1,-0.995025575,,,
15.875,1,-1.710052013,,,
15.890625,1,-2.33822608,,,
15.90625,1,-2.776305914,,,
15.921875,1,-2.988342047,,,
15.9375,1,-2.990813971,,,
15.953125,1,-2.860534906,,,
15.96875,1,-2.688201904,,,
15.984375,1,-2.522736073,,,
16,2,-2.345916987,,,
16.015625,2,-2.083983898,,,
16.03125,2,-1.644531012,,,
16.046875,2,-0.980651915,,,
16.0625,2,-0.102813698,,,
16.078125,2,0.871307373,,,
16.09375,2,1.793243051,,,
16.109375,2,2.488434076,,,
16.125,2,2.83911109,,,
16.140625,2,2.804749012,,,
16.15625,2,2.413361073,,,
16.171875,2,1.770781994,,,
16.1875,2,0.975250185,,,
16.203125,2,0.139221206,,,
16.21875,2,-0.597076416,,,
16.234375,2,-1.094879031,,,
16.25,2,-1.215057015,,,
16.265625,2,-0.881713927,,,
16.28125,2,-0.137573198,,,
16.296875,2,0.838378906,,,
16.3125,2,1.817108035,,,
16.328125,2,2.565979004,,,
16.34375,2,2.962615967,,,
16.359375,2,3.01461792,,,
16.375,2,2.810698986,,,
16.390625,2,2.468108892,,,
16.40625,2,2.052643061,,,
16.421875,2,1.578125,,,
16.4375,2,1.024840951,,,
16.453125,2,0.41091919,,,
16.46875,2,-0.2081604,,,
16.484375,2,-0.746917725,,,
16.5,2,-1.157227039,,,
16.515625,2,-1.426177979,,,
16.53125,2,-1.552795053,,,
16.546875,2,-1.531921029,,,
16.5625,2,-1.306792975,,,
16.578125,2,-0.834838927,,,
16.59375,2,-0.1179199,,,
16.609375,2,0.725616515,,,
16.625,2,1.496276975,,,
16.640625,2,2.002440929,,,
16.65625,2,2.138762951,,,
16.671875,2,1.941344976,,,
16.6875,2,1.552642942,,,
16.703125,2,1.097594976,,,
16.71875,2,0.629241884,,,
16.734375,2,0.127655,,,
16.75,2,-0.45993039,,,
16.765625,2,-1.094879031,,,
16.78125,2,-1.649628043,,,
16.796875,2,-1.963927984,,,
16.8125,2,-1.940765023,,,
16.828125,2,-1.626801014,,,
16.84375,2,-1.185088992,,,
16.859375,2,-0.804992676,,,
16.875,2,-0.599883974,,,
16.890625,2,-0.546935976,,,
16.90625,2,-0.492767304,,,
16.921875,2,-0.273529112,,,
16.9375,2,0.187011704,,,
16.953125,2,0.807495117,,,
16.96875,2,1.377045035,,,
16.984375,2,1.697998047,,,
17,2,1.665954948,,,
17.015625,2,1.360046029,,,
17.03125,2,0.982238829,,,
17.046875,2,0.749725282,,,
17.0625,2,0.772857726,,,
17.078125,2,1.001433969,,,
17.09375,2,1.274353027,,,
17.109375,2,1.413086057,,,
17.125,2,1.311493039,,,
17.140625,2,0.983062685,,,
17.15625,2,0.552429199,,,
17.171875,2,0.153167695,,,
17.1875,2,-0.086303711,,,
17.203125,2,-0.110260002,,,
17.21875,2,0.079528809,,,
17.234375,2,0.413513213,,,
17.25,2,0.76651001,,,
17.265625,2,0.956878722,,,
17.28125,2,0.831604004,,,
17.296875,2,0.317932099,,,
17.3125,2,-0.514587402,,,
17.328125,2,-1.480347037,,,
17.34375,2,-2.32980299,,,
17.359375,2,-2.867980957,,,
17.375,2,-2.993134022,,,
17.390625,2,-2.738495112,,,
17.40625,2,-2.243041992,,,
17.421875,2,-1.678009033,,,
17.4375,2,-1.185425043,,,
17.453125,2,-0.8487854,,,
17.46875,2,-0.696380615,,,
17.484375,2,-0.702087402,,,
17.5,2,-0.814331114,,,
17.515625,2,-0.936309815,,,
17.53125,2,-0.962890625,,,
17.546875,2,-0.783599913,,,
17.5625,2,-0.328430206,,,
17.578125,2,0.389129609,,,
17.59375,2,1.265838981,,,
17.609375,2,2.139983892,,,
17.625,2,2.84387207,,,
17.640625,2,3.243134022,,,
17.65625,2,3.29519701,,,
17.671875,2,3.055267096,,,
17.6875,2,2.651427984,,,
17.703125,2,2.204163075,,,
17.71875,2,1.79797399,,,
17.734375,2,1.433380008,,,
17.75,2,1.067626953,,,
17.765625,2,0.645538271,,,
17.78125,2,0.166809097,,,
17.796875,2,-0.32421881,,,
17.8125,2,-0.760894775,,,
17.828125,2,-1.120635986,,,
17.84375,2,-1.427734017,,,
17.859375,2,-1.724578977,,,
17.875,2,-2.016693115,,,
17.890625,2,-2.231934071,,,
17.90625,2,-2.250030994,,,
17.921875,2,-1.993530035,,,
17.9375,2,-1.500061035,,,
17.953125,2,-0.946746826,,,
17.96875,2,-0.553314209,,,
17.984375,2,-0.470184296,,,
18,2,-0.655914307,,,
18.015625,2,-0.911926329,,,
18.03125,2,-1.020447016,,,
18.046875,2,-0.887542725,,,
18.0625,2,-0.627990723,,,
18.078125,2,-0.474639893,,,
18.09375,2,-0.647979677,,,
18.109375,2,-1.148743033,,,
18.125,2,-1.759765983,,,
18.140625,2,-2.121306896,,,
18.15625,2,-1.971130014,,,
18.171875,2,-1.262053967,,,
18.1875,2,-0.193725601,,,
18.203125,2,0.879241884,,,
18.21875,2,1.626922965,,,
18.234375,2,1.89794898,,,
18.25,2,1.751189947,,,
18.265625,2,1.374390006,,,
18.28125,2,0.997039795,,,
18.296875,2,0.774505615,,,
18.3125,2,0.750640929,,,
18.328125,2,0.868041992,,,
18.34375,2,0.999664307,,,
18.359375,2,1.021911979,,,
18.375,2,0.84552002,,,
18.390625,2,0.445709199,,,
18.40625,2,-0.136505097,,,
18.421875,2,-0.787750185,,,
18.4375,2,-1.36679101,,,
18.453125,2,-1.744506955,,,
18.46875,2,-1.807464957,,,
18.484375,2,-1.546692014,,,
18.5,2,-1.000609994,,,
18.515625,2,-0.307312012,,,
18.53125,2,0.367645294,,,
18.546875,2,0.835327089,,,
18.5625,2,0.986175478,,,
18.578125,2,0.796264589,,,
18.59375,2,0.3621521,,,
18.609375,2,-0.158691406,,,
18.625,2,-0.620147705,,,
18.640625,2,-0.96081543,,,
18.65625,2,-1.203461051,,,
18.671875,2,-1.394348025,,,
18.6875,2,-1.565215945,,,
18.703125,2,-1.665557981,,,
18.71875,2,-1.635223031,,,
18.734375,2,-1.412871957,,,
18.75,2,-1.007079959,,,
18.765625,2,-0.513000488,,,
18.78125,2,-0.034851071,,,
18.796875,2,0.359283388,,,
18.8125,2,0.671081483,,,
18.828125,2,0.938171387,,,
18.84375,2,1.187530994,,,
18.859375,2,1.399384022,,,
18.875,2,1.514464974,,,
18.890625,2,1.484954953,,,
18.90625,2,1.294708014,,,
18.921875,2,0.99142462,,,
18.9375,2,0.662902772,,,
18.953125,2,0.3983154,,,
18.96875,2,0.28314209,,,
18.984375,2,0.352386504,,,
19,2,0.573425293,,,
19.015625,2,0.860412598,,,
19.03125,2,1.083801031,,,
19.046875,2,1.106292963,,,
19.0625,2,0.860443115,,,
19.078125,2,0.352477998,,,
19.09375,2,-0.310180694,,,
19.109375,2,-0.966888428,,,
19.125,2,-1.42532301,,,
19.140625,2,-1.565247059,,,
19.15625,2,-1.355591059,,,
19.171875,2,-0.855743408,,,
19.1875,2,-0.183074996,,,
19.203125,2,0.533843994,,,
19.21875,2,1.181792975,,,
19.234375,2,1.66168201,,,
19.25,2,1.924193978,,,
19.265625,2,1.935577035,,,
19.28125,2,1.72161901,,,
19.296875,2,1.365172982,,,
19.3125,2,0.99887079,,,
19.328125,2,0.741729677,,,
19.34375,2,0.660980225,,,
19.359375,2,0.741149902,,,
19.375,2,0.888305724,,,
19.390625,2,0.986816406,,,
19.40625,2,0.977233887,,,
19.421875,2,0.870208681,,,
19.4375,2,0.755096376,,,
19.453125,2,0.732147217,,,
19.46875,2,0.860168517,,,
19.484375,2,1.14694202,,,
19.5,2,1.517914057,,,
19.515625,2,1.860931039,,,
19.53125,2,2.022217035,,,
19.546875,2,1.859984994,,,
19.5625,2,1.304169059,,,
19.578125,2,0.427093506,,,
19.59375,2,-0.56866461,,,
19.609375,2,-1.400573969,,,
19.625,2,-1.854979992,,,
19.640625,2,-1.871216059,,,
19.65625,2,-1.577147961,,,
19.671875,2,-1.197144032,,,
19.6875,2,-0.906677187,,,
19.703125,2,-0.740966797,,,
19.71875,2,-0.580352783,,,
19.734375,2,-0.294769287,,,
19.75,2,0.177154496,,,
19.765625,2,0.723571777,,,
19.78125,2,1.150359988,,,
19.796875,2,1.279083014,,,
19.8125,2,1.081665039,,,
19.828125,2,0.666564882,,,
19.84375,2,0.224426299,,,
19.859375,2,-0.067382813,,,
19.875,2,-0.133606002,,,
19.890625,2,0.004821777,,,
19.90625,2,0.244140595,,,
19.921875,2,0.447265595,,,
19.9375,2,0.490631104,,,
19.953125,2,0.315673798,,,
19.96875,2,-0.072418213,,,
19.984375,2,-0.585266113,,,
20,2,-1.083008051,,,
20.015625,2,-1.415894032,,,
20.03125,2,-1.473816037,,,
20.046875,2,-1.229583979,,,
20.0625,2,-0.759674072,,,
20.078125,2,-0.204467803,,,
20.09375,2,0.25479129,,,
20.109375,2,0.488678008,,,
20.125,2,0.425720215,,,
20.140625,2,0.1141968,,,
20.15625,2,-0.328949004,,,
20.171875,2,-0.740997315,,,
20.1875,2,-0.981079102,,,
20.203125,2,-1.015166998,,,
20.21875,2,-0.93371582,,,
20.234375,2,-0.917205811,,,
20.25,2,-1.108337045,,,
20.265625,2,-1.517029047,,,
20.28125,2,-1.991057992,,,
20.296875,2,-2.277924061,,,
20.3125,2,-2.176909924,,,
20.328125,2,-1.637603998,,,
20.34375,2,-0.777679384,,,
20.359375,2,0.195495606,,,
20.375,2,1.086913943,,,
20.390625,2,1.807891965,,,
20.40625,2,2.360779047,,,
20.421875,2,2.779999018,,,
20.4375,2,3.047271967,,,
20.453125,2,3.074950934,,,
20.46875,2,2.76663208,,,
20.484375,2,2.087860107,,,
20.5,2,1.128082037,,,
20.515625,2,0.087646477,,,
20.53125,2,-0.808288574,,,
20.546875,2,-1.399474978,,,
20.5625,2,-1.646422982,,,
20.578125,2,-1.611510992,,,
20.59375,2,-1.423308969,,,
20.609375,2,-1.17651403,,,
20.625,2,-0.952514589,,,
20.640625,2,-0.752197325,,,
20.65625,2,-0.576965272,,,
20.671875,2,-0.428649902,,,
20.6875,2,-0.316864014,,,
20.703125,2,-0.238250703,,,
20.71875,2,-0.184173599,,,
20.734375,2,-0.121582001,,,
20.75,2,-0.02429199,,,
20.765625,2,0.098114014,,,
20.78125,2,0.183929399,,,
20.796875,2,0.157043502,,,
20.8125,2,-0.048522949,,,
20.828125,2,-0.439086914,,,
20.84375,2,-0.937255919,,,
20.859375,2,-1.392639041,,,
20.875,2,-1.639678955,,,
20.890625,2,-1.540405035,,,
20.90625,2,-1.052459955,,,
20.921875,2,-0.250610411,,,
20.9375,2,0.694213927,,,
20.953125,2,1.555114985,,,
20.96875,2,2.133941889,,,
20.984375,2,2.321381092,,,
21,2,2.142151117,,,
21.015625,2,1.694794059,,,
21.03125,2,1.143982053,,,
21.046875,2,0.64138788,,,
21.0625,2,0.28213501,,,
21.078125,2,0.094573967,,,
21.09375,2,0.04644775,,,
21.109375,2,0.072723389,,,
21.125,2,0.08996582,,,
21.140625,2,0.045501709,,,
21.15625,2,-0.092529297,,,
21.171875,2,-0.318756104,,,
21.1875,2,-0.598846376,,,
21.203125,2,-0.889648378,,,
21.21875,2,-1.162932992,,,
21.234375,2,-1.396088004,,,
21.25,2,-1.584167004,,,
21.265625,2,-1.728363037,,,
21.28125,2,-1.792358041,,,
21.296875,2,-1.719970942,,,
21.3125,2,-1.479889035,,,
21.328125,2,-1.080505014,,,
21.34375,2,-0.588745117,,,
21.359375,2,-0.110382102,,,
21.375,2,0.259368897,,,
21.390625,2,0.485290498,,,
21.40625,2,0.584075928,,,
21.421875,2,0.62853998,,,
21.4375,2,0.672851622,,,
21.453125,2,0.737335205,,,
21.46875,2,0.788421571,,,
21.484375,2,0.756042481,,,
21.5,2,0.60546881,,,
21.515625,2,0.332611114,,,
21.53125,2,-0.022216801,,,
21.546875,2,-0.411193788,,,
21.5625,2,-0.78137207,,,
21.578125,2,-1.116179943,,,
21.59375,2,-1.37777698,,,
21.609375,2,-1.504302979,,,
21.625,2,-1.418488026,,,
21.640625,2,-1.083861947,,,
21.65625,2,-0.521728516,,,
21.671875,2,0.168731704,,,
21.6875,2,0.832427979,,,
21.703125,2,1.32723999,,,
21.71875,2,1.582458019,,,
21.734375,2,1.598510981,,,
21.75,2,1.471892953,,,
21.765625,2,1.289764047,,,
21.78125,2,1.128203988,,,
21.796875,2,1.005493045,,,
21.8125,2,0.873535216,,,
21.828125,2,0.653808594,,,
21.84375,2,0.304657012,,,
21.859375,2,-0.155395493,,,
21.875,2,-0.622924805,,,
21.890625,2,-0.941253722,,,
21.90625,2,-0.959228516,,,
21.921875,2,-0.600982726,,,
21.9375,2,0.078613281,,,
21.953125,2,0.909271181,,,
21.96875,2,1.678284049,,,
21.984375,2,2.197082996,,,
22,2,2.380707026,,,
22.015625,2,2.26553297,,,
22.03125,2,1.965819955,,,
22.046875,2,1.590819955,,,
22.0625,2,1.210358024,,,
22.078125,2,0.830230713,,,
22.09375,2,0.422546387,,,
22.109375,2,-0.02328491,,,
22.125,2,-0.472839385,,,
22.140625,2,-0.862426817,,,
22.15625,2,-1.128234983,,,
22.171875,2,-1.227722049,,,
22.1875,2,-1.164093018,,,
22.203125,2,-0.980316222,,,
22.21875,2,-0.74307251,,,
22.234375,2,-0.545898378,,,
22.25,2,-0.447662413,,,
22.265625,2,-0.469787598,,,
22.28125,2,-0.576354981,,,
22.296875,2,-0.665741026,,,
22.3125,2,-0.620758116,,,
22.328125,2,-0.392608613,,,
22.34375,2,-0.01205444,,,
22.359375,2,0.396606386,,,
22.375,2,0.683624327,,,
22.390625,2,0.742492676,,,
22.40625,2,0.576660216,,,
22.421875,2,0.286560088,,,
22.4375,2,0.008605957,,,
22.453125,2,-0.164703399,,,
22.46875,2,-0.218261704,,,
22.484375,2,-0.189758301,,,
22.5,2,-0.138244599,,,
22.515625,2,-0.115356401,,,
22.53125,2,-0.140625,,,
22.546875,2,-0.230438203,,,
22.5625,2,-0.393493712,,,
22.578125,2,-0.593963623,,,
22.59375,2,-0.760406494,,,
22.609375,2,-0.795043886,,,
22.625,2,-0.630249023,,,
22.640625,2,-0.264556915,,,
22.65625,2,0.214538604,,,
22.671875,2,0.65423578,,,
22.6875,2,0.921173096,,,
22.703125,2,0.962402284,,,
22.71875,2,0.833526611,,,
22.734375,2,0.643981874,,,
22.75,2,0.511260986,,,
22.765625,2,0.484680206,,,
22.78125,2,0.54498291,,,
22.796875,2,0.653320313,,,
22.8125,2,0.774536073,,,
22.828125,2,0.88458252,,,
22.84375,2,0.943572998,,,
22.859375,2,0.859375,,,
22.875,2,0.518310487,,,
22.890625,2,-0.149047896,,,
22.90625,2,-1.075896978,,,
22.921875,2,-2.068298101,,,
22.9375,2,-2.846221924,,,
22.953125,2,-3.143462896,,,
22.96875,2,-2.831696034,,,
22.984375,2,-1.952515006,,,
23,2,-0.671966612,,,
23.015625,2,0.760955811,,,
23.03125,2,2.129089117,,,
23.046875,2,3.270659924,,,
23.0625,2,4.080352783,,,
23.078125,2,4.463225842,,,
23.09375,2,4.351531982,,,
23.109375,2,3.717345953,,,
23.125,2,2.634186029,,,
23.140625,2,1.287047982,,,
23.15625,2,-0.046508789,,,
23.171875,2,-1.096436024,,,
23.1875,2,-1.693480969,,,
23.203125,2,-1.836730957,,,
23.21875,2,-1.676635981,,,
23.234375,2,-1.462188959,,,
23.25,2,-1.384003043,,,
23.265625,2,-1.507995963,,,
23.28125,2,-1.761597037,,,
23.296875,2,-1.984161019,,,
23.3125,2,-2.053618908,,,
23.328125,2,-1.953827024,,,
23.34375,2,-1.771515012,,,
23.359375,2,-1.618805051,,,
23.375,2,-1.557464957,,,
23.390625,2,-1.576720953,,,
23.40625,2,-1.606627941,,,
23.421875,2,-1.567260981,,,
23.4375,2,-1.42266798,,,
23.453125,2,-1.179656982,,,
23.46875,2,-0.891265929,,,
23.484375,2,-0.648468018,,,
23.5,2,-0.500091612,,,
23.515625,2,-0.454162598,,,
23.53125,2,-0.459869415,,,
23.546875,2,-0.425354004,,,
23.5625,2,-0.244537398,,,
23.578125,2,0.127990693,,,
23.59375,2,0.680938721,,,
23.609375,2,1.319092035,,,
23.625,2,1.912415028,,,
23.640625,2,2.352324963,,,
23.65625,2,2.576630116,,,
23.671875,2,2.595885992,,,
23.6875,2,2.472717047,,,
23.703125,2,2.257935047,,,
23.71875,2,1.985564947,,,
23.734375,2,1.640136957,,,
23.75,2,1.197113037,,,
23.765625,2,0.664886475,,,
23.78125,2,0.087677002,,,
23.796875,2,-0.443359405,,,
23.8125,2,-0.833190918,,,
23.828125,2,-0.991607726,,,
23.84375,2,-0.899231017,,,
23.859375,2,-0.595001221,,,
23.875,2,-0.173095703,,,
23.890625,2,0.254394501,,,
23.90625,2,0.572448671,,,
23.921875,2,0.721801817,,,
23.9375,2,0.702545226,,,
23.953125,2,0.594329774,,,
23.96875,2,0.503967285,,,
23.984375,2,0.51159668,,,
24,3,0.633026123,,,
24.015625,3,0.784484923,,,
24.03125,3,0.848083496,,,
24.046875,3,0.727050781,,,
24.0625,3,0.418243408,,,
24.078125,3,0.00378418,,,
24.09375,3,-0.401885986,,,
24.109375,3,-0.721038818,,,
24.125,3,-0.956604004,,,
24.140625,3,-1.133026004,,,
24.15625,3,-1.266875982,,,
24.171875,3,-1.327728033,,,
24.1875,3,-1.231719971,,,
24.203125,3,-0.930541992,,,
24.21875,3,-0.43951419,,,
24.234375,3,0.124511696,,,
24.25,3,0.626434326,,,
24.265625,3,0.943939209,,,
24.28125,3,1.042999029,,,
24.296875,3,0.939788818,,,
24.3125,3,0.712616026,,,
24.328125,3,0.437469512,,,
24.34375,3,0.179229707,,,
24.359375,3,-0.009277344,,,
24.375,3,-0.123870798,,,
24.390625,3,-0.182067901,,,
24.40625,3,-0.249969497,,,
24.421875,3,-0.373321503,,,
24.4375,3,-0.576202393,,,
24.453125,3,-0.803527772,,,
24.46875,3,-0.962463379,,,
24.484375,3,-0.983459473,,,
24.5,3,-0.838897705,,,
24.515625,3,-0.597259522,,,
24.53125,3,-0.352874786,,,
24.546875,3,-0.199981704,,,
24.5625,3,-0.191894501,,,
24.578125,3,-0.29864499,,,
24.59375,3,-0.448486298,,,
24.609375,3,-0.543304384,,,
24.625,3,-0.501953125,,,
24.640625,3,-0.273956299,,,
24.65625,3,0.098144531,,,
24.671875,3,0.506652772,,,
24.6875,3,0.790985107,,,
24.703125,3,0.805755615,,,
24.71875,3,0.500396729,,,
24.734375,3,-0.061889648,,,
24.75,3,-0.711486816,,,
24.765625,3,-1.261474967,,,
24.78125,3,-1.583037973,,,
24.796875,3,-1.655853033,,,
24.8125,3,-1.50997901,,,
24.828125,3,-1.199218988,,,
24.84375,3,-0.73538208,,,
24.859375,3,-0.125457794,,,
24.875,3,0.612060487,,,
24.890625,3,1.403900027,,,
24.90625,3,2.129729986,,,
24.921875,3,2.687988043,,,
24.9375,3,3.036926031,,,
24.953125,3,3.207885981,,,
24.96875,3,3.247375011,,,
24.984375,3,3.15780592,,,
25,3,2.897766113,,,
25.015625,3,2.409209967,,,
25.03125,3,1.702361941,,,
25.046875,3,0.903747618,,,
25.0625,3,0.204956099,,,
25.078125,3,-0.230499297,,,
25.09375,3,-0.315246612,,,
25.109375,3,-0.112243697,,,
25.125,3,0.216583297,,,
25.140625,3,0.507659912,,,
25.15625,3,0.62097168,,,
25.171875,3,0.515685976,,,
25.1875,3,0.241272003,,,
25.203125,3,-0.106964096,,,
25.21875,3,-0.449127197,,,
25.234375,3,-0.737579286,,,
25.25,3,-0.982177675,,,
25.265625,3,-1.205109,,,
25.28125,3,-1.429962039,,,
25.296875,3,-1.626525998,,,
25.3125,3,-1.742370963,,,
25.328125,3,-1.729675055,,,
25.34375,3,-1.57803297,,,
25.359375,3,-1.364562988,,,
25.375,3,-1.185425043,,,
25.390625,3,-1.121857047,,,
25.40625,3,-1.171996951,,,
25.421875,3,-1.275024056,,,
25.4375,3,-1.328704953,,,
25.453125,3,-1.273987055,,,
25.46875,3,-1.096680045,,,
25.484375,3,-0.810729981,,,
25.5,3,-0.428649902,,,
25.515625,3,0.068695068,,,
25.53125,3,0.689025879,,,
25.546875,3,1.392670035,,,
25.5625,3,2.083862066,,,
25.578125,3,2.611388922,,,
25.59375,3,2.869170904,,,
25.609375,3,2.839324951,,,
25.625,3,2.607635021,,,
25.640625,3,2.312804937,,,
25.65625,3,2.074431896,,,
25.671875,3,1.926697016,,,
25.6875,3,1.813537955,,,
25.703125,3,1.633178949,,,
25.71875,3,1.280272961,,,
25.734375,3,0.727386475,,,
25.75,3,0.034942631,,,
25.765625,3,-0.680053711,,,
25.78125,3,-1.301208019,,,
25.796875,3,-1.760437012,,,
25.8125,3,-2.061279059,,,
25.828125,3,-2.236664057,,,
25.84375,3,-2.318329096,,,
25.859375,3,-2.293242931,,,
25.875,3,-2.147766113,,,
25.890625,3,-1.880828977,,,
25.90625,3,-1.537444949,,,
25.921875,3,-1.201964974,,,
25.9375,3,-0.950775087,,,
25.953125,3,-0.813476622,,,
25.96875,3,-0.776916504,,,
25.984375,3,-0.800994873,,,
26,3,-0.879058778,,,
26.015625,3,-1.021209955,,,
26.03125,3,-1.251006961,,,
26.046875,3,-1.52957201,,,
26.0625,3,-1.754852057,,,
26.078125,3,-1.795135021,,,
26.09375,3,-1.563537955,,,
26.109375,3,-1.076233029,,,
26.125,3,-0.472229004,,,
26.140625,3,0.068450928,,,
26.15625,3,0.429779112,,,
26.171875,3,0.600402772,,,
26.1875,3,0.682769775,,,
26.203125,3,0.809600771,,,
26.21875,3,1.05062902,,,
26.234375,3,1.37411499,,,
26.25,3,1.663452029,,,
26.265625,3,1.790802002,,,
26.28125,3,1.659881949,,,
26.296875,3,1.278687,,,
26.3125,3,0.71206671,,,
26.328125,3,0.082641602,,,
26.34375,3,-0.495819092,,,
26.359375,3,-0.92276001,,,
26.375,3,-1.163054943,,,
26.390625,3,-1.209197998,,,
26.40625,3,-1.098297,,,
26.421875,3,-0.879180908,,,
26.4375,3,-0.602966309,,,
26.453125,3,-0.313568085,,,
26.46875,3,-0.062194821,,,
26.484375,3,0.112823501,,,
26.5,3,0.179595903,,,
26.515625,3,0.132324204,,,
26.53125,3,-0.02255249,,,
26.546875,3,-0.260559112,,,
26.5625,3,-0.515869081,,,
26.578125,3,-0.723632813,,,
26.59375,3,-0.815673828,,,
26.609375,3,-0.732055724,,,
26.625,3,-0.457397491,,,
26.640625,3,-0.01419067,,,
26.65625,3,0.520477295,,,
26.671875,3,0.990234375,,,
26.6875,3,1.255401969,,,
26.703125,3,1.214934945,,,
26.71875,3,0.904632628,,,
26.734375,3,0.480285615,,,
26.75,3,0.168121293,,,
26.765625,3,0.1212769,,,
26.78125,3,0.373840302,,,
26.796875,3,0.803100586,,,
26.8125,3,1.233643055,,,
26.828125,3,1.501220942,,,
26.84375,3,1.558258057,,,
26.859375,3,1.456024051,,,
26.875,3,1.286986947,,,
26.890625,3,1.142516971,,,
26.90625,3,1.051849008,,,
26.921875,3,0.973846376,,,
26.9375,3,0.869750977,,,
26.953125,3,0.717468321,,,
26.96875,3,0.551452577,,,
26.984375,3,0.438415498,,,
27,3,0.426055908,,,
27.015625,3,0.532714784,,,
27.03125,3,0.715484619,,,
27.046875,3,0.88204962,,,
27.0625,3,0.936920226,,,
27.078125,3,0.826141417,,,
27.09375,3,0.55065918,,,
27.109375,3,0.167419404,,,
27.125,3,-0.273864687,,,
27.140625,3,-0.74017328,,,
27.15625,3,-1.215209961,,,
27.171875,3,-1.672119021,,,
27.1875,3,-2.027617931,,,
27.203125,3,-2.179503918,,,
27.21875,3,-2.064697027,,,
27.234375,3,-1.735291004,,,
27.25,3,-1.323485971,,,
27.265625,3,-0.994140625,,,
27.28125,3,-0.810333312,,,
27.296875,3,-0.685546875,,,
27.3125,3,-0.466888398,,,
27.328125,3,-0.058685299,,,
27.34375,3,0.470306397,,,
27.359375,3,0.898040772,,,
27.375,3,0.978973389,,,
27.390625,3,0.624816895,,,
27.40625,3,0.01208496,,,
27.421875,3,-0.521362305,,,
27.4375,3,-0.641174316,,,
27.453125,3,-0.237701401,,,
27.46875,3,0.51574707,,,
27.484375,3,1.252135992,,,
27.5,3,1.639618039,,,
27.515625,3,1.554412961,,,
27.53125,3,1.148864985,,,
27.546875,3,0.727233887,,,
27.5625,3,0.538848877,,,
27.578125,3,0.64956671,,,
27.59375,3,0.902984619,,,
27.609375,3,1.060242057,,,
27.625,3,0.965270996,,,
27.640625,3,0.641540527,,,
27.65625,3,0.279785186,,,
27.671875,3,0.1159973,,,
27.6875,3,0.258209199,,,
27.703125,3,0.647857726,,,
27.71875,3,1.081817985,,,
27.734375,3,1.368530035,,,
27.75,3,1.420287967,,,
27.765625,3,1.285583019,,,
27.78125,3,1.080749989,,,
27.796875,3,0.86831671,,,
27.8125,3,0.624389589,,,
27.828125,3,0.251709014,,,
27.84375,3,-0.331359893,,,
27.859375,3,-1.099364996,,,
27.875,3,-1.896911979,,,
27.890625,3,-2.506103993,,,
27.90625,3,-2.742156982,,,
27.921875,3,-2.548248053,,,
27.9375,3,-2.004333019,,,
27.953125,3,-1.310058951,,,
27.96875,3,-0.658416688,,,
27.984375,3,-0.176574707,,,
28,3,0.123840302,,,
28.015625,3,0.312805206,,,
28.03125,3,0.465209991,,,
28.046875,3,0.605895996,,,
28.0625,3,0.672943115,,,
28.078125,3,0.566558778,,,
28.09375,3,0.196990997,,,
28.109375,3,-0.427123994,,,
28.125,3,-1.188537955,,,
28.140625,3,-1.903992057,,,
28.15625,3,-2.415131092,,,
28.171875,3,-2.666779041,,,
28.1875,3,-2.712188959,,,
28.203125,3,-2.643433094,,,
28.21875,3,-2.53677392,,,
28.234375,3,-2.394287109,,,
28.25,3,-2.179564953,,,
28.265625,3,-1.883728027,,,
28.28125,3,-1.54864502,,,
28.296875,3,-1.275969982,,,
28.3125,3,-1.158203006,,,
28.328125,3,-1.201416016,,,
28.34375,3,-1.317963004,,,
28.359375,3,-1.342316032,,,
28.375,3,-1.146178961,,,
28.390625,3,-0.685546875,,,
28.40625,3,-0.051177979,,,
28.421875,3,0.597503722,,,
28.4375,3,1.117249012,,,
28.453125,3,1.432036996,,,
28.46875,3,1.557250977,,,
28.484375,3,1.574890018,,,
28.5,3,1.559600949,,,
28.515625,3,1.565551996,,,
28.53125,3,1.593932986,,,
28.546875,3,1.628783941,,,
28.5625,3,1.677489996,,,
28.578125,3,1.753937006,,,
28.59375,3,1.871459961,,,
28.609375,3,1.980164051,,,
28.625,3,1.981750011,,,
28.640625,3,1.743896008,,,
28.65625,3,1.217437983,,,
28.671875,3,0.470428497,,,
28.6875,3,-0.303985596,,,
28.703125,3,-0.861175478,,,
28.71875,3,-1.042541981,,,
28.734375,3,-0.828643799,,,
28.75,3,-0.369018614,,,
28.765625,3,0.145843506,,,
28.78125,3,0.541168213,,,
28.796875,3,0.734069824,,,
28.8125,3,0.749908388,,,
28.828125,3,0.661102295,,,
28.84375,3,0.544189513,,,
28.859375,3,0.456878692,,,
28.875,3,0.409851104,,,
28.890625,3,0.398651093,,,
28.90625,3,0.370849609,,,
28.921875,3,0.243530303,,,
28.9375,3,-0.034301762,,,
28.953125,3,-0.439422607,,,
28.96875,3,-0.877105713,,,
28.984375,3,-1.174957037,,,
29,3,-1.204345942,,,
29.015625,3,-0.926391602,,,
29.03125,3,-0.451873809,,,
29.046875,3,0.0296936,,,
29.0625,3,0.346496612,,,
29.078125,3,0.454498291,,,
29.09375,3,0.446044892,,,
29.109375,3,0.485107392,,,
29.125,3,0.708129883,,,
29.140625,3,1.142547965,,,
29.15625,3,1.69293201,,,
29.171875,3,2.183867931,,,
29.1875,3,2.461182118,,,
29.203125,3,2.439239979,,,
29.21875,3,2.124450922,,,
29.234375,3,1.591002941,,,
29.25,3,0.928222716,,,
29.265625,3,0.244506806,,,
29.28125,3,-0.34753421,,,
29.296875,3,-0.785186827,,,
29.3125,3,-1.033539057,,,
29.328125,3,-1.113494992,,,
29.34375,3,-1.088196039,,,
29.359375,3,-1.004883051,,,
29.375,3,-0.880523682,,,
29.390625,3,-0.700439513,,,
29.40625,3,-0.435333312,,,
29.421875,3,-0.087341309,,,
29.4375,3,0.282470703,,,
29.453125,3,0.591216981,,,
29.46875,3,0.749420226,,,
29.484375,3,0.724365175,,,
29.5,3,0.542205811,,,
29.515625,3,0.296203613,,,
29.53125,3,0.099731453,,,
29.546875,3,0.05233765,,,
29.5625,3,0.189910904,,,
29.578125,3,0.474517793,,,
29.59375,3,0.797241211,,,
29.609375,3,1.026458979,,,
29.625,3,1.056396008,,,
29.640625,3,0.859435976,,,
29.65625,3,0.495727509,,,
29.671875,3,0.067840584,,,
29.6875,3,-0.318328887,,,
29.703125,3,-0.631195128,,,
29.71875,3,-0.910614014,,,
29.734375,3,-1.216369987,,,
29.75,3,-1.556030035,,,
29.765625,3,-1.865906,,,
29.78125,3,-2.032562017,,,
29.796875,3,-1.954987049,,,
29.8125,3,-1.617797971,,,
29.828125,3,-1.102264047,,,
29.84375,3,-0.556610107,,,
29.859375,3,-0.1328125,,,
29.875,3,0.111816399,,,
29.890625,3,0.210754395,,,
29.90625,3,0.270843506,,,
29.921875,3,0.3877258,,,
29.9375,3,0.594604492,,,
29.953125,3,0.823394775,,,
29.96875,3,0.980194092,,,
29.984375,3,1.00079298,,,
30,3,0.898223877,,,
30.015625,3,0.767700195,,,
30.03125,3,0.725067079,,,
30.046875,3,0.842590272,,,
30.0625,3,1.086151004,,,
30.078125,3,1.353332996,,,
30.09375,3,1.509063959,,,
30.109375,3,1.477813959,,,
30.125,3,1.263213992,,,
30.140625,3,0.971221924,,,
30.15625,3,0.747711182,,,
30.171875,3,0.7081604,,,
30.1875,3,0.861908019,,,
30.203125,3,1.12490797,,,
30.21875,3,1.325867057,,,
30.234375,3,1.307708979,,,
30.25,3,1.012238026,,,
30.265625,3,0.524749816,,,
30.28125,3,0.041259769,,,
30.296875,3,-0.248840302,,,
30.3125,3,-0.254943788,,,
30.328125,3,-0.0406189,,,
30.34375,3,0.228973404,,,
30.359375,3,0.391418487,,,
30.375,3,0.36807251,,,
30.390625,3,0.204254195,,,
30.40625,3,0.000305176,,,
30.421875,3,-0.1640625,,,
30.4375,3,-0.278167695,,,
30.453125,3,-0.388915986,,,
30.46875,3,-0.533569276,,,
30.484375,3,-0.692504883,,,
30.5,3,-0.76953131,,,
30.515625,3,-0.671051025,,,
30.53125,3,-0.376983613,,,
30.546875,3,0.002716064,,,
30.5625,3,0.270568788,,,
30.578125,3,0.229370102,,,
30.59375,3,-0.215759307,,,
30.609375,3,-0.978302002,,,
30.625,3,-1.849426031,,,
30.640625,3,-2.555785894,,,
30.65625,3,-2.877350092,,,
30.671875,3,-2.696624994,,,
30.6875,3,-2.083220959,,,
30.703125,3,-1.194885016,,,
30.71875,3,-0.27722171,,,
30.734375,3,0.462554902,,,
30.75,3,0.89440918,,,
30.765625,3,0.995788574,,,
30.78125,3,0.846405029,,,
30.796875,3,0.547271729,,,
30.8125,3,0.182525605,,,
30.828125,3,-0.199371293,,,
30.84375,3,-0.544372618,,,
30.859375,3,-0.807830811,,,
30.875,3,-0.950866699,,,
30.890625,3,-0.968231201,,,
30.90625,3,-0.938293517,,,
30.921875,3,-0.969940186,,,
30.9375,3,-1.172821045,,,
30.953125,3,-1.542052984,,,
30.96875,3,-1.967406988,,,
30.984375,3,-2.266814947,,,
31,3,-2.284240961,,,
31.015625,3,-1.984923959,,,
31.03125,3,-1.426818967,,,
31.046875,3,-0.735443115,,,
31.0625,3,-0.007171631,,,
31.078125,3,0.683410585,,,
31.09375,3,1.276397944,,,
31.109375,3,1.692566037,,,
31.125,3,1.868041992,,,
31.140625,3,1.793732047,,,
31.15625,3,1.55874598,,,
31.171875,3,1.326019049,,,
31.1875,3,1.202515006,,,
31.203125,3,1.220734,,,
31.21875,3,1.280272961,,,
31.234375,3,1.223999023,,,
31.25,3,0.94442749,,,
31.265625,3,0.453033388,,,
31.28125,3,-0.122497603,,,
31.296875,3,-0.606048584,,,
31.3125,3,-0.868927002,,,
31.328125,3,-0.884521484,,,
31.34375,3,-0.701934815,,,
31.359375,3,-0.45135501,,,
31.375,3,-0.25579831,,,
31.390625,3,-0.196441695,,,
31.40625,3,-0.29107669,,,
31.421875,3,-0.472564697,,,
31.4375,3,-0.613525391,,,
31.453125,3,-0.592163086,,,
31.46875,3,-0.353759795,,,
31.484375,3,0.062591553,,,
31.5,3,0.529449523,,,
31.515625,3,0.892089784,,,
31.53125,3,1.043548942,,,
31.546875,3,0.966064513,,,
31.5625,3,0.743560791,,,
31.578125,3,0.482574493,,,
31.59375,3,0.270263702,,,
31.609375,3,0.134429902,,,
31.625,3,0.05267334,,,
31.640625,3,-0.016876221,,,
31.65625,3,-0.081512451,,,
31.671875,3,-0.103454597,,,
31.6875,3,-0.027862551,,,
31.703125,3,0.176605195,,,
31.71875,3,0.500793517,,,
31.734375,3,0.855835021,,,
31.75,3,1.160248041,,,
31.765625,3,1.372498035,,,
31.78125,3,1.532410026,,,
31.796875,3,1.730988026,,,
31.8125,3,2.033447027,,,
31.828125,3,2.403870106,,,
31.84375,3,2.712860107,,,
31.859375,3,2.774872065,,,
31.875,3,2.469696045,,,
31.890625,3,1.811339974,,,
31.90625,3,0.954193115,,,
31.921875,3,0.1074524,,,
31.9375,3,-0.544616699,,,
31.953125,3,-0.910369873,,,
31.96875,3,-1.001984,,,
31.984375,3,-0.910003722,,,
32,4,-0.727050781,,,
32.015625,4,-0.53012079,,,
32.03125,4,-0.376312286,,,
32.046875,4,-0.290802002,,,
32.0625,4,-0.281494111,,,
32.078125,4,-0.34576419,,,
32.09375,4,-0.478363007,,,
32.109375,4,-0.689056397,,,
32.125,4,-1.015930057,,,
32.140625,4,-1.469086051,,,
32.15625,4,-2.026336908,,,
32.171875,4,-2.613007069,,,
32.1875,4,-3.111206055,,,
32.203125,4,-3.420470953,,,
32.21875,4,-3.4906919,,,
32.234375,4,-3.339324951,,,
32.25,4,-3.021912098,,,
32.265625,4,-2.611603022,,,
32.28125,4,-2.179900885,,,
32.296875,4,-1.778167963,,,
32.3125,4,-1.446503043,,,
32.328125,4,-1.204772949,,,
32.34375,4,-1.022246957,,,
32.359375,4,-0.834960878,,,
32.375,4,-0.557556212,,,
32.390625,4,-0.119689897,,,
32.40625,4,0.470184296,,,
32.421875,4,1.132689953,,,
32.4375,4,1.730774045,,,
32.453125,4,2.123626947,,,
32.46875,4,2.230164051,,,
32.484375,4,2.058104992,,,
32.5,4,1.692047,,,
32.515625,4,1.262938976,,,
32.53125,4,0.892211914,,,
32.546875,4,0.652404785,,,
32.5625,4,0.567901611,,,
32.578125,4,0.585845888,,,
32.59375,4,0.628143311,,,
32.609375,4,0.629943788,,,
32.625,4,0.558013916,,,
32.640625,4,0.418243408,,,
32.65625,4,0.270172089,,,
32.671875,4,0.199951202,,,
32.6875,4,0.2685242,,,
32.703125,4,0.494293213,,,
32.71875,4,0.828674316,,,
32.734375,4,1.139435053,,,
32.75,4,1.254058957,,,
32.765625,4,1.053802013,,,
32.78125,4,0.520111084,,,
32.796875,4,-0.215362504,,,
32.8125,4,-0.931823671,,,
32.828125,4,-1.431121945,,,
32.84375,4,-1.614868045,,,
32.859375,4,-1.521088004,,,
32.875,4,-1.258972049,,,
32.890625,4,-0.923797607,,,
32.90625,4,-0.507446289,,,
32.921875,4,0.048492432,,,
32.9375,4,0.770141602,,,
32.953125,4,1.561493039,,,
32.96875,4,2.212493897,,,
32.984375,4,2.488189936,,,
33,4,2.282654047,,,
33.015625,4,1.680510998,,,
33.03125,4,0.923065186,,,
33.046875,4,0.238830596,,,
33.0625,4,-0.288452089,,,
33.078125,4,-0.757476807,,,
33.09375,4,-1.340790033,,,
33.109375,4,-2.127013922,,,
33.125,4,-3.019623041,,,
33.140625,4,-3.768188,,,
33.15625,4,-4.13952589,,,
33.171875,4,-4.037598133,,,
33.1875,4,-3.600585938,,,
33.203125,4,-3.104767084,,,
33.21875,4,-2.784575939,,,
33.234375,4,-2.707214117,,,
33.25,4,-2.74832201,,,
33.265625,4,-2.683319092,,,
33.28125,4,-2.355712891,,,
33.296875,4,-1.748718023,,,
33.3125,4,-0.99105829,,,
33.328125,4,-0.271636993,,,
33.34375,4,0.2655029,,,
33.359375,4,0.600524902,,,
33.375,4,0.807495117,,,
33.390625,4,0.985412598,,,
33.40625,4,1.198212028,,,
33.421875,4,1.428527951,,,
33.4375,4,1.571105957,,,
33.453125,4,1.509399056,,,
33.46875,4,1.17532301,,,
33.484375,4,0.612182617,,,
33.5,4,-0.050964359,,,
33.515625,4,-0.648010314,,,
33.53125,4,-1.037536979,,,
33.546875,4,-1.170227051,,,
33.5625,4,-1.094879031,,,
33.578125,4,-0.956115723,,,
33.59375,4,-0.911773682,,,
33.609375,4,-1.093536019,,,
33.625,4,-1.524657965,,,
33.640625,4,-2.098267078,,,
33.65625,4,-2.646514893,,,
33.671875,4,-2.972229004,,,
33.6875,4,-2.958739996,,,
33.703125,4,-2.596190929,,,
33.71875,4,-1.972594976,,,
33.734375,4,-1.213683963,,,
33.75,4,-0.404724091,,,
33.765625,4,0.419738799,,,
33.78125,4,1.269744992,,,
33.796875,4,2.154815912,,,
33.8125,4,3.018311024,,,
33.828125,4,3.751250982,,,
33.84375,4,4.238037109,,,
33.859375,4,4.422515869,,,
33.875,4,4.334990978,,,
33.890625,4,4.068878174,,,
33.90625,4,3.733246088,,,
33.921875,4,3.421509028,,,
33.9375,4,3.176085949,,,
33.953125,4,3.012360096,,,
33.96875,4,2.933043957,,,
33.984375,4,2.926788092,,,
34,4,2.966125011,,,
34.015625,4,2.981139898,,,
34.03125,4,2.910491943,,,
34.046875,4,2.716948986,,,
34.0625,4,2.419951916,,,
34.078125,4,2.09451294,,,
34.09375,4,1.859405994,,,
34.109375,4,1.774230957,,,
34.125,4,1.804352045,,,
34.140625,4,1.816741943,,,
34.15625,4,1.632843018,,,
34.171875,4,1.120849967,,,
34.1875,4,0.261566192,,,
34.203125,4,-0.84576422,,,
34.21875,4,-2.006896973,,,
34.234375,4,-3.031799078,,,
34.25,4,-3.732543945,,,
34.265625,4,-4.002686024,,,
34.28125,4,-3.822417975,,,
34.296875,4,-3.258850098,,,
34.3125,4,-2.472382069,,,
34.328125,4,-1.692108035,,,
34.34375,4,-1.160248041,,,
34.359375,4,-1.052947998,,,
34.375,4,-1.411530018,,,
34.390625,4,-2.135680914,,,
34.40625,4,-3.015014887,,,
34.421875,4,-3.788939953,,,
34.4375,4,-4.264434815,,,
34.453125,4,-4.349608898,,,
34.46875,4,-4.082427979,,,
34.484375,4,-3.595184088,,,
34.5,4,-3.074218988,,,
34.515625,4,-2.682037115,,,
34.53125,4,-2.487426996,,,
34.546875,4,-2.432831049,,,
34.5625,4,-2.326751947,,,
34.578125,4,-1.930297971,,,
34.59375,4,-1.063720942,,,
34.609375,4,0.284362793,,,
34.625,4,1.901183963,,,
34.640625,4,3.412811041,,,
34.65625,4,4.416718006,,,
34.671875,4,4.669188976,,,
34.6875,4,4.177155018,,,
34.703125,4,3.181610107,,,
34.71875,4,2.060698986,,,
34.734375,4,1.133545041,,,
34.75,4,0.592590272,,,
34.765625,4,0.464965791,,,
34.78125,4,0.678833008,,,
34.796875,4,1.124755979,,,
34.8125,4,1.700286984,,,
34.828125,4,2.333129883,,,
34.84375,4,2.951904059,,,
34.859375,4,3.458190918,,,
34.875,4,3.759582996,,,
34.890625,4,3.759337902,,,
34.90625,4,3.411834955,,,
34.921875,4,2.767699957,,,
34.9375,4,1.952605963,,,
34.953125,4,1.163604975,,,
34.96875,4,0.59954828,,,
34.984375,4,0.428314209,,,
35,4,0.722473085,,,
35.015625,4,1.452849984,,,
35.03125,4,2.514343023,,,
35.046875,4,3.723145008,,,
35.0625,4,4.903015137,,,
35.078125,4,5.914519787,,,
35.09375,4,6.657166004,,,
35.109375,4,7.104401112,,,
35.125,4,7.249268055,,,
35.140625,4,7.10870409,,,
35.15625,4,6.694365978,,,
35.171875,4,6.038391113,,,
35.1875,4,5.181243897,,,
35.203125,4,4.206604004,,,
35.21875,4,3.21875,,,
35.234375,4,2.297606945,,,
35.25,4,1.514191032,,,
35.265625,4,0.872253418,,,
35.28125,4,0.363037109,,,
35.296875,4,-0.02908325,,,
35.3125,4,-0.323059112,,,
35.328125,4,-0.559448183,,,
35.34375,4,-0.787383974,,,
35.359375,4,-1.073058963,,,
35.375,4,-1.456451058,,,
35.390625,4,-1.906952024,,,
35.40625,4,-2.327178955,,,
35.421875,4,-2.599792004,,,
35.4375,4,-2.672698975,,,
35.453125,4,-2.594970942,,,
35.46875,4,-2.505798101,,,
35.484375,4,-2.543091059,,,
35.5,4,-2.765929937,,,
35.515625,4,-3.105712891,,,
35.53125,4,-3.424865961,,,
35.546875,4,-3.60208106,,,
35.5625,4,-3.59185791,,,
35.578125,4,-3.443847895,,,
35.59375,4,-3.250854015,,,
35.609375,4,-3.063628912,,,
35.625,4,-2.885529041,,,
35.640625,4,-2.663604975,,,
35.65625,4,-2.359924078,,,
35.671875,4,-1.978850961,,,
35.6875,4,-1.600983024,,,
35.703125,4,-1.325165033,,,
35.71875,4,-1.23724401,,,
35.734375,4,-1.349334955,,,
35.75,4,-1.616577029,,,
35.765625,4,-1.938477039,,,
35.78125,4,-2.216002941,,,
35.796875,4,-2.362946034,,,
35.8125,4,-2.350891113,,,
35.828125,4,-2.233246088,,,
35.84375,4,-2.127959967,,,
35.859375,4,-2.173949957,,,
35.875,4,-2.455291987,,,
35.890625,4,-2.934752941,,,
35.90625,4,-3.441009998,,,
35.921875,4,-3.766814947,,,
35.9375,4,-3.743804932,,,
35.953125,4,-3.371216059,,,
35.96875,4,-2.794495106,,,
35.984375,4,-2.241516113,,,
36,4,-1.916991949,,,
36.015625,4,-1.912750006,,,
36.03125,4,-2.182373047,,,
36.046875,4,-2.613677979,,,
36.0625,4,-3.046813965,,,
36.078125,4,-3.333862066,,,
36.09375,4,-3.347136974,,,
36.109375,4,-2.981476069,,,
36.125,4,-2.189971924,,,
36.140625,4,-1.022217035,,,
36.15625,4,0.346862793,,,
36.171875,4,1.656921029,,,
36.1875,4,2.635010004,,,
36.203125,4,3.128174067,,,
36.21875,4,3.131042004,,,
36.234375,4,2.798827887,,,
36.25,4,2.332335949,,,
36.265625,4,1.890045047,,,
36.28125,4,1.551422,,,
36.296875,4,1.320739985,,,
36.3125,4,1.177551031,,,
36.328125,4,1.133514047,,,
36.34375,4,1.21588099,,,
36.359375,4,1.437927008,,,
36.375,4,1.731171012,,,
36.390625,4,1.971282959,,,
36.40625,4,2.017669916,,,
36.421875,4,1.803833008,,,
36.4375,4,1.368834972,,,
36.453125,4,0.86895752,,,
36.46875,4,0.483764589,,,
36.484375,4,0.35244751,,,
36.5,4,0.49331671,,,
36.515625,4,0.800842285,,,
36.53125,4,1.140594006,,,
36.546875,4,1.378783941,,,
36.5625,4,1.475890994,,,
36.578125,4,1.454375982,,,
36.59375,4,1.384003043,,,
36.609375,4,1.313904047,,,
36.625,4,1.261016965,,,
36.640625,4,1.207916021,,,
36.65625,4,1.134124994,,,
36.671875,4,1.050994992,,,
36.6875,4,0.986419678,,,
36.703125,4,0.988677979,,,
36.71875,4,1.073822022,,,
36.734375,4,1.232360959,,,
36.75,4,1.411072016,,,
36.765625,4,1.551085949,,,
36.78125,4,1.590515018,,,
36.796875,4,1.489410043,,,
36.8125,4,1.224517942,,,
36.828125,4,0.805938721,,,
36.84375,4,0.274536103,,,
36.859375,4,-0.279907197,,,
36.875,4,-0.748748779,,,
36.890625,4,-1.037078977,,,
36.90625,4,-1.107056022,,,
36.921875,4,-0.985229492,,,
36.9375,4,-0.755706787,,,
36.953125,4,-0.500060976,,,
36.96875,4,-0.271697998,,,
36.984375,4,-0.062011719,,,
37,4,0.178436294,,,
37.015625,4,0.4972229,,,
37.03125,4,0.911102295,,,
37.046875,4,1.381194949,,,
37.0625,4,1.831146002,,,
37.078125,4,2.128509998,,,
37.09375,4,2.169769049,,,
37.109375,4,1.891388059,,,
37.125,4,1.318969965,,,
37.140625,4,0.56414789,,,
37.15625,4,-0.200195298,,,
37.171875,4,-0.813232422,,,
37.1875,4,-1.175719976,,,
37.203125,4,-1.289885998,,,
37.21875,4,-1.215484977,,,
37.234375,4,-1.049622059,,,
37.25,4,-0.877319276,,,
37.265625,4,-0.73348999,,,
37.28125,4,-0.625427187,,,
37.296875,4,-0.576049805,,,
37.3125,4,-0.61102289,,,
37.328125,4,-0.750213623,,,
37.34375,4,-0.971466124,,,
37.359375,4,-1.203430057,,,
37.375,4,-1.358093023,,,
37.390625,4,-1.380401969,,,
37.40625,4,-1.281921029,,,
37.421875,4,-1.143036008,,,
37.4375,4,-1.068084955,,,
37.453125,4,-1.117187977,,,
37.46875,4,-1.263793945,,,
37.484375,4,-1.423614979,,,
37.5,4,-1.487090945,,,
37.515625,4,-1.393249989,,,
37.53125,4,-1.161133051,,,
37.546875,4,-0.884643614,,,
37.5625,4,-0.670776427,,,
37.578125,4,-0.583465576,,,
37.59375,4,-0.624145508,,,
37.609375,4,-0.728393614,,,
37.625,4,-0.819122315,,,
37.640625,4,-0.844085693,,,
37.65625,4,-0.802032471,,,
37.671875,4,-0.72946173,,,
37.6875,4,-0.668151915,,,
37.703125,4,-0.61102289,,,
37.71875,4,-0.506744385,,,
37.734375,4,-0.272003204,,,
37.75,4,0.125518799,,,
37.765625,4,0.664550781,,,
37.78125,4,1.266785026,,,
37.796875,4,1.802399039,,,
37.8125,4,2.189513922,,,
37.828125,4,2.391693115,,,
37.84375,4,2.45489502,,,
37.859375,4,2.465514898,,,
37.875,4,2.511414051,,,
37.890625,4,2.60183692,,,
37.90625,4,2.678589106,,,
37.921875,4,2.633392096,,,
37.9375,4,2.386475086,,,
37.953125,4,1.941985965,,,
37.96875,4,1.400542975,,,
37.984375,4,0.895172119,,,
38,4,0.516265929,,,
38.015625,4,0.257202089,,,
38.03125,4,0.039581299,,,
38.046875,4,-0.234680206,,,
38.0625,4,-0.600158691,,,
38.078125,4,-0.985992372,,,
38.09375,4,-1.239562988,,,
38.109375,4,-1.223906994,,,
38.125,4,-0.90045172,,,
38.140625,4,-0.360412598,,,
38.15625,4,0.210571304,,,
38.171875,4,0.64151001,,,
38.1875,4,0.839599609,,,
38.203125,4,0.80078131,,,
38.21875,4,0.566009522,,,
38.234375,4,0.196685806,,,
38.25,4,-0.264190704,,,
38.265625,4,-0.753051817,,,
38.28125,4,-1.189635992,,,
38.296875,4,-1.475311041,,,
38.3125,4,-1.548949957,,,
38.328125,4,-1.380614996,,,
38.34375,4,-1.010895014,,,
38.359375,4,-0.525360107,,,
38.375,4,-0.042266849,,,
38.390625,4,0.307128906,,,
38.40625,4,0.426727295,,,
38.421875,4,0.278137207,,,
38.4375,4,-0.097747803,,,
38.453125,4,-0.579986572,,,
38.46875,4,-0.991088927,,,
38.484375,4,-1.175690055,,,
38.5,4,-1.050261974,,,
38.515625,4,-0.681396484,,,
38.53125,4,-0.211212203,,,
38.546875,4,0.164245606,,,
38.5625,4,0.334075898,,,
38.578125,4,0.273345888,,,
38.59375,4,0.05725098,,,
38.609375,4,-0.199218795,,,
38.625,4,-0.408874512,,,
38.640625,4,-0.497772187,,,
38.65625,4,-0.446258485,,,
38.671875,4,-0.246337906,,,
38.6875,4,0.079711907,,,
38.703125,4,0.473754913,,,
38.71875,4,0.877044678,,,
38.734375,4,1.241760016,,,
38.75,4,1.543091059,,,
38.765625,4,1.751556039,,,
38.78125,4,1.863098025,,,
38.796875,4,1.871857047,,,
38.8125,4,1.759704948,,,
38.828125,4,1.555510998,,,
38.84375,4,1.288756967,,,
38.859375,4,1.007660031,,,
38.875,4,0.739227295,,,
38.890625,4,0.468322814,,,
38.90625,4,0.149292007,,,
38.921875,4,-0.244293198,,,
38.9375,4,-0.710357726,,,
38.953125,4,-1.193297982,,,
38.96875,4,-1.598999023,,,
38.984375,4,-1.864959955,,,
39,4,-1.933318973,,,
39.015625,4,-1.807831049,,,
39.03125,4,-1.483551025,,,
39.046875,4,-0.965942383,,,
39.0625,4,-0.253417999,,,
39.078125,4,0.630767822,,,
39.09375,4,1.592772961,,,
39.109375,4,2.492034912,,,
39.125,4,3.143218994,,,
39.140625,4,3.39138794,,,
39.15625,4,3.161957026,,,
39.171875,4,2.511138916,,,
39.1875,4,1.589354992,,,
39.203125,4,0.600158691,,,
39.21875,4,-0.294220001,,,
39.234375,4,-1.000548959,,,
39.25,4,-1.481994987,,,
39.265625,4,-1.76937902,,,
39.28125,4,-1.878967047,,,
39.296875,4,-1.822234988,,,
39.3125,4,-1.610991955,,,
39.328125,4,-1.257110953,,,
39.34375,4,-0.79284668,,,
39.359375,4,-0.264190704,,,
39.375,4,0.273101807,,,
39.390625,4,0.771881104,,,
39.40625,4,1.167145014,,,
39.421875,4,1.401458979,,,
39.4375,4,1.425567985,,,
39.453125,4,1.22161901,,,
39.46875,4,0.841766417,,,
39.484375,4,0.393096894,,,
39.5,4,0.00869751,,,
39.515625,4,-0.187194794,,,
39.53125,4,-0.171112105,,,
39.546875,4,-0.006408691,,,
39.5625,4,0.165924102,,,
39.578125,4,0.184112504,,,
39.59375,4,-0.041564941,,,
39.609375,4,-0.510864317,,,
39.625,4,-1.111968994,,,
39.640625,4,-1.684082031,,,
39.65625,4,-2.066283941,,,
39.671875,4,-2.152039051,,,
39.6875,4,-1.937438965,,,
39.703125,4,-1.499511957,,,
39.71875,4,-0.966705322,,,
39.734375,4,-0.500305176,,,
39.75,4,-0.192748994,,,
39.765625,4,-0.085601807,,,
39.78125,4,-0.1354675,,,
39.796875,4,-0.231720001,,,
39.8125,4,-0.268890411,,,
39.828125,4,-0.177001998,,,
39.84375,4,0.045135502,,,
39.859375,4,0.341644287,,,
39.875,4,0.612793028,,,
39.890625,4,0.779174805,,,
39.90625,4,0.7918396,,,
39.921875,4,0.647521973,,,
39.9375,4,0.382446289,,,
39.953125,4,0.044342041,,,
39.96875,4,-0.316833496,,,
39.984375,4,-0.665802002,,,
40,5,-1.006865978,,,
40.015625,5,-1.331725955,,,
40.03125,5,-1.653534055,,,
40.046875,5,-1.942016959,,,
40.0625,5,-2.171539068,,,
40.078125,5,-2.336303949,,,
40.09375,5,-2.473723888,,,
40.109375,5,-2.651978016,,,
40.125,5,-2.933777094,,,
40.140625,5,-3.348328114,,,
40.15625,5,-3.834290028,,,
40.171875,5,-4.266479015,,,
40.1875,5,-4.510222912,,,
40.203125,5,-4.483032227,,,
40.21875,5,-4.18951416,,,
40.234375,5,-3.71142602,,,
40.25,5,-3.150115967,,,
40.265625,5,-2.590667963,,,
40.28125,5,-2.057952881,,,
40.296875,5,-1.553925037,,,
40.3125,5,-1.049010992,,,
40.328125,5,-0.558166504,,,
40.34375,5,-0.116699196,,,
40.359375,5,0.206481904,,,
40.375,5,0.332977295,,,
40.390625,5,0.206420898,,,
40.40625,5,-0.180542007,,,
40.421875,5,-0.781189024,,,
40.4375,5,-1.515594006,,,
40.453125,5,-2.298980951,,,
40.46875,5,-3.082672119,,,
40.484375,5,-3.852202892,,,
40.5,5,-4.597167969,,,
40.515625,5,-5.271118164,,,
40.53125,5,-5.786682129,,,
40.546875,5,-6.070618153,,,
40.5625,5,-6.11404419,,,
40.578125,5,-6.027222157,,,
40.59375,5,-6.02029419,,,
40.609375,5,-6.258361816,,,
40.625,5,-6.769104004,,,
40.640625,5,-7.330261231,,,
40.65625,5,-7.608948231,,,
40.671875,5,-7.2373662,,,
40.6875,5,-6.049438,,,
40.703125,5,-4.12567091,,,
40.71875,5,-1.757598996,,,
40.734375,5,0.709838927,,,
40.75,5,3.030700922,,,
40.765625,5,5.054199219,,,
40.78125,5,6.729888916,,,
40.796875,5,7.984984875,,,
40.8125,5,8.762268066,,,
40.828125,5,9.03894043,,,
40.84375,5,8.886962891,,,
40.859375,5,8.489624023,,,
40.875,5,8.059661865,,,
40.890625,5,7.748839855,,,
40.90625,5,7.595551014,,,
40.921875,5,7.51495409,,,
40.9375,5,7.369414806,,,
40.953125,5,7.034423828,,,
40.96875,5,6.462097168,,,
40.984375,5,5.671112061,,,
41,5,4.76651001,,,
41.015625,5,3.851867914,,,
41.03125,5,3.062164068,,,
41.046875,5,2.475922108,,,
41.0625,5,2.139678955,,,
41.078125,5,2.020081043,,,
41.09375,5,2.035430908,,,
41.109375,5,2.087311029,,,
41.125,5,2.080657959,,,
41.140625,5,2.000731945,,,
41.15625,5,1.831055045,,,
41.171875,5,1.627715945,,,
41.1875,5,1.432800055,,,
41.203125,5,1.323516965,,,
41.21875,5,1.351928949,,,
41.234375,5,1.560333014,,,
41.25,5,1.911713004,,,
41.265625,5,2.300842047,,,
41.28125,5,2.57348609,,,
41.296875,5,2.576720953,,,
41.3125,5,2.223815918,,,
41.328125,5,1.546478033,,,
41.34375,5,0.69152832,,,
41.359375,5,-0.136138901,,,
41.375,5,-0.716613829,,,
41.390625,5,-0.932647705,,,
41.40625,5,-0.765930176,,,
41.421875,5,-0.310790986,,,
41.4375,5,0.261077911,,,
41.453125,5,0.793518126,,,
41.46875,5,1.185242057,,,
41.484375,5,1.421753049,,,
41.5,5,1.553588986,,,
41.515625,5,1.649170041,,,
41.53125,5,1.777466059,,,
41.546875,5,1.959807992,,,
41.5625,5,2.206847906,,,
41.578125,5,2.473937988,,,
41.59375,5,2.712707996,,,
41.609375,5,2.833374023,,,
41.625,5,2.768065929,,,
41.640625,5,2.469666004,,,
41.65625,5,1.962401986,,,
41.671875,5,1.328063965,,,
41.6875,5,0.67352289,,,
41.703125,5,0.097198486,,,
41.71875,5,-0.36907959,,,
41.734375,5,-0.7237854,,,
41.75,5,-0.988983214,,,
41.765625,5,-1.150084972,,,
41.78125,5,-1.165465951,,,
41.796875,5,-0.974731386,,,
41.8125,5,-0.56652832,,,
41.828125,5,0.0135498,,,
41.84375,5,0.639526427,,,
41.859375,5,1.16445899,,,
41.875,5,1.493041992,,,
41.890625,5,1.597656012,,,
41.90625,5,1.512969971,,,
41.921875,5,1.317229986,,,
41.9375,5,1.088013053,,,
41.953125,5,0.888397217,,,
41.96875,5,0.762878418,,,
41.984375,5,0.756378174,,,
42,5,0.881439209,,,
42.015625,5,1.120941043,,,
42.03125,5,1.386291981,,,
42.046875,5,1.550171018,,,
42.0625,5,1.486449957,,,
42.078125,5,1.120391965,,,
42.09375,5,0.480133086,,,
42.109375,5,-0.295471191,,,
42.125,5,-1.00344801,,,
42.140625,5,-1.466887951,,,
42.15625,5,-1.592345953,,,
42.171875,5,-1.415680051,,,
42.1875,5,-1.069550037,,,
42.203125,5,-0.724762023,,,
42.21875,5,-0.523376524,,,
42.234375,5,-0.550842285,,,
42.25,5,-0.809417725,,,
42.265625,5,-1.24990797,,,
42.28125,5,-1.783203006,,,
42.296875,5,-2.313141108,,,
42.3125,5,-2.746520996,,,
42.328125,5,-2.990233898,,,
42.34375,5,-2.99899292,,,
42.359375,5,-2.775451899,,,
42.375,5,-2.387634039,,,
42.390625,5,-1.952361941,,,
42.40625,5,-1.592345953,,,
42.421875,5,-1.370697022,,,
42.4375,5,-1.283568978,,,
42.453125,5,-1.252045035,,,
42.46875,5,-1.192352057,,,
42.484375,5,-1.046569943,,,
42.5,5,-0.817352295,,,
42.515625,5,-0.527984619,,,
42.53125,5,-0.20578,,,
42.546875,5,0.167511001,,,
42.5625,5,0.605651915,,,
42.578125,5,1.12222302,,,
42.59375,5,1.658203006,,,
42.609375,5,2.108336926,,,
42.625,5,2.36666894,,,
42.640625,5,2.364319086,,,
42.65625,5,2.1434021,,,
42.671875,5,1.798920035,,,
42.6875,5,1.455078006,,,
42.703125,5,1.176666021,,,
42.71875,5,0.946624816,,,
42.734375,5,0.675506592,,,
42.75,5,0.280731201,,,
42.765625,5,-0.232269302,,,
42.78125,5,-0.779724121,,,
42.796875,5,-1.215850949,,,
42.8125,5,-1.40347302,,,
42.828125,5,-1.302155018,,,
42.84375,5,-0.982940674,,,
42.859375,5,-0.594604492,,,
42.875,5,-0.288116515,,,
42.890625,5,-0.161956802,,,
42.90625,5,-0.225921601,,,
42.921875,5,-0.433135986,,,
42.9375,5,-0.697692871,,,
42.953125,5,-0.964233398,,,
42.96875,5,-1.209197998,,,
42.984375,5,-1.435729981,,,
43,5,-1.628631949,,,
43.015625,5,-1.739074945,,,
43.03125,5,-1.701233029,,,
43.046875,5,-1.463593006,,,
43.0625,5,-1.055449963,,,
43.078125,5,-0.588256776,,,
43.09375,5,-0.237640396,,,
43.109375,5,-0.131225601,,,
43.125,5,-0.28604129,,,
43.140625,5,-0.594146729,,,
43.15625,5,-0.88357538,,,
43.171875,5,-1.015259028,,,
43.1875,5,-0.957702577,,,
43.203125,5,-0.800506592,,,
43.21875,5,-0.666931212,,,
43.234375,5,-0.634612978,,,
43.25,5,-0.696868897,,,
43.265625,5,-0.781524718,,,
43.28125,5,-0.825134277,,,
43.296875,5,-0.810791016,,,
43.3125,5,-0.772399902,,,
43.328125,5,-0.738891602,,,
43.34375,5,-0.717224121,,,
43.359375,5,-0.676513672,,,
43.375,5,-0.602783203,,,
43.390625,5,-0.511657715,,,
43.40625,5,-0.442504913,,,
43.421875,5,-0.439666688,,,
43.4375,5,-0.497802705,,,
43.453125,5,-0.577453613,,,
43.46875,5,-0.61920172,,,
43.484375,5,-0.591339111,,,
43.5,5,-0.513702393,,,
43.515625,5,-0.467468292,,,
43.53125,5,-0.567993224,,,
43.546875,5,-0.928222716,,,
43.5625,5,-1.584686041,,,
43.578125,5,-2.482330084,,,
43.59375,5,-3.438873053,,,
43.609375,5,-4.200408936,,,
43.625,5,-4.526459217,,,
43.640625,5,-4.230865002,,,
43.65625,5,-3.285675049,,,
43.671875,5,-1.793915033,,,
43.6875,5,0.03012085,,,
43.703125,5,1.922150016,,,
43.71875,5,3.630829096,,,
43.734375,5,4.943542004,,,
43.75,5,5.720366955,,,
43.765625,5,5.92098999,,,
43.78125,5,5.605529785,,,
43.796875,5,4.95468092,,,
43.8125,5,4.168944836,,,
43.828125,5,3.45202589,,,
43.84375,5,2.899017096,,,
43.859375,5,2.496001959,,,
43.875,5,2.143889904,,,
43.890625,5,1.714416981,,,
43.90625,5,1.127990961,,,
43.921875,5,0.373565704,,,
43.9375,5,-0.515045226,,,
43.953125,5,-1.464568973,,,
43.96875,5,-2.386504889,,,
43.984375,5,-3.182373047,,,
44,5,-3.765441895,,,
44.015625,5,-4.064423084,,,
44.03125,5,-4.06451416,,,
44.046875,5,-3.843018055,,,
44.0625,5,-3.520477057,,,
44.078125,5,-3.240294933,,,
44.09375,5,-3.094818115,,,
44.109375,5,-3.073151112,,,
44.125,5,-3.093506098,,,
44.140625,5,-3.051146984,,,
44.15625,5,-2.894469976,,,
44.171875,5,-2.637145996,,,
44.1875,5,-2.325745106,,,
44.203125,5,-1.97506702,,,
44.21875,5,-1.527770996,,,
44.234375,5,-0.891418517,,,
44.25,5,-0.000427246,,,
44.265625,5,1.093140006,,,
44.28125,5,2.242432118,,,
44.296875,5,3.268433094,,,
44.3125,5,4.010192871,,,
44.328125,5,4.409119129,,,
44.34375,5,4.530852795,,,
44.359375,5,4.510559082,,,
44.375,5,4.491118908,,,
44.390625,5,4.563811779,,,
44.40625,5,4.705749989,,,
44.421875,5,4.827423096,,,
44.4375,5,4.781280994,,,
44.453125,5,4.494719982,,,
44.46875,5,3.965790033,,,
44.484375,5,3.307739019,,,
44.5,5,2.659882069,,,
44.515625,5,2.143218994,,,
44.53125,5,1.805695057,,,
44.546875,5,1.617064953,,,
44.5625,5,1.526093006,,,
44.578125,5,1.534576058,,,
44.59375,5,1.689087033,,,
44.609375,5,2.037506104,,,
44.625,5,2.551848888,,,
44.640625,5,3.087372065,,,
44.65625,5,3.407166004,,,
44.671875,5,3.302001953,,,
44.6875,5,2.712830067,,,
44.703125,5,1.77758801,,,
44.71875,5,0.802490175,,,
44.734375,5,0.109771699,,,
44.75,5,-0.1081848,,,
44.765625,5,0.125610396,,,
44.78125,5,0.579956114,,,
44.796875,5,0.922607422,,,
44.8125,5,0.863189697,,,
44.828125,5,0.2784729,,,
44.84375,5,-0.729492188,,,
44.859375,5,-1.884003043,,,
44.875,5,-2.838439941,,,
44.890625,5,-3.332489014,,,
44.90625,5,-3.29519701,,,
44.921875,5,-2.851257086,,,
44.9375,5,-2.26406908,,,
44.953125,5,-1.78015101,,,
44.96875,5,-1.510864019,,,
44.984375,5,-1.400665045,,,
45,5,-1.290832996,,,
45.015625,5,-1.045562983,,,
45.03125,5,-0.658538818,,,
45.046875,5,-0.249145493,,,
45.0625,5,0.01196289,,,
45.078125,5,0.03860474,,,
45.09375,5,-0.114654496,,,
45.109375,5,-0.273407012,,,
45.125,5,-0.287567109,,,
45.140625,5,-0.110626198,,,
45.15625,5,0.140686005,,,
45.171875,5,0.281890899,,,
45.1875,5,0.170104995,,,
45.203125,5,-0.212158203,,,
45.21875,5,-0.743866026,,,
45.234375,5,-1.235198975,,,
45.25,5,-1.529418945,,,
45.265625,5,-1.580474973,,,
45.28125,5,-1.437255979,,,
45.296875,5,-1.198639035,,,
45.3125,5,-0.954589784,,,
45.328125,5,-0.724365175,,,
45.34375,5,-0.490203887,,,
45.359375,5,-0.225097701,,,
45.375,5,0.099609383,,,
45.390625,5,0.472778291,,,
45.40625,5,0.883972228,,,
45.421875,5,1.29855299,,,
45.4375,5,1.685760021,,,
45.453125,5,1.980651975,,,
45.46875,5,2.132904053,,,
45.484375,5,2.082305908,,,
45.5,5,1.804046989,,,
45.515625,5,1.314514041,,,
45.53125,5,0.680328429,,,
45.546875,5,0.01501465,,,
45.5625,5,-0.551391602,,,
45.578125,5,-0.919433594,,,
45.59375,5,-1.057556033,,,
45.609375,5,-1.002411008,,,
45.625,5,-0.842132628,,,
45.640625,5,-0.666717529,,,
45.65625,5,-0.567108214,,,
45.671875,5,-0.567871094,,,
45.6875,5,-0.643859923,,,
45.703125,5,-0.733032227,,,
45.71875,5,-0.75579828,,,
45.734375,5,-0.655395508,,,
45.75,5,-0.419128388,,,
45.765625,5,-0.090911873,,,
45.78125,5,0.269775391,,,
45.796875,5,0.616851807,,,
45.8125,5,0.906738281,,,
45.828125,5,1.129119992,,,
45.84375,5,1.261780024,,,
45.859375,5,1.261260986,,,
45.875,5,1.083435059,,,
45.890625,5,0.68914789,,,
45.90625,5,0.107666001,,,
45.921875,5,-0.548370421,,,
45.9375,5,-1.09295702,,,
45.953125,5,-1.359253049,,,
45.96875,5,-1.264037967,,,
45.984375,5,-0.868347228,,,
46,5,-0.328094512,,,
46.015625,5,0.175872803,,,
46.03125,5,0.542510986,,,
46.046875,5,0.741455078,,,
46.0625,5,0.822418213,,,
46.078125,5,0.841461182,,,
46.09375,5,0.825805724,,,
46.109375,5,0.791137695,,,
46.125,5,0.755950928,,,
46.140625,5,0.731781006,,,
46.15625,5,0.704650879,,,
46.171875,5,0.615387023,,,
46.1875,5,0.352172911,,,
46.203125,5,-0.173583999,,,
46.21875,5,-0.951080322,,,
46.234375,5,-1.833588004,,,
46.25,5,-2.597594976,,,
46.265625,5,-3.041137934,,,
46.28125,5,-3.098328114,,,
46.296875,5,-2.85116601,,,
46.3125,5,-2.470794916,,,
46.328125,5,-2.112549067,,,
46.34375,5,-1.818451047,,,
46.359375,5,-1.536133051,,,
46.375,5,-1.172180057,,,
46.390625,5,-0.692687988,,,
46.40625,5,-0.149780303,,,
46.421875,5,0.355804414,,,
46.4375,5,0.728942871,,,
46.453125,5,0.961334229,,,
46.46875,5,1.098999023,,,
46.484375,5,1.203186035,,,
46.5,5,1.291167975,,,
46.515625,5,1.318542004,,,
46.53125,5,1.203796029,,,
46.546875,5,0.8956604,,,
46.5625,5,0.418090791,,,
46.578125,5,-0.109954797,,,
46.59375,5,-0.536377013,,,
46.609375,5,-0.746795714,,,
46.625,5,-0.679992676,,,
46.640625,5,-0.381195098,,,
46.65625,5,0.051391602,,,
46.671875,5,0.522827089,,,
46.6875,5,0.972442627,,,
46.703125,5,1.366425037,,,
46.71875,5,1.685577035,,,
46.734375,5,1.882964969,,,
46.75,5,1.901610971,,,
46.765625,5,1.685516,,,
46.78125,5,1.239868045,,,
46.796875,5,0.622528076,,,
46.8125,5,-0.05993652,,,
46.828125,5,-0.705963075,,,
46.84375,5,-1.236176014,,,
46.859375,5,-1.614685059,,,
46.875,5,-1.847107053,,,
46.890625,5,-1.964233041,,,
46.90625,5,-2.007781982,,,
46.921875,5,-2.018096924,,,
46.9375,5,-2.015686035,,,
46.953125,5,-1.975677013,,,
46.96875,5,-1.834869027,,,
46.984375,5,-1.517089963,,,
47,5,-0.976898193,,,
47.015625,5,-0.217254594,,,
47.03125,5,0.675018311,,,
47.046875,5,1.59375,,,
47.0625,5,2.399199963,,,
47.078125,5,2.983215094,,,
47.09375,5,3.254028082,,,
47.109375,5,3.152282953,,,
47.125,5,2.679260016,,,
47.140625,5,1.90734899,,,
47.15625,5,1.001189947,,,
47.171875,5,0.196655303,,,
47.1875,5,-0.30368039,,,
47.203125,5,-0.425201386,,,
47.21875,5,-0.231201202,,,
47.234375,5,0.086578369,,,
47.25,5,0.337005585,,,
47.265625,5,0.40814209,,,
47.28125,5,0.332366914,,,
47.296875,5,0.226806596,,,
47.3125,5,0.194580093,,,
47.328125,5,0.261688203,,,
47.34375,5,0.35079959,,,
47.359375,5,0.352477998,,,
47.375,5,0.201110795,,,
47.390625,5,-0.079864502,,,
47.40625,5,-0.379272491,,,
47.421875,5,-0.577667177,,,
47.4375,5,-0.612335205,,,
47.453125,5,-0.528137207,,,
47.46875,5,-0.437744111,,,
47.484375,5,-0.462799102,,,
47.5,5,-0.659393311,,,
47.515625,5,-1.001831055,,,
47.53125,5,-1.403748035,,,
47.546875,5,-1.748108029,,,
47.5625,5,-1.957977057,,,
47.578125,5,-1.977874994,,,
47.59375,5,-1.812134028,,,
47.609375,5,-1.510985971,,,
47.625,5,-1.128723025,,,
47.640625,5,-0.718658388,,,
47.65625,5,-0.318237305,,,
47.671875,5,0.051177979,,,
47.6875,5,0.363769501,,,
47.703125,5,0.613464415,,,
47.71875,5,0.802154481,,,
47.734375,5,0.945220888,,,
47.75,5,1.097015023,,,
47.765625,5,1.308411002,,,
47.78125,5,1.596436024,,,
47.796875,5,1.944336057,,,
47.8125,5,2.268523932,,,
47.828125,5,2.457274914,,,
47.84375,5,2.422913075,,,
47.859375,5,2.13961792,,,
47.875,5,1.645050049,,,
47.890625,5,1.029235959,,,
47.90625,5,0.390319794,,,
47.921875,5,-0.201171905,,,
47.9375,5,-0.679992676,,,
47.953125,5,-0.992553711,,,
47.96875,5,-1.096039057,,,
47.984375,5,-0.971588075,,,
48,6,-0.658081114,,,
48.015625,6,-0.249969497,,,
48.03125,6,0.143829301,,,
48.046875,6,0.416992188,,,
48.0625,6,0.519958496,,,
48.078125,6,0.458007813,,,
48.09375,6,0.306091309,,,
48.109375,6,0.137664795,,,
48.125,6,0.020904539,,,
48.140625,6,-0.05233765,,,
48.15625,6,-0.129425004,,,
48.171875,6,-0.271118194,,,
48.1875,6,-0.517181397,,,
48.203125,6,-0.849639893,,,
48.21875,6,-1.195618033,,,
48.234375,6,-1.452911019,,,
48.25,6,-1.539000988,,,
48.265625,6,-1.417389035,,,
48.28125,6,-1.120270014,,,
48.296875,6,-0.717132628,,,
48.3125,6,-0.297088593,,,
48.328125,6,0.082550049,,,
48.34375,6,0.414215088,,,
48.359375,6,0.719451904,,,
48.375,6,1.020720959,,,
48.390625,6,1.298279047,,,
48.40625,6,1.496917963,,,
48.421875,6,1.533782959,,,
48.4375,6,1.360595942,,,
48.453125,6,0.991729677,,,
48.46875,6,0.507873476,,,
48.484375,6,0.006439209,,,
48.5,6,-0.441741914,,,
48.515625,6,-0.814910889,,,
48.53125,6,-1.114227057,,,
48.546875,6,-1.307831049,,,
48.5625,6,-1.341277957,,,
48.578125,6,-1.161743045,,,
48.59375,6,-0.784271181,,,
48.609375,6,-0.313079804,,,
48.625,6,0.1192322,,,
48.640625,6,0.407043487,,,
48.65625,6,0.560577393,,,
48.671875,6,0.683075011,,,
48.6875,6,0.88961792,,,
48.703125,6,1.214385986,,,
48.71875,6,1.584838986,,,
48.734375,6,1.855957031,,,
48.75,6,1.908295035,,,
48.765625,6,1.70422399,,,
48.78125,6,1.310150027,,,
48.796875,6,0.866760314,,,
48.8125,6,0.534271181,,,
48.828125,6,0.448059112,,,
48.84375,6,0.661865175,,,
48.859375,6,1.122100949,,,
48.875,6,1.650513053,,,
48.890625,6,2.018433094,,,
48.90625,6,2.049591065,,,
48.921875,6,1.727570057,,,
48.9375,6,1.165619016,,,
48.953125,6,0.58102423,,,
48.96875,6,0.133087203,,,
48.984375,6,-0.134277299,,,
49,6,-0.287689209,,,
49.015625,6,-0.403961211,,,
49.03125,6,-0.518676817,,,
49.046875,6,-0.622833312,,,
49.0625,6,-0.717590272,,,
49.078125,6,-0.876739502,,,
49.09375,6,-1.207458019,,,
49.109375,6,-1.761078,,,
49.125,6,-2.439452887,,,
49.140625,6,-3.000946045,,,
49.15625,6,-3.203429937,,,
49.171875,6,-2.936858892,,,
49.1875,6,-2.316437006,,,
49.203125,6,-1.591675043,,,
49.21875,6,-1.010529041,,,
49.234375,6,-0.696166992,,,
49.25,6,-0.59564209,,,
49.265625,6,-0.608703613,,,
49.28125,6,-0.647857726,,,
49.296875,6,-0.707214415,,,
49.3125,6,-0.804077089,,,
49.328125,6,-0.920318604,,,
49.34375,6,-0.9503479,,,
49.359375,6,-0.780975282,,,
49.375,6,-0.375579804,,,
49.390625,6,0.163268998,,,
49.40625,6,0.629486084,,,
49.421875,6,0.836639404,,,
49.4375,6,0.687713623,,,
49.453125,6,0.250854492,,,
49.46875,6,-0.276916504,,,
49.484375,6,-0.689239502,,,
49.5,6,-0.843719482,,,
49.515625,6,-0.733398378,,,
49.53125,6,-0.4451904,,,
49.546875,6,-0.132720903,,,
49.5625,6,0.077514648,,,
49.578125,6,0.111816399,,,
49.59375,6,-0.02572632,,,
49.609375,6,-0.262054414,,,
49.625,6,-0.479309112,,,
49.640625,6,-0.583618224,,,
49.65625,6,-0.553497315,,,
49.671875,6,-0.4373779,,,
49.6875,6,-0.342712402,,,
49.703125,6,-0.345153809,,,
49.71875,6,-0.460388213,,,
49.734375,6,-0.63394171,,,
49.75,6,-0.797729492,,,
49.765625,6,-0.908752382,,,
49.78125,6,-0.991912782,,,
49.796875,6,-1.108611941,,,
49.8125,6,-1.304137945,,,
49.828125,6,-1.591369987,,,
49.84375,6,-1.921599984,,,
49.859375,6,-2.20324707,,,
49.875,6,-2.338257074,,,
49.890625,6,-2.250610113,,,
49.90625,6,-1.883972049,,,
49.921875,6,-1.243774056,,,
49.9375,6,-0.401428193,,,
49.953125,6,0.498901397,,,
49.96875,6,1.268798947,,,
49.984375,6,1.716094971,,,
50,6,1.763244987,,,
50.015625,6,1.449249029,,,
50.03125,6,0.915496826,,,
50.046875,6,0.342681915,,,
50.0625,6,-0.132080093,,,
50.078125,6,-0.456298798,,,
50.09375,6,-0.673095703,,,
50.109375,6,-0.846038818,,,
50.125,6,-1.027678967,,,
50.140625,6,-1.225463986,,,
50.15625,6,-1.402953982,,,
50.171875,6,-1.508118033,,,
50.1875,6,-1.484344006,,,
50.203125,6,-1.300719976,,,
50.21875,6,-0.936554015,,,
50.234375,6,-0.39239499,,,
50.25,6,0.295257598,,,
50.265625,6,1.058411002,,,
50.28125,6,1.775329948,,,
50.296875,6,2.321320057,,,
50.3125,6,2.596558094,,,
50.328125,6,2.580414057,,,
50.34375,6,2.329284906,,,
50.359375,6,1.963042975,,,
50.375,6,1.588958979,,,
50.390625,6,1.294312,,,
50.40625,6,1.099761963,,,
50.421875,6,1.006804943,,,
50.4375,6,1.007843018,,,
50.453125,6,1.101989985,,,
50.46875,6,1.304993033,,,
50.484375,6,1.595885992,,,
50.5,6,1.933197022,,,
50.515625,6,2.261260986,,,
50.53125,6,2.496764898,,,
50.546875,6,2.574402094,,,
50.5625,6,2.459105969,,,
50.578125,6,2.148772955,,,
50.59375,6,1.673431039,,,
50.609375,6,1.106261969,,,
50.625,6,0.542724609,,,
50.640625,6,0.088439941,,,
50.65625,6,-0.179046601,,,
50.671875,6,-0.242340103,,,
50.6875,6,-0.139862105,,,
50.703125,6,0.068481453,,,
50.71875,6,0.352050811,,,
50.734375,6,0.654418886,,,
50.75,6,0.913330078,,,
50.765625,6,1.025238037,,,
50.78125,6,0.88671881,,,
50.796875,6,0.470306397,,,
50.8125,6,-0.131378204,,,
50.828125,6,-0.687713623,,,
50.84375,6,-0.931854188,,,
50.859375,6,-0.698425293,,,
50.875,6,-0.016418461,,,
50.890625,6,0.89453131,,,
50.90625,6,1.72219801,,,
50.921875,6,2.24920702,,,
50.9375,6,2.417572022,,,
50.953125,6,2.350250006,,,
50.96875,6,2.2315979,,,
50.984375,6,2.171294928,,,
51,6,2.128325939,,,
51.015625,6,1.974640012,,,
51.03125,6,1.585602045,,,
51.046875,6,0.930358887,,,
51.0625,6,0.140319794,,,
51.078125,6,-0.589630127,,,
51.09375,6,-1.08099401,,,
51.109375,6,-1.294800043,,,
51.125,6,-1.354400992,,,
51.140625,6,-1.45776403,,,
51.15625,6,-1.752990961,,,
51.171875,6,-2.195220947,,,
51.1875,6,-2.602782965,,,
51.203125,6,-2.713287115,,,
51.21875,6,-2.352752924,,,
51.234375,6,-1.552672982,,,
51.25,6,-0.532318115,,,
51.265625,6,0.385314912,,,
51.28125,6,0.926239014,,,
51.296875,6,0.980285585,,,
51.3125,6,0.616271973,,,
51.328125,6,0.005340576,,,
51.34375,6,-0.648986816,,,
51.359375,6,-1.18917799,,,
51.375,6,-1.545104981,,,
51.390625,6,-1.704041004,,,
51.40625,6,-1.709105969,,,
51.421875,6,-1.62420702,,,
51.4375,6,-1.508056998,,,
51.453125,6,-1.393249989,,,
51.46875,6,-1.270233035,,,
51.484375,6,-1.082641959,,,
51.5,6,-0.772705078,,,
51.515625,6,-0.311309815,,,
51.53125,6,0.280151397,,,
51.546875,6,0.90536499,,,
51.5625,6,1.436126947,,,
51.578125,6,1.738190055,,,
51.59375,6,1.730803967,,,
51.609375,6,1.40457201,,,
51.625,6,0.832702577,,,
51.640625,6,0.1277771,,,
51.65625,6,-0.609558106,,,
51.671875,6,-1.275207996,,,
51.6875,6,-1.796844006,,,
51.703125,6,-2.109191895,,,
51.71875,6,-2.158966065,,,
51.734375,6,-1.943542004,,,
51.75,6,-1.522429943,,,
51.765625,6,-1.011383057,,,
51.78125,6,-0.542694092,,,
51.796875,6,-0.218414307,,,
51.8125,6,-0.056213379,,,
51.828125,6,-0.023376459,,,
51.84375,6,-0.046875,,,
51.859375,6,-0.064666748,,,
51.875,6,-0.061004639,,,
51.890625,6,-0.035766602,,,
51.90625,6,0.01031494,,,
51.921875,6,0.084381104,,,
51.9375,6,0.181671098,,,
51.953125,6,0.279663086,,,
51.96875,6,0.301391602,,,
51.984375,6,0.182769805,,,
52,6,-0.063781738,,,
52.015625,6,-0.330108613,,,
52.03125,6,-0.456237793,,,
52.046875,6,-0.302368194,,,
52.0625,6,0.150543198,,,
52.078125,6,0.7734375,,,
52.09375,6,1.361297965,,,
52.109375,6,1.711639047,,,
52.125,6,1.734802008,,,
52.140625,6,1.485900998,,,
52.15625,6,1.109954953,,,
52.171875,6,0.759979188,,,
52.1875,6,0.522918701,,,
52.203125,6,0.388366699,,,
52.21875,6,0.293029785,,,
52.234375,6,0.177093506,,,
52.25,6,0.031066891,,,
52.265625,6,-0.101104699,,,
52.28125,6,-0.139160201,,,
52.296875,6,-0.034088131,,,
52.3125,6,0.199798599,,,
52.328125,6,0.48361209,,,
52.34375,6,0.692474425,,,
52.359375,6,0.713043213,,,
52.375,6,0.487365693,,,
52.390625,6,0.0519104,,,
52.40625,6,-0.47491461,,,
52.421875,6,-0.95236212,,,
52.4375,6,-1.270660043,,,
52.453125,6,-1.376862049,,,
52.46875,6,-1.263641,,,
52.484375,6,-0.944732726,,,
52.5,6,-0.414886504,,,
52.515625,6,0.313018799,,,
52.53125,6,1.183868051,,,
52.546875,6,2.044006109,,,
52.5625,6,2.698607922,,,
52.578125,6,2.944365978,,,
52.59375,6,2.692902088,,,
52.609375,6,2.01452589,,,
52.625,6,1.103973031,,,
52.640625,6,0.216644302,,,
52.65625,6,-0.45199579,,,
52.671875,6,-0.830444276,,,
52.6875,6,-0.978515625,,,
52.703125,6,-1.024597049,,,
52.71875,6,-1.074309945,,,
52.734375,6,-1.163239002,,,
52.75,6,-1.272338986,,,
52.765625,6,-1.351318002,,,
52.78125,6,-1.371399045,,,
52.796875,6,-1.330199957,,,
52.8125,6,-1.254425049,,,
52.828125,6,-1.134827018,,,
52.84375,6,-0.941589415,,,
52.859375,6,-0.639190674,,,
52.875,6,-0.263641387,,,
52.890625,6,0.08706665,,,
52.90625,6,0.255950898,,,
52.921875,6,0.125640899,,,
52.9375,6,-0.269958496,,,
52.953125,6,-0.745788574,,,
52.96875,6,-1.05429101,,,
52.984375,6,-1.042083979,,,
53,6,-0.737426817,,,
53.015625,6,-0.353118897,,,
53.03125,6,-0.114654496,,,
53.046875,6,-0.118957497,,,
53.0625,6,-0.264312714,,,
53.078125,6,-0.338134795,,,
53.09375,6,-0.188140899,,,
53.109375,6,0.126800507,,,
53.125,6,0.375030488,,,
53.140625,6,0.269470215,,,
53.15625,6,-0.282623291,,,
53.171875,6,-1.105926991,,,
53.1875,6,-1.812438965,,,
53.203125,6,-2.041901112,,,
53.21875,6,-1.659636974,,,
53.234375,6,-0.846466124,,,
53.25,6,0.01651001,,,
53.265625,6,0.573944092,,,
53.28125,6,0.679779112,,,
53.296875,6,0.45211789,,,
53.3125,6,0.150115997,,,
53.328125,6,0.01867676,,,
53.34375,6,0.136322007,,,
53.359375,6,0.415740997,,,
53.375,6,0.667480528,,,
53.390625,6,0.750060976,,,
53.40625,6,0.634277284,,,
53.421875,6,0.379424989,,,
53.4375,6,0.090942383,,,
53.453125,6,-0.1447144,,,
53.46875,6,-0.295440704,,,
53.484375,6,-0.353363007,,,
53.5,6,-0.32119751,,,
53.515625,6,-0.186096206,,,
53.53125,6,0.050964359,,,
53.546875,6,0.395996094,,,
53.5625,6,0.818756104,,,
53.578125,6,1.256652951,,,
53.59375,6,1.616240978,,,
53.609375,6,1.795654059,,,
53.625,6,1.751984,,,
53.640625,6,1.489287973,,,
53.65625,6,1.105193973,,,
53.671875,6,0.718109071,,,
53.6875,6,0.44708249,,,
53.703125,6,0.337219209,,,
53.71875,6,0.366577089,,,
53.734375,6,0.449310303,,,
53.75,6,0.512115479,,,
53.765625,6,0.5440979,,,
53.78125,6,0.598937988,,,
53.796875,6,0.740051329,,,
53.8125,6,0.979797423,,,
53.828125,6,1.227782965,,,
53.84375,6,1.324157953,,,
53.859375,6,1.141662955,,,
53.875,6,0.636627197,,,
53.890625,6,-0.081054688,,,
53.90625,6,-0.820770323,,,
53.921875,6,-1.42297399,,,
53.9375,6,-1.823668957,,,
53.953125,6,-2.074249029,,,
53.96875,6,-2.277740002,,,
53.984375,6,-2.510222912,,,
54,6,-2.744446039,,,
54.015625,6,-2.854279041,,,
54.03125,6,-2.720397949,,,
54.046875,6,-2.271454096,,,
54.0625,6,-1.569396973,,,
54.078125,6,-0.761230528,,,
54.09375,6,-0.016998289,,,
54.109375,6,0.528808594,,,
54.125,6,0.827423096,,,
54.140625,6,0.902618408,,,
54.15625,6,0.82208252,,,
54.171875,6,0.65612793,,,
54.1875,6,0.453643799,,,
54.203125,6,0.263122588,,,
54.21875,6,0.126281694,,,
54.234375,6,0.078491211,,,
54.25,6,0.128265396,,,
54.265625,6,0.241424605,,,
54.28125,6,0.365905792,,,
54.296875,6,0.438079804,,,
54.3125,6,0.45501709,,,
54.328125,6,0.455230713,,,
54.34375,6,0.500091612,,,
54.359375,6,0.615966797,,,
54.375,6,0.753875673,,,
54.390625,6,0.824890077,,,
54.40625,6,0.754302979,,,
54.421875,6,0.542327881,,,
54.4375,6,0.294494599,,,
54.453125,6,0.1681519,,,
54.46875,6,0.277282715,,,
54.484375,6,0.616455078,,,
54.5,6,1.042235971,,,
54.515625,6,1.351745963,,,
54.53125,6,1.376037955,,,
54.546875,6,1.082275033,,,
54.5625,6,0.559906006,,,
54.578125,6,-0.04064941,,,
54.59375,6,-0.568450928,,,
54.609375,6,-0.962921083,,,
54.625,6,-1.211974978,,,
54.640625,6,-1.309203982,,,
54.65625,6,-1.210114002,,,
54.671875,6,-0.863586426,,,
54.6875,6,-0.300415009,,,
54.703125,6,0.342834503,,,
54.71875,6,0.819000185,,,
54.734375,6,0.929931581,,,
54.75,6,0.62677002,,,
54.765625,6,0.068695068,,,
54.78125,6,-0.437011689,,,
54.796875,6,-0.620910585,,,
54.8125,6,-0.379516602,,,
54.828125,6,0.156646699,,,
54.84375,6,0.732910216,,,
54.859375,6,1.108855963,,,
54.875,6,1.161957026,,,
54.890625,6,0.910430908,,,
54.90625,6,0.468597412,,,
54.921875,6,-0.04754639,,,
54.9375,6,-0.536041319,,,
54.953125,6,-0.944488525,,,
54.96875,6,-1.218994021,,,
54.984375,6,-1.318297982,,,
55,6,-1.208649039,,,
55.015625,6,-0.903381288,,,
55.03125,6,-0.448821992,,,
55.046875,6,0.065338127,,,
55.0625,6,0.522949219,,,
55.078125,6,0.771057129,,,
55.09375,6,0.687652588,,,
55.109375,6,0.242889404,,,
55.125,6,-0.49331671,,,
55.140625,6,-1.294952035,,,
55.15625,6,-1.899078012,,,
55.171875,6,-2.081787109,,,
55.1875,6,-1.804718018,,,
55.203125,6,-1.210114002,,,
55.21875,6,-0.587188721,,,
55.234375,6,-0.230194107,,,
55.25,6,-0.303985596,,,
55.265625,6,-0.765930176,,,
55.28125,6,-1.423980951,,,
55.296875,6,-2.004241943,,,
55.3125,6,-2.296691895,,,
55.328125,6,-2.221100092,,,
55.34375,6,-1.814941049,,,
55.359375,6,-1.187621951,,,
55.375,6,-0.4658508,,,
55.390625,6,0.249725297,,,
55.40625,6,0.881774902,,,
55.421875,6,1.348724008,,,
55.4375,6,1.63687098,,,
55.453125,6,1.777039051,,,
55.46875,6,1.869385004,,,
55.484375,6,2.036010981,,,
55.5,6,2.350615978,,,
55.515625,6,2.773772955,,,
55.53125,6,3.181212902,,,
55.546875,6,3.399902105,,,
55.5625,6,3.317413092,,,
55.578125,6,2.928344965,,,
55.59375,6,2.30609107,,,
55.609375,6,1.583466053,,,
55.625,6,0.883300781,,,
55.640625,6,0.305602998,,,
55.65625,6,-0.083740227,,,
55.671875,6,-0.237945601,,,
55.6875,6,-0.143218994,,,
55.703125,6,0.135528594,,,
55.71875,6,0.478759795,,,
55.734375,6,0.7265625,,,
55.75,6,0.750335693,,,
55.765625,6,0.497711211,,,
55.78125,6,-0.003479004,,,
55.796875,6,-0.625823975,,,
55.8125,6,-1.203246951,,,
55.828125,6,-1.559357047,,,
55.84375,6,-1.576781988,,,
55.859375,6,-1.228394032,,,
55.875,6,-0.613525391,,,
55.890625,6,0.086364754,,,
55.90625,6,0.681366026,,,
55.921875,6,1.023468018,,,
55.9375,6,1.064728022,,,
55.953125,6,0.846069276,,,
55.96875,6,0.441528291,,,
55.984375,6,-0.051696781,,,
56,7,-0.549499512,,,
56.015625,7,-0.971466124,,,
56.03125,7,-1.235625982,,,
56.046875,7,-1.277312994,,,
56.0625,7,-1.108154059,,,
56.078125,7,-0.803008974,,,
56.09375,7,-0.473510712,,,
56.109375,7,-0.219574004,,,
56.125,7,-0.071990967,,,
56.140625,7,0.007110596,,,
56.15625,7,0.08114624,,,
56.171875,7,0.162628204,,,
56.1875,7,0.243560806,,,
56.203125,7,0.299011201,,,
56.21875,7,0.356170714,,,
56.234375,7,0.46975711,,,
56.25,7,0.71774292,,,
56.265625,7,1.09375,,,
56.28125,7,1.495422006,,,
56.296875,7,1.758147955,,,
56.3125,7,1.715850949,,,
56.328125,7,1.32247901,,,
56.34375,7,0.669799805,,,
56.359375,7,-0.026702881,,,
56.375,7,-0.529541016,,,
56.390625,7,-0.69039923,,,
56.40625,7,-0.505645812,,,
56.421875,7,-0.086853027,,,
56.4375,7,0.389068604,,,
56.453125,7,0.756744385,,,
56.46875,7,0.930786073,,,
56.484375,7,0.895202577,,,
56.5,7,0.715179384,,,
56.515625,7,0.487976104,,,
56.53125,7,0.309265107,,,
56.546875,7,0.232727096,,,
56.5625,7,0.245239303,,,
56.578125,7,0.258178711,,,
56.59375,7,0.147522003,,,
56.609375,7,-0.168579102,,,
56.625,7,-0.685119629,,,
56.640625,7,-1.298676014,,,
56.65625,7,-1.834290028,,,
56.671875,7,-2.145720959,,,
56.6875,7,-2.173949957,,,
56.703125,7,-1.979248047,,,
56.71875,7,-1.700165033,,,
56.734375,7,-1.489959955,,,
56.75,7,-1.421936035,,,
56.765625,7,-1.479004026,,,
56.78125,7,-1.581084967,,,
56.796875,7,-1.638396978,,,
56.8125,7,-1.589508057,,,
56.828125,7,-1.429169059,,,
56.84375,7,-1.206421018,,,
56.859375,7,-0.991699219,,,
56.875,7,-0.849517822,,,
56.890625,7,-0.804351807,,,
56.90625,7,-0.833831787,,,
56.921875,7,-0.887085021,,,
56.9375,7,-0.902374327,,,
56.953125,7,-0.879272521,,,
56.96875,7,-0.837493897,,,
56.984375,7,-0.834381104,,,
57,7,-0.892608583,,,
57.015625,7,-1.010498047,,,
57.03125,7,-1.142547965,,,
57.046875,7,-1.248137951,,,
57.0625,7,-1.294860959,,,
57.078125,7,-1.271332026,,,
57.09375,7,-1.157470942,,,
57.109375,7,-0.896606386,,,
57.125,7,-0.435455293,,,
57.140625,7,0.249420196,,,
57.15625,7,1.085693002,,,
57.171875,7,1.929321051,,,
57.1875,7,2.600464106,,,
57.203125,7,3.004791021,,,
57.21875,7,3.145569086,,,
57.234375,7,3.124511957,,,
57.25,7,3.041198969,,,
57.265625,7,2.952147961,,,
57.28125,7,2.838531017,,,
57.296875,7,2.6252141,,,
57.3125,7,2.262299061,,,
57.328125,7,1.744506955,,,
57.34375,7,1.128051996,,,
57.359375,7,0.508300781,,,
57.375,7,-0.01254272,,,
57.390625,7,-0.336364687,,,
57.40625,7,-0.39743039,,,
57.421875,7,-0.183502197,,,
57.4375,7,0.25680539,,,
57.453125,7,0.804901123,,,
57.46875,7,1.317260981,,,
57.484375,7,1.678711057,,,
57.5,7,1.867401004,,,
57.515625,7,1.924774051,,,
57.53125,7,1.932464957,,,
57.546875,7,1.901610971,,,
57.5625,7,1.779906988,,,
57.578125,7,1.468780994,,,
57.59375,7,0.911682129,,,
57.609375,7,0.172668502,,,
57.625,7,-0.588043213,,,
57.640625,7,-1.173797965,,,
57.65625,7,-1.453521967,,,
57.671875,7,-1.418365002,,,
57.6875,7,-1.192229986,,,
57.703125,7,-0.916046083,,,
57.71875,7,-0.686554015,,,
57.734375,7,-0.502990723,,,
57.75,7,-0.31954959,,,
57.765625,7,-0.096313477,,,
57.78125,7,0.147125199,,,
57.796875,7,0.31350711,,,
57.8125,7,0.286468506,,,
57.828125,7,0.01248169,,,
57.84375,7,-0.456878692,,,
57.859375,7,-0.986328125,,,
57.875,7,-1.434509039,,,
57.890625,7,-1.705840945,,,
57.90625,7,-1.825377941,,,
57.921875,7,-1.90802002,,,
57.9375,7,-2.08157301,,,
57.953125,7,-2.410949945,,,
57.96875,7,-2.822448969,,,
57.984375,7,-3.134735107,,,
58,7,-3.139923096,,,
58.015625,7,-2.73538208,,,
58.03125,7,-1.969666004,,,
58.046875,7,-1.064574957,,,
58.0625,7,-0.28314209,,,
58.078125,7,0.192565903,,,
58.09375,7,0.357543886,,,
58.109375,7,0.339752197,,,
58.125,7,0.316101104,,,
58.140625,7,0.355865508,,,
58.15625,7,0.397522003,,,
58.171875,7,0.313537598,,,
58.1875,7,0.01895142,,,
58.203125,7,-0.438751191,,,
58.21875,7,-0.898254395,,,
58.234375,7,-1.156036019,,,
58.25,7,-1.117493033,,,
58.265625,7,-0.842407227,,,
58.28125,7,-0.500549316,,,
58.296875,7,-0.254486114,,,
58.3125,7,-0.158264205,,,
58.328125,7,-0.147399902,,,
58.34375,7,-0.105163597,,,
58.359375,7,0.065063477,,,
58.375,7,0.364868194,,,
58.390625,7,0.725646973,,,
58.40625,7,1.063567996,,,
58.421875,7,1.341156006,,,
58.4375,7,1.549988031,,,
58.453125,7,1.716400027,,,
58.46875,7,1.829285026,,,
58.484375,7,1.850921989,,,
58.5,7,1.744292975,,,
58.515625,7,1.484405994,,,
58.53125,7,1.118774056,,,
58.546875,7,0.731536925,,,
58.5625,7,0.416107208,,,
58.578125,7,0.228179902,,,
58.59375,7,0.195892304,,,
58.609375,7,0.28125,,,
58.625,7,0.450378388,,,
58.640625,7,0.670623779,,,
58.65625,7,0.911224425,,,
58.671875,7,1.137053967,,,
58.6875,7,1.316864014,,,
58.703125,7,1.403992057,,,
58.71875,7,1.374572992,,,
58.734375,7,1.218688965,,,
58.75,7,0.959014893,,,
58.765625,7,0.644897521,,,
58.78125,7,0.370483398,,,
58.796875,7,0.193237305,,,
58.8125,7,0.112701401,,,
58.828125,7,0.044586182,,,
58.84375,7,-0.1612854,,,
58.859375,7,-0.651825011,,,
58.875,7,-1.473906994,,,
58.890625,7,-2.551819086,,,
58.90625,7,-3.685973883,,,
58.921875,7,-4.628845215,,,
58.9375,7,-5.214324951,,,
58.953125,7,-5.375731945,,,
58.96875,7,-5.189025879,,,
58.984375,7,-4.780852795,,,
59,7,-4.277373791,,,
59.015625,7,-3.730041981,,,
59.03125,7,-3.180145025,,,
59.046875,7,-2.70144701,,,
59.0625,7,-2.429718018,,,
59.078125,7,-2.512787104,,,
59.09375,7,-2.9845891,,,
59.109375,7,-3.661957026,,,
59.125,7,-4.137268066,,,
59.140625,7,-3.914154053,,,
59.15625,7,-2.63995409,,,
59.171875,7,-0.297790498,,,
59.1875,7,2.740386963,,,
59.203125,7,5.808594227,,,
59.21875,7,8.251251221,,,
59.234375,7,9.654144287,,,
59.25,7,9.973693848,,,
59.265625,7,9.451141357,,,
59.28125,7,8.434814453,,,
59.296875,7,7.20111084,,,
59.3125,7,5.901763916,,,
59.328125,7,4.59719801,,,
59.34375,7,3.390868902,,,
59.359375,7,2.417510986,,,
59.375,7,1.814880014,,,
59.390625,7,1.56991601,,,
59.40625,7,1.538025022,,,
59.421875,7,1.479889035,,,
59.4375,7,1.196869016,,,
59.453125,7,0.662780821,,,
59.46875,7,0.038665772,,,
59.484375,7,-0.466095001,,,
59.5,7,-0.716613829,,,
59.515625,7,-0.717895508,,,
59.53125,7,-0.602020323,,,
59.546875,7,-0.509491026,,,
59.5625,7,-0.517303526,,,
59.578125,7,-0.606140077,,,
59.59375,7,-0.741149902,,,
59.609375,7,-0.893890381,,,
59.625,7,-1.082520008,,,
59.640625,7,-1.298431039,,,
59.65625,7,-1.475402951,,,
59.671875,7,-1.494232059,,,
59.6875,7,-1.270812988,,,
59.703125,7,-0.815643311,,,
59.71875,7,-0.282409698,,,
59.734375,7,0.134307906,,,
59.75,7,0.315887511,,,
59.765625,7,0.27734381,,,
59.78125,7,0.162841797,,,
59.796875,7,0.094116211,,,
59.8125,7,0.092041023,,,
59.828125,7,0.02416992,,,
59.84375,7,-0.256561309,,,
59.859375,7,-0.822143614,,,
59.875,7,-1.550201058,,,
59.890625,7,-2.206847906,,,
59.90625,7,-2.541290045,,,
59.921875,7,-2.448822022,,,
59.9375,7,-2.020293951,,,
59.953125,7,-1.499755979,,,
59.96875,7,-1.132294059,,,
59.984375,7,-1.041962028,,,
60,7,-1.190155029,,,
60.015625,7,-1.409363031,,,
60.03125,7,-1.522919059,,,
60.046875,7,-1.464293957,,,
60.0625,7,-1.303864002,,,
60.078125,7,-1.187713981,,,
60.09375,7,-1.258362055,,,
60.109375,7,-1.545714974,,,
60.125,7,-1.946457028,,,
60.140625,7,-2.276627064,,,
60.15625,7,-2.358855963,,,
60.171875,7,-2.148880005,,,
60.1875,7,-1.755020022,,,
60.203125,7,-1.352493048,,,
60.21875,7,-1.100402951,,,
60.234375,7,-1.008972049,,,
60.25,7,-0.938323975,,,
60.265625,7,-0.677947998,,,
60.28125,7,-0.09753418,,,
60.296875,7,0.783340514,,,
60.3125,7,1.744400024,,,
60.328125,7,2.515990973,,,
60.34375,7,2.897399902,,,
60.359375,7,2.881469965,,,
60.375,7,2.644469976,,,
60.390625,7,2.395659924,,,
60.40625,7,2.2810359,,,
60.421875,7,2.254944086,,,
60.4375,7,2.145828009,,,
60.453125,7,1.74920702,,,
60.46875,7,1.010421991,,,
60.484375,7,0.075912483,,,
60.5,7,-0.7681427,,,
60.515625,7,-1.257294059,,,
60.53125,7,-1.283187985,,,
60.546875,7,-0.937576294,,,
60.5625,7,-0.4400177,,,
60.578125,7,0.048599239,,,
60.59375,7,0.48072809,,,
60.609375,7,0.938827515,,,
60.625,7,1.499709964,,,
60.640625,7,2.141983032,,,
60.65625,7,2.728591919,,,
60.671875,7,3.077286005,,,
60.6875,7,3.069595099,,,
60.703125,7,2.716217041,,,
60.71875,7,2.116317987,,,
60.734375,7,1.384948969,,,
60.75,7,0.586303711,,,
60.765625,7,-0.241393998,,,
60.78125,7,-1.036743045,,,
60.796875,7,-1.663848996,,,
60.8125,7,-1.944504023,,,
60.828125,7,-1.754044056,,,
60.84375,7,-1.147109985,,,
60.859375,7,-0.328704804,,,
60.875,7,0.441070586,,,
60.890625,7,0.981689513,,,
60.90625,7,1.280578971,,,
60.921875,7,1.447829962,,,
60.9375,7,1.618163943,,,
60.953125,7,1.793732047,,,
60.96875,7,1.869979978,,,
60.984375,7,1.660033941,,,
61,7,1.045410037,,,
61.015625,7,0.071716309,,,
61.03125,7,-1.050155997,,,
61.046875,7,-2.03855896,,,
61.0625,7,-2.677352905,,,
61.078125,7,-2.907318115,,,
61.09375,7,-2.845474005,,,
61.109375,7,-2.654083014,,,
61.125,7,-2.476119995,,,
61.140625,7,-2.310241938,,,
61.15625,7,-2.068634033,,,
61.171875,7,-1.648391962,,,
61.1875,7,-1.033066034,,,
61.203125,7,-0.317565888,,,
61.21875,7,0.337112397,,,
61.234375,7,0.80267328,,,
61.25,7,1.077103019,,,
61.265625,7,1.248932004,,,
61.28125,7,1.445770025,,,
61.296875,7,1.701308966,,,
61.3125,7,1.917022944,,,
61.328125,7,1.931488037,,,
61.34375,7,1.637099981,,,
61.359375,7,1.076323986,,,
61.375,7,0.416213989,,,
61.390625,7,-0.147766098,,,
61.40625,7,-0.517852783,,,
61.421875,7,-0.722763121,,,
61.4375,7,-0.867279112,,,
61.453125,7,-1.012084961,,,
61.46875,7,-1.094756961,,,
61.484375,7,-0.947174072,,,
61.5,7,-0.451034486,,,
61.515625,7,0.367721587,,,
61.53125,7,1.249817014,,,
61.546875,7,1.836974978,,,
61.5625,7,1.854279041,,,
61.578125,7,1.263625979,,,
61.59375,7,0.280532807,,,
61.609375,7,-0.718093872,,,
61.625,7,-1.419846058,,,
61.640625,7,-1.69017005,,,
61.65625,7,-1.60392797,,,
61.671875,7,-1.365753055,,,
61.6875,7,-1.168411017,,,
61.703125,7,-1.119704962,,,
61.71875,7,-1.191177011,,,
61.734375,7,-1.277282953,,,
61.75,7,-1.265334964,,,
61.765625,7,-1.10006702,,,
61.78125,7,-0.812148988,,,
61.796875,7,-0.480163604,,,
61.8125,7,-0.199264497,,,
61.828125,7,-0.037353519,,,
61.84375,7,0.01457214,,,
61.859375,7,0.041320801,,,
61.875,7,0.144882202,,,
61.890625,7,0.381378204,,,
61.90625,7,0.734710693,,,
61.921875,7,1.061812997,,,
61.9375,7,1.212540031,,,
61.953125,7,1.07803297,,,
61.96875,7,0.677002013,,,
61.984375,7,0.152648896,,,
62,7,-0.298797607,,,
62.015625,7,-0.499008209,,,
62.03125,7,-0.395401001,,,
62.046875,7,-0.045272831,,,
62.0625,7,0.429992706,,,
62.078125,7,0.893295288,,,
62.09375,7,1.264603019,,,
62.109375,7,1.534836054,,,
62.125,7,1.730193973,,,
62.140625,7,1.899184942,,,
62.15625,7,2.053986073,,,
62.171875,7,2.152039051,,,
62.1875,7,2.13508606,,,
62.203125,7,1.933272958,,,
62.21875,7,1.519652963,,,
62.234375,7,0.934341371,,,
62.25,7,0.281433106,,,
62.265625,7,-0.306015015,,,
62.28125,7,-0.726974487,,,
62.296875,7,-0.919723511,,,
62.3125,7,-0.903427124,,,
62.328125,7,-0.737945616,,,
62.34375,7,-0.491622895,,,
62.359375,7,-0.227294907,,,
62.375,7,0.021728519,,,
62.390625,7,0.232009903,,,
62.40625,7,0.405898988,,,
62.421875,7,0.535812378,,,
62.4375,7,0.640930176,,,
62.453125,7,0.730392516,,,
62.46875,7,0.809829712,,,
62.484375,7,0.850906372,,,
62.5,7,0.781219482,,,
62.515625,7,0.514602721,,,
62.53125,7,0.005111694,,,
62.546875,7,-0.744979918,,,
62.5625,7,-1.626327992,,,
62.578125,7,-2.460021973,,,
62.59375,7,-3.051773071,,,
62.609375,7,-3.269423962,,,
62.625,7,-3.073623896,,,
62.640625,7,-2.530487061,,,
62.65625,7,-1.795837045,,,
62.671875,7,-1.044159055,,,
62.6875,7,-0.404464692,,,
62.703125,7,0.071884163,,,
62.71875,7,0.404983491,,,
62.734375,7,0.649231017,,,
62.75,7,0.840530396,,,
62.765625,7,0.966018677,,,
62.78125,7,0.988250673,,,
62.796875,7,0.905044615,,,
62.8125,7,0.764953613,,,
62.828125,7,0.658126772,,,
62.84375,7,0.637512207,,,
62.859375,7,0.68385309,,,
62.875,7,0.689041078,,,
62.890625,7,0.516693115,,,
62.90625,7,0.103820801,,,
62.921875,7,-0.47328189,,,
62.9375,7,-1.031417966,,,
62.953125,7,-1.399001956,,,
62.96875,7,-1.501129031,,,
62.984375,7,-1.400406003,,,
63,7,-1.221497059,,,
63.015625,7,-1.059478998,,,
63.03125,7,-0.878250122,,,
63.046875,7,-0.595916688,,,
63.0625,7,-0.169769302,,,
63.078125,7,0.299453706,,,
63.09375,7,0.616500914,,,
63.109375,7,0.584701479,,,
63.125,7,0.181533799,,,
63.140625,7,-0.418319702,,,
63.15625,7,-0.906066895,,,
63.171875,7,-1.024978995,,,
63.1875,7,-0.70489502,,,
63.203125,7,-0.079467773,,,
63.21875,7,0.612167418,,,
63.234375,7,1.145248056,,,
63.25,7,1.428954959,,,
63.265625,7,1.478394032,,,
63.28125,7,1.368072987,,,
63.296875,7,1.146621943,,,
63.3125,7,0.862960815,,,
63.328125,7,0.565429688,,,
63.34375,7,0.356613189,,,
63.359375,7,0.367538512,,,
63.375,7,0.69178772,,,
63.390625,7,1.315551996,,,
63.40625,7,2.06428504,,,
63.421875,7,2.680037975,,,
63.4375,7,2.907409906,,,
63.453125,7,2.639435053,,,
63.46875,7,1.95777905,,,
63.484375,7,1.107239008,,,
63.5,7,0.372787505,,,
63.515625,7,-0.082366943,,,
63.53125,7,-0.264511108,,,
63.546875,7,-0.32359311,,,
63.5625,7,-0.434738189,,,
63.578125,7,-0.701034486,,,
63.59375,7,-1.083786011,,,
63.609375,7,-1.472733021,,,
63.625,7,-1.749953985,,,
63.640625,7,-1.883743048,,,
63.65625,7,-1.916854978,,,
63.671875,7,-1.923949957,,,
63.6875,7,-1.951645017,,,
63.703125,7,-1.988173962,,,
63.71875,7,-1.957733035,,,
63.734375,7,-1.776412964,,,
63.75,7,-1.380797982,,,
63.765625,7,-0.779342711,,,
63.78125,7,-0.054367069,,,
63.796875,7,0.650665283,,,
63.8125,7,1.195770025,,,
63.828125,7,1.47795105,,,
63.84375,7,1.492537975,,,
63.859375,7,1.32069397,,,
63.875,7,1.069290042,,,
63.890625,7,0.812576294,,,
63.90625,7,0.574615479,,,
63.921875,7,0.354141206,,,
63.9375,7,0.165069595,,,
63.953125,7,0.067642212,,,
63.96875,7,0.114364602,,,
63.984375,7,0.312972993,,,
64,8,0.597961426,,,
64.015625,8,0.857345581,,,
64.03125,8,0.993469179,,,
64.046875,8,0.969924927,,,
64.0625,8,0.821807921,,,
64.078125,8,0.581420898,,,
64.09375,8,0.241607696,,,
64.109375,8,-0.244506806,,,
64.125,8,-0.910842896,,,
64.140625,8,-1.714004993,,,
64.15625,8,-2.495270014,,,
64.171875,8,-3.039489985,,,
64.1875,8,-3.169357061,,,
64.203125,8,-2.815337896,,,
64.21875,8,-2.054474115,,,
64.234375,8,-1.068130016,,,
64.25,8,-0.061813351,,,
64.265625,8,0.797714174,,,
64.28125,8,1.428908944,,,
64.296875,8,1.82247901,,,
64.3125,8,2.05528307,,,
64.328125,8,2.20123291,,,
64.34375,8,2.299515009,,,
64.359375,8,2.319977045,,,
64.375,8,2.183867931,,,
64.390625,8,1.82633996,,,
64.40625,8,1.26394701,,,
64.421875,8,0.605651915,,,
64.4375,8,0.003234863,,,
64.453125,8,-0.41708371,,,
64.46875,8,-0.640335083,,,
64.484375,8,-0.744812012,,,
64.5,8,-0.819518983,,,
64.515625,8,-0.894088686,,,
64.53125,8,-0.894470215,,,
64.546875,8,-0.702773988,,,
64.5625,8,-0.270996094,,,
64.578125,8,0.31968689,,,
64.59375,8,0.846725524,,,
64.609375,8,1.081436038,,,
64.625,8,0.895187378,,,
64.640625,8,0.349716187,,,
64.65625,8,-0.346069306,,,
64.671875,8,-0.950378418,,,
64.6875,8,-1.315155029,,,
64.703125,8,-1.41532898,,,
64.71875,8,-1.33377099,,,
64.734375,8,-1.187438965,,,
64.75,8,-1.043655038,,,
64.765625,8,-0.917785585,,,
64.78125,8,-0.772415221,,,
64.796875,8,-0.584121704,,,
64.8125,8,-0.354064912,,,
64.828125,8,-0.111862198,,,
64.84375,8,0.108413696,,,
64.859375,8,0.275161713,,,
64.875,8,0.375839204,,,
64.890625,8,0.406555206,,,
64.90625,8,0.363098115,,,
64.921875,8,0.251083404,,,
64.9375,8,0.068267822,,,
64.953125,8,-0.198287994,,,
64.96875,8,-0.543930113,,,
64.984375,8,-0.94114691,,,
65,8,-1.314345956,,,
65.015625,8,-1.566544056,,,
65.03125,8,-1.594666004,,,
65.046875,8,-1.368988037,,,
65.0625,8,-0.945983887,,,
65.078125,8,-0.455322295,,,
65.09375,8,-0.06022644,,,
65.109375,8,0.139190704,,,
65.125,8,0.128082305,,,
65.140625,8,-0.008224487,,,
65.15625,8,-0.115371697,,,
65.171875,8,-0.049667358,,,
65.1875,8,0.227417007,,,
65.203125,8,0.658691406,,,
65.21875,8,1.066650033,,,
65.234375,8,1.256942987,,,
65.25,8,1.112548947,,,
65.265625,8,0.672653198,,,
65.28125,8,0.121994004,,,
65.296875,8,-0.265243501,,,
65.3125,8,-0.272628814,,,
65.328125,8,0.147643998,,,
65.34375,8,0.839569092,,,
65.359375,8,1.506713986,,,
65.375,8,1.865067005,,,
65.390625,8,1.748260021,,,
65.40625,8,1.186691046,,,
65.421875,8,0.315048188,,,
65.4375,8,-0.674163818,,,
65.453125,8,-1.624786019,,,
65.46875,8,-2.437942982,,,
65.484375,8,-3.049057007,,,
65.5,8,-3.402481079,,,
65.515625,8,-3.426604986,,,
65.53125,8,-3.083389044,,,
65.546875,8,-2.380402088,,,
65.5625,8,-1.421295047,,,
65.578125,8,-0.36907959,,,
65.59375,8,0.559295714,,,
65.609375,8,1.192412973,,,
65.625,8,1.437163949,,,
65.640625,8,1.303467035,,,
65.65625,8,0.915161073,,,
65.671875,8,0.426239014,,,
65.6875,8,-0.008926392,,,
65.703125,8,-0.299575806,,,
65.71875,8,-0.429534912,,,
65.734375,8,-0.418136597,,,
65.75,8,-0.332611114,,,
65.765625,8,-0.2056427,,,
65.78125,8,-0.068191528,,,
65.796875,8,0.078704827,,,
65.8125,8,0.244689897,,,
65.828125,8,0.449859589,,,
65.84375,8,0.719055176,,,
65.859375,8,1.07069397,,,
65.875,8,1.460693002,,,
65.890625,8,1.798491955,,,
65.90625,8,1.95124805,,,
65.921875,8,1.811934948,,,
65.9375,8,1.345489979,,,
65.953125,8,0.632232726,,,
65.96875,8,-0.177795395,,,
65.984375,8,-0.908325195,,,
66,8,-1.439757943,,,
66.015625,8,-1.711959958,,,
66.03125,8,-1.749405026,,,
66.046875,8,-1.595031977,,,
66.0625,8,-1.27836597,,,
66.078125,8,-0.831344605,,,
66.09375,8,-0.289001495,,,
66.109375,8,0.301635712,,,
66.125,8,0.86529541,,,
66.140625,8,1.338181019,,,
66.15625,8,1.737930059,,,
66.171875,8,2.103988886,,,
66.1875,8,2.521483898,,,
66.203125,8,2.996323109,,,
66.21875,8,3.424361944,,,
66.234375,8,3.608825922,,,
66.25,8,3.35195899,,,
66.265625,8,2.595016003,,,
66.28125,8,1.499390006,,,
66.296875,8,0.407089204,,,
66.3125,8,-0.327423096,,,
66.328125,8,-0.522369385,,,
66.34375,8,-0.273361206,,,
66.359375,8,0.1215057,,,
66.375,8,0.360733002,,,
66.390625,8,0.330688506,,,
66.40625,8,0.204956099,,,
66.421875,8,0.314254791,,,
66.4375,8,0.984329224,,,
66.453125,8,2.320374012,,,
66.46875,8,4.112305164,,,
66.484375,8,5.924179077,,,
66.5,8,7.244904041,,,
66.515625,8,7.693328857,,,
66.53125,8,7.118041992,,,
66.546875,8,5.605865002,,,
66.5625,8,3.421737909,,,
66.578125,8,0.943512023,,,
66.59375,8,-1.442108035,,,
66.609375,8,-3.356627941,,,
66.625,8,-4.543426991,,,
66.640625,8,-4.918776989,,,
66.65625,8,-4.590758801,,,
66.671875,8,-3.834290028,,,
66.6875,8,-2.989319086,,,
66.703125,8,-2.325180054,,,
66.71875,8,-1.948668957,,,
66.734375,8,-1.805663943,,,
66.75,8,-1.738479972,,,
66.765625,8,-1.605682015,,,
66.78125,8,-1.346405029,,,
66.796875,8,-1.007491946,,,
66.8125,8,-0.679138184,,,
66.828125,8,-0.424057007,,,
66.84375,8,-0.242721602,,,
66.859375,8,-0.091506958,,,
66.875,8,0.062179569,,,
66.890625,8,0.193328902,,,
66.90625,8,0.267059296,,,
66.921875,8,0.215621904,,,
66.9375,8,0.041488651,,,
66.953125,8,-0.196106002,,,
66.96875,8,-0.390640289,,,
66.984375,8,-0.4507294,,,
67,8,-0.324173003,,,
67.015625,8,-0.05952454,,,
67.03125,8,0.216430694,,,
67.046875,8,0.349563599,,,
67.0625,8,0.212692305,,,
67.078125,8,-0.859405518,,,
67.09375,8,-1.530135989,,,
67.109375,8,-2.05584693,,,
67.125,8,-2.322829962,,,
67.140625,8,-2.315078974,,,
67.15625,8,-2.091614008,,,
67.171875,8,-1.744475961,,,
67.1875,8,-1.342133045,,,
67.203125,8,-0.911605775,,,
67.21875,8,-0.462753296,,,
67.234375,8,-0.03642273,,,
67.25,8,0.285736114,,,
67.265625,8,0.407821715,,,
67.28125,8,0.284210205,,,
67.296875,8,-0.046875,,,
67.3125,8,-0.470321715,,,
67.328125,8,-0.860244811,,,
67.34375,8,-1.12666297,,,
67.359375,8,-1.259307981,,,
67.375,8,-1.297484994,,,
67.390625,8,-1.256836057,,,
67.40625,8,-1.139907956,,,
67.421875,8,-0.908203125,,,
67.4375,8,-0.546401978,,,
67.453125,8,-0.084701538,,,
67.46875,8,0.39151001,,,
67.484375,8,0.793777525,,,
67.5,8,1.080872059,,,
67.515625,8,1.275939941,,,
67.53125,8,1.430724978,,,
67.546875,8,1.602370977,,,
67.5625,8,1.785614014,,,
67.578125,8,1.936279059,,,
67.59375,8,1.990142942,,,
67.609375,8,1.894989014,,,
67.625,8,1.644623041,,,
67.640625,8,1.265076041,,,
67.65625,8,0.788009584,,,
67.671875,8,0.239883393,,,
67.6875,8,-0.349899292,,,
67.703125,8,-0.930557311,,,
67.71875,8,-1.396438956,,,
67.734375,8,-1.620895028,,,
67.75,8,-1.511458993,,,
67.765625,8,-1.06417799,,,
67.78125,8,-0.411865205,,,
67.796875,8,0.221252397,,,
67.8125,8,0.628311217,,,
67.828125,8,0.700027525,,,
67.84375,8,0.509628296,,,
67.859375,8,0.246368393,,,
67.875,8,0.088699341,,,
67.890625,8,0.115905799,,,
67.90625,8,0.225418106,,,
67.921875,8,0.221817002,,,
67.9375,8,-0.066238403,,,
67.953125,8,-0.672958374,,,
67.96875,8,-1.433562994,,,
67.984375,8,-2.072632074,,,
68,8,-2.331038952,,,
68.015625,8,-2.114470959,,,
68.03125,8,-1.538161993,,,
68.046875,8,-0.832168579,,,
68.0625,8,-0.230560303,,,
68.078125,8,0.1719971,,,
68.09375,8,0.443328887,,,
68.109375,8,0.738952577,,,
68.125,8,1.165634036,,,
68.140625,8,1.707229972,,,
68.15625,8,2.198517084,,,
68.171875,8,2.419112921,,,
68.1875,8,2.229918957,,,
68.203125,8,1.634765983,,,
68.21875,8,0.806869507,,,
68.234375,8,-0.01446533,,,
68.25,8,-0.617843628,,,
68.265625,8,-0.913040221,,,
68.28125,8,-0.920440674,,,
68.296875,8,-0.755737305,,,
68.3125,8,-0.524932921,,,
68.328125,8,-0.305847198,,,
68.34375,8,-0.1003723,,,
68.359375,8,0.119049102,,,
68.375,8,0.364135712,,,
68.390625,8,0.607559204,,,
68.40625,8,0.764267027,,,
68.421875,8,0.757415772,,,
68.4375,8,0.573165894,,,
68.453125,8,0.294601411,,,
68.46875,8,0.066833504,,,
68.484375,8,-0.01210022,,,
68.5,8,0.05204773,,,
68.515625,8,0.111755401,,,
68.53125,8,-0.016265869,,,
68.546875,8,-0.43270871,,,
68.5625,8,-1.055695057,,,
68.578125,8,-1.676772952,,,
68.59375,8,-2.0561831,,,
68.609375,8,-2.056946039,,,
68.625,8,-1.734421015,,,
68.640625,8,-1.248443961,,,
68.65625,8,-0.791122377,,,
68.671875,8,-0.45161441,,,
68.6875,8,-0.217208907,,,
68.703125,8,-0.028915411,,,
68.71875,8,0.150909394,,,
68.734375,8,0.301620513,,,
68.75,8,0.363357514,,,
68.765625,8,0.286209106,,,
68.78125,8,0.05674744,,,
68.796875,8,-0.291626006,,,
68.8125,8,-0.680969179,,,
