Time:64Hz,Epoch,Channel 1,Event Id,Event Date,Event Duration
0,0,41.01140976,,,
0.015625,0,39.6187706,,,
0.03125,0,38.05849075,,,
0.046875,0,37.48260117,,,
0.0625,0,38.89722061,,,
0.078125,0,43.00735092,,,
0.09375,0,49.98561096,,,
0.109375,0,59.3808403,,,
0.125,0,70.08323669,,,
0.140625,0,80.45095825,,,
0.15625,0,88.56006622,,,
0.171875,0,92.67996216,,,
0.1875,0,91.80445862,,,
0.203125,0,85.95736694,,,
0.21875,0,76.19628906,,,
0.234375,0,64.19667053,,,
0.25,0,51.60240173,,,
0.265625,0,39.40560913,,,
0.28125,0,27.7005291,,,
0.296875,0,15.81760025,,,
0.3125,0,2.877105951,,,
0.328125,0,-11.77447987,,,
0.34375,0,-28.34313965,,,
0.359375,0,-46.73714828,,,
0.375,0,-66.83837891,,,
0.390625,0,-88.71367645,,,
0.40625,0,-112.5848007,,,
0.421875,0,-138.5859985,,,
0.4375,0,-166.4864044,,,
0.453125,0,-195.4830017,,,
0.46875,0,-224.1524963,,,
0.484375,0,-250.5077057,,,
0.5,0,-272.1412048,,,
0.515625,0,-286.5982056,,,
0.53125,0,-291.9569092,,,
0.546875,0,-287.4284058,,,
0.5625,0,-273.7608032,,,
0.578125,0,-253.1374969,,,
0.59375,0,-228.4718018,,,
0.609375,0,-202.5095062,,,
0.625,0,-177.1504059,,,
0.640625,0,-153.2449951,,,
0.65625,0,-130.855896,,,
0.671875,0,-109.7204971,,,
0.6875,0,-89.46170044,,,
0.703125,0,-69.58026123,,,
0.71875,0,-49.39702988,,,
0.734375,0,-28.14852905,,,
0.75,0,-5.336791992,,,
0.765625,0,18.91846085,,,
0.78125,0,43.80770874,,,
0.796875,0,68.09454346,,,
0.8125,0,90.71636963,,,
0.828125,0,111.1358032,,,
0.84375,0,129.4304962,,,
0.859375,0,145.9253998,,,
0.875,0,160.7888031,,,
0.890625,0,173.7991028,,,
0.90625,0,184.4340973,,,
0.921875,0,192.0975952,,,
0.9375,0,196.258606,,,
0.953125,0,196.5023041,,,
0.96875,0,192.462204,,,
0.984375,0,183.9317017,,,
1,0,171.0435944,,,
1.015625,0,154.5917969,,,
1.03125,0,136.1692047,,,
1.046875,0,117.9731979,,,
1.0625,0,102.2061005,,,
1.078125,0,90.28201294,,,
1.09375,0,82.26062012,,,
1.109375,0,76.76837158,,,
1.125,0,71.43588257,,,
1.140625,0,63.84075928,,,
1.15625,0,52.47412109,,,
1.171875,0,37.21094131,,,
1.1875,0,19.13116074,,,
1.203125,0,-0.122039802,,,
1.21875,0,-18.99016953,,,
1.234375,0,-36.21239853,,,
1.25,0,-50.64920044,,,
1.265625,0,-61.03162003,,,
1.28125,0,-66.0897522,,,
1.296875,0,-65.18240356,,,
1.3125,0,-58.91785049,,,
1.328125,0,-49.37118912,,,
1.34375,0,-39.37575912,,,
1.359375,0,-31.32732964,,,
1.375,0,-25.91250992,,,
1.390625,0,-21.88265991,,,
1.40625,0,-16.81814957,,,
1.421875,0,-8.607634544,,,
1.4375,0,3.284118891,,,
1.453125,0,17.57720947,,,
1.46875,0,31.96447945,,,
1.484375,0,44.42105103,,,
1.5,0,54.06280899,,,
1.515625,0,61.24489975,,,
1.53125,0,66.77921295,,,
1.546875,0,71.15441895,,,
1.5625,0,74.14956665,,,
1.578125,0,75.12692261,,,
1.59375,0,73.71198273,,,
1.609375,0,70.28433228,,,
1.625,0,65.89151001,,,
1.640625,0,61.5977211,,,
1.65625,0,57.72243881,,,
1.671875,0,53.53775024,,,
1.6875,0,47.60828018,,,
1.703125,0,38.68082047,,,
1.71875,0,26.50960922,,,
1.734375,0,12.14538956,,,
1.75,0,-2.463715076,,,
1.765625,0,-15.31299019,,,
1.78125,0,-25.06469917,,,
1.796875,0,-31.4401207,,,
1.8125,0,-35.13422012,,,
1.828125,0,-37.42473984,,,
1.84375,0,-39.87244034,,,
1.859375,0,-43.98260117,,,
1.875,0,-50.92528915,,,
1.890625,0,-61.34082031,,,
1.90625,0,-75.06334686,,,
1.921875,0,-91.13300323,,,
1.9375,0,-108.0271988,,,
1.953125,0,-124.0991974,,,
1.96875,0,-138.0782013,,,
1.984375,0,-149.2975006,,,
2,0,-157.6282959,,,
2.015625,0,-163.1078949,,,
2.03125,0,-165.7173004,,,
2.046875,0,-165.2117004,,,
2.0625,0,-161.3036041,,,
2.078125,0,-153.8941956,,,
2.09375,0,-143.2445984,,,
2.109375,0,-129.8975067,,,
2.125,0,-114.4585037,,,
2.140625,0,-97.35114288,,,
2.15625,0,-78.68665314,,,
2.171875,0,-58.37591934,,,
2.1875,0,-36.32635117,,,
2.203125,0,-12.64599991,,,
2.21875,0,12.09943008,,,
2.234375,0,36.87902832,,,
2.25,0,60.26538086,,,
2.265625,0,80.65283203,,,
2.28125,0,96.63989258,,,
2.296875,0,107.3479004,,,
2.3125,0,112.6705017,,,
2.328125,0,113.2693024,,,
2.34375,0,110.3115005,,,
2.359375,0,104.9822998,,,
2.375,0,98.12774658,,,
2.390625,0,90.03687286,,,
2.40625,0,80.6158371,,,
2.421875,0,69.70227051,,,
2.4375,0,57.41698837,,,
2.453125,0,44.31676865,,,
2.46875,0,31.22179985,,,
2.484375,0,18.98620987,,,
2.5,0,8.29473877,,,
2.515625,0,-0.371459991,,,
2.53125,0,-6.660460949,,,
2.546875,0,-10.3600502,,,
2.5625,0,-11.50261974,,,
2.578125,0,-10.6170702,,,
2.59375,0,-8.753356934,,,
2.609375,0,-7.188416004,,,
2.625,0,-6.885498047,,,
2.640625,0,-8.060791016,,,
2.65625,0,-10.07866955,,,
2.671875,0,-11.78472996,,,
2.6875,0,-12.15594006,,,
2.703125,0,-10.69983006,,,
2.71875,0,-7.623717785,,,
2.734375,0,-3.508057118,,,
2.75,0,1.112426996,,,
2.765625,0,6.111328125,,,
2.78125,0,11.75555038,,,
2.796875,0,18.54413033,,,
2.8125,0,27.01062012,,,
2.828125,0,37.55865097,,,
2.84375,0,50.44971085,,,
2.859375,0,65.76624298,,,
2.875,0,83.3394165,,,
2.890625,0,102.6723022,,,
2.90625,0,122.7741013,,,
2.921875,0,142.0348053,,,
2.9375,0,158.2841034,,,
2.953125,0,169.128006,,,
2.96875,0,172.4864044,,,
2.984375,0,167.273407,,,
3,0,153.8435974,,,
3.015625,0,133.8834076,,,
3.03125,0,109.8186035,,,
3.046875,0,83.95897675,,,
3.0625,0,57.93347168,,,
3.078125,0,32.58013916,,,
3.09375,0,8.241149902,,,
3.109375,0,-14.90063,,,
3.125,0,-36.68041992,,,
3.140625,0,-57.06481934,,,
3.15625,0,-76.22955322,,,
3.171875,0,-94.39398193,,,
3.1875,0,-111.3856964,,,
3.203125,0,-126.332901,,,
3.21875,0,-137.7910004,,,
3.234375,0,-144.3786926,,,
3.25,0,-145.6990051,,,
3.265625,0,-142.6997986,,,
3.28125,0,-137.3981934,,,
3.296875,0,-131.9956055,,,
3.3125,0,-128.027298,,,
3.328125,0,-125.8766022,,,
3.34375,0,-125.0393982,,,
3.359375,0,-124.6600037,,,
3.375,0,-124.1989975,,,
3.390625,0,-123.6059036,,,
3.40625,0,-123.2315979,,,
3.421875,0,-123.5384979,,,
3.4375,0,-124.8840027,,,
3.453125,0,-127.5082016,,,
3.46875,0,-131.5959015,,,
3.484375,0,-137.3435059,,,
3.5,0,-144.8327942,,,
3.515625,0,-153.9420929,,,
3.53125,0,-164.0874939,,,
3.546875,0,-174.2279968,,,
3.5625,0,-183.0856018,,,
3.578125,0,-189.5579987,,,
3.59375,0,-193.1430969,,,
3.609375,0,-194.2061005,,,
3.625,0,-193.7866974,,,
3.640625,0,-193.0373993,,,
3.65625,0,-192.5729065,,,
3.671875,0,-191.8430939,,,
3.6875,0,-189.1087952,,,
3.703125,0,-182.175705,,,
3.71875,0,-169.5012054,,,
3.734375,0,-151.2115021,,,
3.75,0,-129.3287048,,,
3.765625,0,-107.0186005,,,
3.78125,0,-87.10961914,,,
3.796875,0,-70.91351318,,,
3.8125,0,-57.73339844,,,
3.828125,0,-45.36291885,,,
3.84375,0,-31.33057022,,,
3.859375,0,-13.98285007,,,
3.875,0,6.926940918,,,
3.890625,0,30.39019966,,,
3.90625,0,54.83147812,,,
3.921875,0,78.7219162,,,
3.9375,0,100.7612991,,,
3.953125,0,119.8038025,,,
3.96875,0,134.6515961,,,
3.984375,0,144.0812988,,,
4,0,147.2019043,,,
4.015625,0,143.7570953,,,
4.03125,0,134.2167053,,,
4.046875,0,119.614502,,,
4.0625,0,101.2770996,,,
4.078125,0,80.59539795,,,
4.09375,0,59.01885986,,,
4.109375,0,38.12543106,,,
4.125,0,19.55666924,,,
4.140625,0,4.954772949,,,
4.15625,0,-4.408997059,,,
4.171875,0,-8.046203613,,,
4.1875,0,-6.35858202,,,
4.203125,0,-0.447113007,,,
4.21875,0,8.290252686,,,
4.234375,0,18.62188911,,,
4.25,0,29.60370064,,,
4.265625,0,40.40209961,,,
4.28125,0,50.08208847,,,
4.296875,0,57.55031967,,,
4.3125,0,61.80910873,,,
4.328125,0,62.40447998,,,
4.34375,0,59.73675919,,,
4.359375,0,54.97423935,,,
4.375,0,49.63904953,,,
4.390625,0,45.02479935,,,
4.40625,0,41.85429001,,,
4.421875,0,40.33966064,,,
4.4375,0,40.50111008,,,
4.453125,0,42.45782089,,,
4.46875,0,46.49225998,,,
4.484375,0,52.86003113,,,
4.5,0,61.45684814,,,
4.515625,0,71.75752258,,,
4.53125,0,82.96851349,,,
4.546875,0,94.36087036,,,
4.5625,0,105.5035019,,,
4.578125,0,116.2398987,,,
4.59375,0,126.4012985,,,
4.609375,0,135.524704,,,
4.625,0,142.8186951,,,
4.640625,0,147.2662964,,,
4.65625,0,147.9806976,,,
4.671875,0,144.379303,,,
4.6875,0,136.2682953,,,
4.703125,0,123.8367996,,,
4.71875,0,107.7314987,,,
4.734375,0,89.13070679,,,
4.75,0,69.82454681,,,
4.765625,0,52.01613998,,,
4.78125,0,37.80051041,,,
4.796875,0,28.5988102,,,
4.8125,0,24.64504051,,,
4.828125,0,25.05738068,,,
4.84375,0,28.24690056,,,
4.859375,0,32.53287888,,,
4.875,0,36.67276001,,,
4.890625,0,39.93132019,,,
4.90625,0,41.91856003,,,
4.921875,0,42.21382904,,,
4.9375,0,40.30276871,,,
4.953125,0,35.65613937,,,
4.96875,0,28.12961006,,,
4.984375,0,18.28628922,,,
5,0,7.500136852,,,
5.015625,0,-2.275420904,,,
5.03125,0,-9.038795471,,,
5.046875,0,-11.28137016,,,
5.0625,0,-8.546760559,,,
5.078125,0,-1.47489202,,,
5.09375,0,8.417640686,,,
5.109375,0,19.13315964,,,
5.125,0,28.72639084,,,
5.140625,0,35.72434998,,,
5.15625,0,39.38689041,,,
5.171875,0,39.77296066,,,
5.1875,0,37.69536972,,,
5.203125,0,34.35221863,,,
5.21875,0,31.06295967,,,
5.234375,0,28.82439041,,,
5.25,0,28.02890015,,,
5.265625,0,28.46220016,,,
5.28125,0,29.50233078,,,
5.296875,0,30.5853405,,,
5.3125,0,31.45544052,,,
5.328125,0,32.34260941,,,
5.34375,0,33.61310959,,,
5.359375,0,35.47240067,,,
5.375,0,37.6663208,,,
5.390625,0,39.47468948,,,
5.40625,0,40.00328064,,,
5.421875,0,38.5026207,,,
5.4375,0,34.60147095,,,
5.453125,0,28.21604919,,,
5.46875,0,19.43547058,,,
5.484375,0,8.324569702,,,
5.5,0,-5.067061901,,,
5.515625,0,-20.60980034,,,
5.53125,0,-37.93558884,,,
5.546875,0,-56.3812294,,,
5.5625,0,-75.11421204,,,
5.578125,0,-93.34326172,,,
5.59375,0,-110.4464035,,,
5.609375,0,-125.944397,,,
5.625,0,-139.4476013,,,
5.640625,0,-150.6266022,,,
5.65625,0,-159.229599,,,
5.671875,0,-165.1537933,,,
5.6875,0,-168.373703,,,
5.703125,0,-168.8249969,,,
5.71875,0,-166.2028961,,,
5.734375,0,-159.9436951,,,
5.75,0,-149.403595,,,
5.765625,0,-134.1782074,,,
5.78125,0,-114.4080963,,,
5.796875,0,-90.75881958,,,
5.8125,0,-64.23391724,,,
5.828125,0,-35.74554062,,,
5.84375,0,-6.053374767,,,
5.859375,0,24.17807007,,,
5.875,0,54.06348038,,,
5.890625,0,82.309021,,,
5.90625,0,107.1981964,,,
5.921875,0,127.0698013,,,
5.9375,0,140.8569031,,,
5.953125,0,148.5016937,,,
5.96875,0,150.9761047,,,
5.984375,0,149.9181976,,,
6,0,147.0794983,,,
6.015625,0,143.7855988,,,
6.03125,0,140.7429047,,,
6.046875,0,138.027298,,,
6.0625,0,135.2944946,,,
6.078125,0,131.9785004,,,
6.09375,0,127.4375,,,
6.109375,0,120.9276962,,,
6.125,0,111.7389984,,,
6.140625,0,99.26611328,,,
6.15625,0,83.22265625,,,
6.171875,0,63.79938126,,,
6.1875,0,41.63919067,,,
6.203125,0,17.61090088,,,
6.21875,0,-7.446776867,,,
6.234375,0,-32.82397079,,,
6.25,0,-57.92110825,,,
6.265625,0,-81.94174194,,,
6.28125,0,-103.8582993,,,
6.296875,0,-122.5856018,,,
6.3125,0,-137.2779999,,,
6.328125,0,-147.5581055,,,
6.34375,0,-153.5243988,,,
6.359375,0,-155.4678955,,,
6.375,0,-153.6311951,,,
6.390625,0,-148.2281036,,,
6.40625,0,-139.8567963,,,
6.421875,0,-129.9521027,,,
6.4375,0,-120.8968964,,,
6.453125,0,-115.5210037,,,
6.46875,0,-116.2712021,,,
6.484375,0,-124.495697,,,
6.5,0,-140.0917969,,,
6.515625,0,-161.6598053,,,
6.53125,0,-186.969696,,,
6.546875,0,-213.2752991,,,
6.5625,0,-237.4978027,,,
6.578125,0,-256.364502,,,
6.59375,0,-266.8046875,,,
6.609375,0,-266.7430115,,,
6.625,0,-255.8287964,,,
6.640625,0,-235.6710052,,,
6.65625,0,-209.2872009,,,
6.671875,0,-180.0222015,,,
6.6875,0,-150.3773041,,,
6.703125,0,-121.4859009,,,
6.71875,0,-93.2522583,,,
6.734375,0,-65.03497314,,,
6.75,0,-36.48693848,,,
6.765625,0,-7.863463879,,,
6.78125,0,20.05196953,,,
6.796875,0,46.30624008,,,
6.8125,0,69.97538757,,,
6.828125,0,90.32357025,,,
6.84375,0,106.6573029,,,
6.859375,0,118.3114014,,,
6.875,0,124.796402,,,
6.890625,0,126.167099,,,
6.90625,0,123.2457962,,,
6.921875,0,117.5830002,,,
6.9375,0,111.0880966,,,
6.953125,0,105.4791031,,,
6.96875,0,101.9341965,,,
6.984375,0,100.8792038,,,
7,0,101.9657974,,,
7.015625,0,104.3311005,,,
7.03125,0,106.8386002,,,
7.046875,0,108.4076996,,,
7.0625,0,108.231102,,,
7.078125,0,105.9886017,,,
7.09375,0,101.8973007,,,
7.109375,0,96.59761047,,,
7.125,0,90.84275818,,,
7.140625,0,85.12294006,,,
7.15625,0,79.48853302,,,
7.171875,0,73.59055328,,,
7.1875,0,67.02131653,,,
7.203125,0,59.65874863,,,
7.21875,0,51.85155869,,,
7.234375,0,44.33620071,,,
7.25,0,37.79959106,,,
7.265625,0,32.40763855,,,
7.28125,0,27.57983017,,,
7.296875,0,22.20338058,,,
7.3125,0,15.0673399,,,
7.328125,0,5.492888928,,,
7.34375,0,-6.290908814,,,
7.359375,0,-19.16511917,,,
7.375,0,-31.50658989,,,
7.390625,0,-41.7338295,,,
7.40625,0,-48.87738037,,,
7.421875,0,-52.85123825,,,
7.4375,0,-54.46136093,,,
7.453125,0,-55.10309982,,,
7.46875,0,-56.32662964,,,
7.484375,0,-59.34585953,,,
7.5,0,-64.65261841,,,
7.515625,0,-71.79077148,,,
7.53125,0,-79.34197998,,,
7.546875,0,-85.14069366,,,
7.5625,0,-86.74490356,,,
7.578125,0,-82.02130127,,,
7.59375,0,-69.70056152,,,
7.609375,0,-49.75418091,,,
7.625,0,-23.38647079,,,
7.640625,0,7.313568115,,,
7.65625,0,39.91952896,,,
7.671875,0,72.22860718,,,
7.6875,0,102.5439987,,,
7.703125,0,129.6681976,,,
7.71875,0,152.639801,,,
7.734375,0,170.5691986,,,
7.75,0,182.6309967,,,
7.765625,0,188.3374023,,,
7.78125,0,187.9001007,,,
7.796875,0,182.4409027,,,
7.8125,0,173.794693,,,
7.828125,0,164.0493927,,,
7.84375,0,154.9026947,,,
7.859375,0,147.2691956,,,
7.875,0,141.1230011,,,
7.890625,0,135.781601,,,
7.90625,0,130.3421936,,,
7.921875,0,124.1648026,,,
7.9375,0,117.1112976,,,
7.953125,0,109.6098022,,,
7.96875,0,102.3751984,,,
7.984375,0,96.06500244,,,
8,1,90.92788696,,,
8.015625,1,86.615448,,,
8.03125,1,82.27282715,,,
8.046875,1,76.89575195,,,
8.0625,1,69.78414917,,,
8.078125,1,60.90084839,,,
8.09375,1,50.87469101,,,
8.109375,1,40.72296143,,,
8.125,1,31.29949951,,,
8.140625,1,22.94449043,,,
8.15625,1,15.31140041,,,
8.171875,1,7.614990234,,,
8.1875,1,-0.949890077,,,
8.203125,1,-10.83658028,,,
8.21875,1,-21.97083092,,,
8.234375,1,-33.85274887,,,
8.25,1,-45.79238892,,,
8.265625,1,-57.25836182,,,
8.28125,1,-68.00673676,,,
8.296875,1,-78.12832642,,,
8.3125,1,-87.89019775,,,
8.328125,1,-97.52625275,,,
8.34375,1,-107.0789032,,,
8.359375,1,-116.3270035,,,
8.375,1,-124.9601974,,,
8.390625,1,-132.697403,,,
8.40625,1,-139.5697937,,,
8.421875,1,-145.8872986,,,
8.4375,1,-152.1654053,,,
8.453125,1,-158.7368927,,,
8.46875,1,-165.4223938,,,
8.484375,1,-171.2951965,,,
8.5,1,-174.7677002,,,
8.515625,1,-174.0229034,,,
8.53125,1,-167.5724945,,,
8.546875,1,-154.8432007,,,
8.5625,1,-136.302002,,,
8.578125,1,-113.3615036,,,
8.59375,1,-87.92661285,,,
8.609375,1,-61.91506958,,,
8.625,1,-36.9214592,,,
8.640625,1,-14.03365994,,,
8.65625,1,6.025054932,,,
8.671875,1,22.86160088,,,
8.6875,1,36.21640015,,,
8.703125,1,45.99010849,,,
8.71875,1,52.20557022,,,
8.734375,1,55.10052109,,,
8.75,1,55.1739502,,,
8.765625,1,53.16498184,,,
8.78125,1,50.02019882,,,
8.796875,1,46.69577026,,,
8.8125,1,43.98540878,,,
8.828125,1,42.3371315,,,
8.84375,1,41.74523926,,,
8.859375,1,41.88837051,,,
8.875,1,42.36019897,,,
8.890625,1,42.90964127,,,
8.90625,1,43.49689102,,,
8.921875,1,44.17520142,,,
8.9375,1,44.89907837,,,
8.953125,1,45.3684082,,,
8.96875,1,45.11495972,,,
8.984375,1,43.68838882,,,
9,1,40.91006088,,,
9.015625,1,36.94232178,,,
9.03125,1,32.24631119,,,
9.046875,1,27.31069946,,,
9.0625,1,22.39023018,,,
9.078125,1,17.4399395,,,
9.09375,1,12.15375042,,,
9.109375,1,6.20211792,,,
9.125,1,-0.543395996,,,
9.140625,1,-7.886260986,,,
9.15625,1,-15.41277981,,,
9.171875,1,-22.6168499,,,
9.1875,1,-29.15063095,,,
9.203125,1,-34.93239975,,,
9.21875,1,-40.11352921,,,
9.234375,1,-45.03475952,,,
9.25,1,-50.08810043,,,
9.265625,1,-55.64562988,,,
9.28125,1,-61.95595932,,,
9.296875,1,-69.00717163,,,
9.3125,1,-76.32935333,,,
9.328125,1,-82.88583374,,,
9.34375,1,-87.12802124,,,
9.359375,1,-87.33135986,,,
9.375,1,-82.14779663,,,
9.390625,1,-71.09224701,,,
9.40625,1,-54.80181885,,,
9.421875,1,-34.92037964,,,
9.4375,1,-13.62255955,,,
9.453125,1,6.98348999,,,
9.46875,1,25.32711983,,,
9.484375,1,40.57891846,,,
9.5,1,52.57247925,,,
9.515625,1,61.52301025,,,
9.53125,1,67.78555298,,,
9.546875,1,71.71264648,,,
9.5625,1,73.55664063,,,
9.578125,1,73.60906982,,,
9.59375,1,72.21198273,,,
9.609375,1,69.8270874,,,
9.625,1,66.93099976,,,
9.640625,1,63.97742081,,,
9.65625,1,61.26089096,,,
9.671875,1,58.90420914,,,
9.6875,1,56.87527084,,,
9.703125,1,55.06628037,,,
9.71875,1,53.38837051,,,
9.734375,1,51.83499146,,,
9.75,1,50.40335083,,,
9.765625,1,49.10501099,,,
9.78125,1,47.84442139,,,
9.796875,1,46.43584824,,,
9.8125,1,44.60927963,,,
9.828125,1,42.08575058,,,
9.84375,1,38.63541031,,,
9.859375,1,34.18688965,,,
9.875,1,28.90204048,,,
9.890625,1,23.125,,,
9.90625,1,17.32210922,,,
9.921875,1,11.84844971,,,
9.9375,1,6.830596924,,,
9.953125,1,2.058258057,,,
9.96875,1,-2.856231928,,,
9.984375,1,-8.289764404,,,
10,1,-14.40283012,,,
10.015625,1,-21.01135063,,,
10.03125,1,-27.71582031,,,
10.046875,1,-34.03335953,,,
10.0625,1,-39.66701889,,,
10.078125,1,-44.52511978,,,
10.09375,1,-48.78467178,,,
10.109375,1,-52.7182312,,,
10.125,1,-56.66262817,,,
10.140625,1,-60.93621826,,,
10.15625,1,-65.77670288,,,
10.171875,1,-71.15917969,,,
10.1875,1,-76.55828857,,,
10.203125,1,-80.88939667,,,
10.21875,1,-82.59335327,,,
10.234375,1,-80.10458374,,,
10.25,1,-72.34459686,,,
10.265625,1,-59.1518898,,,
10.28125,1,-41.41094971,,,
10.296875,1,-20.78359985,,,
10.3125,1,0.76574707,,,
10.328125,1,21.41888046,,,
10.34375,1,39.78646851,,,
10.359375,1,54.96017075,,,
10.375,1,66.47930908,,,
10.390625,1,74.26447296,,,
10.40625,1,78.57019043,,,
10.421875,1,79.91867065,,,
10.4375,1,78.95953369,,,
10.453125,1,76.3526001,,,
10.46875,1,72.6654129,,,
10.484375,1,68.31812286,,,
10.5,1,63.6501503,,,
10.515625,1,58.92850113,,,
10.53125,1,54.39339828,,,
10.546875,1,50.24176025,,,
10.5625,1,46.60828018,,,
10.578125,1,43.58298111,,,
10.59375,1,41.23688126,,,
10.609375,1,39.6227684,,,
10.625,1,38.69775009,,,
10.640625,1,38.26977921,,,
10.65625,1,37.89141846,,,
10.671875,1,36.96347046,,,
10.6875,1,34.91751099,,,
10.703125,1,31.46393013,,,
10.71875,1,26.70290947,,,
10.734375,1,21.10004044,,,
10.75,1,15.26566029,,,
10.765625,1,9.718200684,,,
10.78125,1,4.767700195,,,
10.796875,1,0.432830811,,,
10.8125,1,-3.370421886,,,
10.828125,1,-6.772736073,,,
10.84375,1,-9.878875732,,,
10.859375,1,-12.80449963,,,
10.875,1,-15.71909046,,,
10.890625,1,-18.80611992,,,
10.90625,1,-22.14785957,,,
10.921875,1,-25.67871094,,,
10.9375,1,-29.29730034,,,
10.953125,1,-33.00091934,,,
10.96875,1,-37.02362061,,,
10.984375,1,-41.73804092,,,
11,1,-47.43716049,,,
11.015625,1,-54.07183838,,,
11.03125,1,-61.06267929,,,
11.046875,1,-67.3270874,,,
11.0625,1,-71.56622314,,,
11.078125,1,-72.58410645,,,
11.09375,1,-69.58986664,,,
11.109375,1,-62.37604141,,,
11.125,1,-51.35766983,,,
11.140625,1,-37.48876953,,,
11.15625,1,-22.09262085,,,
11.171875,1,-6.675078869,,,
11.1875,1,7.367615223,,,
11.203125,1,18.94713974,,,
11.21875,1,27.48587036,,,
11.234375,1,32.98955917,,,
11.25,1,35.90866089,,,
11.265625,1,36.92229843,,,
11.28125,1,36.70035172,,,
11.296875,1,35.66051865,,,
11.3125,1,33.95166016,,,
11.328125,1,31.54073906,,,
11.34375,1,28.3644104,,,
11.359375,1,24.56104088,,,
11.375,1,20.55054092,,,
11.390625,1,16.97390938,,,
11.40625,1,14.61194038,,,
11.421875,1,14.16635036,,,
11.4375,1,16.02248955,,,
11.453125,1,20.02802086,,,
11.46875,1,25.35770035,,,
11.484375,1,30.54744911,,,
11.5,1,33.86272812,,,
11.515625,1,33.91138077,,,
11.53125,1,30.23389053,,,
11.546875,1,23.60775948,,,
11.5625,1,15.75323009,,,
11.578125,1,8.532287598,,,
11.59375,1,3.105834961,,,
11.609375,1,-0.507751524,,,
11.625,1,-3.216583014,,,
11.640625,1,-6.165740967,,,
11.65625,1,-9.971405029,,,
11.671875,1,-14.45316029,,,
11.6875,1,-18.85290909,,,
11.703125,1,-22.43224907,,,
11.71875,1,-24.99733925,,,
11.734375,1,-27.02791977,,,
11.75,1,-29.41573906,,,
11.765625,1,-32.9598999,,,
11.78125,1,-38.00411987,,,
11.796875,1,-44.28924942,,,
11.8125,1,-51.07577896,,,
11.828125,1,-57.30276108,,,
11.84375,1,-61.84885025,,,
11.859375,1,-63.67626953,,,
11.875,1,-61.94298935,,,
11.890625,1,-56.1171608,,,
11.90625,1,-46.09337997,,,
11.921875,1,-32.28213882,,,
11.9375,1,-15.66571045,,,
11.953125,1,2.26730299,,,
11.96875,1,19.74435043,,,
11.984375,1,35.00497055,,,
12,1,46.64801025,,,
12.015625,1,53.96105957,,,
12.03125,1,57.04352188,,,
12.046875,1,56.70618057,,,
12.0625,1,54.14348984,,,
12.078125,1,50.53628922,,,
12.09375,1,46.69717026,,,
12.109375,1,43.00350952,,,
12.125,1,39.50960922,,,
12.140625,1,36.14416885,,,
12.15625,1,32.90584946,,,
12.171875,1,29.89620972,,,
12.1875,1,27.28256035,,,
12.203125,1,25.23981094,,,
12.21875,1,23.93902969,,,
12.234375,1,23.4968605,,,
12.25,1,23.89934921,,,
12.265625,1,24.90393066,,,
12.28125,1,25.9491291,,,
12.296875,1,26.21738052,,,
12.3125,1,24.92859077,,,
12.328125,1,21.63982964,,,
12.34375,1,16.52972031,,,
12.359375,1,10.31851006,,,
12.375,1,3.98269701,,,
12.390625,1,-1.703277946,,,
12.40625,1,-6.464354992,,,
12.421875,1,-10.51309013,,,
12.4375,1,-14.36089993,,,
12.453125,1,-18.43541908,,,
12.46875,1,-22.92333984,,,
12.484375,1,-27.74051094,,,
12.5,1,-32.65142822,,,
12.515625,1,-37.4156189,,,
12.53125,1,-41.85860825,,,
12.546875,1,-45.91611099,,,
12.5625,1,-49.56003189,,,
12.578125,1,-52.86087036,,,
12.59375,1,-55.96776962,,,
12.609375,1,-59.10189819,,,
12.625,1,-62.45650864,,,
12.640625,1,-65.96984863,,,
12.65625,1,-69.09464264,,,
12.671875,1,-70.7455368,,,
12.6875,1,-69.56307983,,,
12.703125,1,-64.29509735,,,
12.71875,1,-54.39376831,,,
12.734375,1,-40.31314087,,,
12.75,1,-23.42679024,,,
12.765625,1,-5.62878418,,,
12.78125,1,11.29001045,,,
12.796875,1,26.09970093,,,
12.8125,1,38.27709961,,,
12.828125,1,47.74816895,,,
12.84375,1,54.66199112,,,
12.859375,1,59.09646988,,,
12.875,1,61.12395859,,,
12.890625,1,60.95357895,,,
12.90625,1,59.0201683,,,
12.921875,1,55.91952896,,,
12.9375,1,52.24884033,,,
12.953125,1,48.41677856,,,
12.96875,1,44.64957047,,,
12.984375,1,41.08697891,,,
13,1,37.85250854,,,
13.015625,1,35.10631943,,,
13.03125,1,32.99401855,,,
13.046875,1,31.49777031,,,
13.0625,1,30.49118042,,,
13.078125,1,29.84033012,,,
13.09375,1,29.43084908,,,
13.109375,1,29.15148926,,,
13.125,1,28.82052994,,,
13.140625,1,28.03610039,,,
13.15625,1,26.26859093,,,
13.171875,1,23.14757919,,,
13.1875,1,18.63781929,,,
13.203125,1,13.2150898,,,
13.21875,1,7.662108898,,,
13.234375,1,2.769500971,,,
13.25,1,-1.034636974,,,
13.265625,1,-3.795409918,,,
13.28125,1,-6.013762951,,,
13.296875,1,-8.396942139,,,
13.3125,1,-11.61398029,,,
13.328125,1,-16.1599102,,,
13.34375,1,-22.18283081,,,
13.359375,1,-29.4364605,,,
13.375,1,-37.25299072,,,
13.390625,1,-44.69729996,,,
13.40625,1,-50.77701187,,,
13.421875,1,-54.8460083,,,
13.4375,1,-56.8302002,,,
13.453125,1,-57.26678085,,,
13.46875,1,-57.17102051,,,
13.484375,1,-57.55472183,,,
13.5,1,-59.01791,,,
13.515625,1,-61.45254898,,,
13.53125,1,-63.97774887,,,
13.546875,1,-65.15628052,,,
13.5625,1,-63.45203018,,,
13.578125,1,-57.66321182,,,
13.59375,1,-47.32080078,,,
13.609375,1,-32.8794899,,,
13.625,1,-15.55652046,,,
13.640625,1,2.95401001,,,
13.65625,1,20.85500908,,,
13.671875,1,36.57727051,,,
13.6875,1,49.05038071,,,
13.703125,1,57.7047081,,,
13.71875,1,62.51984024,,,
13.734375,1,63.93624878,,,
13.75,1,62.6800499,,,
13.765625,1,59.64318848,,,
13.78125,1,55.62649918,,,
13.796875,1,51.27582169,,,
13.8125,1,46.96237183,,,
13.828125,1,42.91033936,,,
13.84375,1,39.21249008,,,
13.859375,1,35.91653061,,,
13.875,1,32.99718857,,,
13.890625,1,30.3376503,,,
13.90625,1,27.82043076,,,
13.921875,1,25.32056046,,,
13.9375,1,22.83419991,,,
13.953125,1,20.44202042,,,
13.96875,1,18.28058052,,,
13.984375,1,16.37594986,,,
14,1,14.64371014,,,
14.015625,1,12.8455801,,,
14.03125,1,10.66022015,,,
14.046875,1,7.842895985,,,
14.0625,1,4.242156982,,,
14.078125,1,-0.140441895,,,
14.09375,1,-5.203979015,,,
14.109375,1,-10.75098038,,,
14.125,1,-16.53976059,,,
14.140625,1,-22.25985909,,,
14.15625,1,-27.5893898,,,
14.171875,1,-32.25994873,,,
14.1875,1,-36.13909912,,,
14.203125,1,-39.30324936,,,
14.21875,1,-42.03823853,,,
14.234375,1,-44.78948975,,,
14.25,1,-47.97623062,,,
14.265625,1,-51.80205917,,,
14.28125,1,-56.04459,,,
14.296875,1,-59.95119858,,,
14.3125,1,-62.36693954,,,
14.328125,1,-61.9710083,,,
14.34375,1,-57.68481064,,,
14.359375,1,-49.03591919,,,
14.375,1,-36.35787964,,,
14.390625,1,-20.75061035,,,
14.40625,1,-3.766144037,,,
14.421875,1,12.96016979,,,
14.4375,1,28.04491997,,,
14.453125,1,40.50423813,,,
14.46875,1,49.81436157,,,
14.484375,1,55.84833145,,,
14.5,1,58.80194092,,,
14.515625,1,59.14191055,,,
14.53125,1,57.4955101,,,
14.546875,1,54.52286148,,,
14.5625,1,50.8014183,,,
14.578125,1,46.76296997,,,
14.59375,1,42.64825058,,,
14.609375,1,38.61859131,,,
14.625,1,34.83087158,,,
14.640625,1,31.41830063,,,
14.65625,1,28.49889946,,,
14.671875,1,26.13875961,,,
14.6875,1,24.29244995,,,
14.703125,1,22.90493965,,,
14.71875,1,21.90488052,,,
14.734375,1,21.19692993,,,
14.75,1,20.62652969,,,
14.765625,1,19.94487,,,
14.78125,1,18.7868309,,,
14.796875,1,16.81915092,,,
14.8125,1,13.81655979,,,
14.828125,1,9.797302246,,,
14.84375,1,5.069702148,,,
14.859375,1,0.118896499,,,
14.875,1,-4.56803894,,,
14.890625,1,-8.696990967,,,
14.90625,1,-12.27923965,,,
14.921875,1,-15.66549969,,,
14.9375,1,-19.2992897,,,
14.953125,1,-23.51832962,,,
14.96875,1,-28.33993912,,,
14.984375,1,-33.43305969,,,
15,1,-38.27851868,,,
15.015625,1,-42.43769836,,,
15.03125,1,-45.7379303,,,
15.046875,1,-48.37041092,,,
15.0625,1,-50.78879166,,,
15.078125,1,-53.48073959,,,
15.09375,1,-56.81914902,,,
15.109375,1,-60.89416885,,,
15.125,1,-65.39225769,,,
15.140625,1,-69.55922699,,,
15.15625,1,-72.26106262,,,
15.171875,1,-72.16047668,,,
15.1875,1,-68.09751892,,,
15.203125,1,-59.47817993,,,
15.21875,1,-46.53647995,,,
15.234375,1,-30.39966011,,,
15.25,1,-12.76169968,,,
15.265625,1,4.564910889,,,
15.28125,1,20.09724045,,,
15.296875,1,32.94530869,,,
15.3125,1,42.82365036,,,
15.328125,1,49.85918045,,,
15.34375,1,54.36867905,,,
15.359375,1,56.73582077,,,
15.375,1,57.31481934,,,
15.390625,1,56.4278717,,,
15.40625,1,54.39487839,,,
15.421875,1,51.5206604,,,
15.4375,1,48.10900879,,,
15.453125,1,44.4680481,,,
15.46875,1,40.86022949,,,
15.484375,1,37.47676086,,,
15.5,1,34.47190857,,,
15.515625,1,31.92696953,,,
15.53125,1,29.91257095,,,
15.546875,1,28.43722916,,,
15.5625,1,27.44614029,,,
15.578125,1,26.75595093,,,
15.59375,1,26.09225082,,,
15.609375,1,25.08159065,,,
15.625,1,23.43186951,,,
15.640625,1,21.05994034,,,
15.65625,1,18.07653999,,,
15.671875,1,14.82688999,,,
15.6875,1,11.64815044,,,
15.703125,1,8.77116394,,,
15.71875,1,6.217407227,,,
15.734375,1,3.812637091,,,
15.75,1,1.280853033,,,
15.765625,1,-1.597167969,,,
15.78125,1,-4.908660889,,,
15.796875,1,-8.621688843,,,
15.8125,1,-12.57956982,,,
15.828125,1,-16.61288071,,,
15.84375,1,-20.5678196,,,
15.859375,1,-24.34073067,,,
15.875,1,-27.89751053,,,
15.890625,1,-31.27724075,,,
15.90625,1,-34.5632019,,,
15.921875,1,-37.8033905,,,
15.9375,1,-41.01718903,,,
15.953125,1,-44.09574127,,,
15.96875,1,-46.88916016,,,
15.984375,1,-49.25358963,,,
16,2,-51.1687088,,,
16.015625,2,-52.84143066,,,
16.03125,2,-54.63304901,,,
16.046875,2,-56.88853073,,,
16.0625,2,-59.61077118,,,
16.078125,2,-62.31428909,,,
16.09375,2,-63.89844894,,,
16.109375,2,-63.0393486,,,
16.125,2,-58.59801102,,,
16.140625,2,-50.06081009,,,
16.15625,2,-37.81391907,,,
16.171875,2,-22.97207069,,,
16.1875,2,-7.087790966,,,
16.203125,2,8.334732056,,,
16.21875,2,22.10437965,,,
16.234375,2,33.50867081,,,
16.25,2,42.18994141,,,
16.265625,2,48.06480026,,,
16.28125,2,51.23928833,,,
16.296875,2,51.996521,,,
16.3125,2,50.8098793,,,
16.328125,2,48.26136017,,,
16.34375,2,44.93125916,,,
16.359375,2,41.29259872,,,
16.375,2,37.68154907,,,
16.390625,2,34.30791092,,,
16.40625,2,31.29124069,,,
16.421875,2,28.70384026,,,
16.4375,2,26.57901955,,,
16.453125,2,24.90696907,,,
16.46875,2,23.65752029,,,
16.484375,2,22.79545975,,,
16.5,2,22.29390907,,,
16.515625,2,22.08869934,,,
16.53125,2,22.03881073,,,
16.546875,2,21.87585068,,,
16.5625,2,21.27058983,,,
16.578125,2,19.89009094,,,
16.59375,2,17.59181023,,,
16.609375,2,14.44863033,,,
16.625,2,10.74228001,,,
16.640625,2,6.808071137,,,
16.65625,2,2.874183893,,,
16.671875,2,-0.999736786,,,
16.6875,2,-4.905204773,,,
16.703125,2,-8.959964752,,,
16.71875,2,-13.21837997,,,
16.734375,2,-17.59975052,,,
16.75,2,-21.96170998,,,
16.765625,2,-26.12319946,,,
16.78125,2,-29.96228027,,,
16.796875,2,-33.39950943,,,
16.8125,2,-36.41154099,,,
16.828125,2,-39.0448494,,,
16.84375,2,-41.47800827,,,
16.859375,2,-43.98279953,,,
16.875,2,-46.88710022,,,
16.890625,2,-50.32584,,,
16.90625,2,-53.99837112,,,
16.921875,2,-57.05646133,,,
16.9375,2,-58.23339081,,,
16.953125,2,-56.21580887,,,
16.96875,2,-50.10066986,,,
16.984375,2,-39.87434006,,,
17,2,-26.41423988,,,
17.015625,2,-11.31126022,,,
17.03125,2,3.673980951,,,
17.046875,2,17.12546921,,,
17.0625,2,28.26223946,,,
17.078125,2,36.91339874,,,
17.09375,2,43.26947021,,,
17.109375,2,47.58401108,,,
17.125,2,49.96912003,,,
17.140625,2,50.47526169,,,
17.15625,2,49.21260071,,,
17.171875,2,46.48392868,,,
17.1875,2,42.81824875,,,
17.203125,2,38.80633926,,,
17.21875,2,34.91046143,,,
17.234375,2,31.35864067,,,
17.25,2,28.15620041,,,
17.265625,2,25.20606995,,,
17.28125,2,22.51003075,,,
17.296875,2,20.14842987,,,
17.3125,2,18.25473022,,,
17.328125,2,16.90756035,,,
17.34375,2,16.01999092,,,
17.359375,2,15.35324955,,,
17.375,2,14.61182022,,,
17.390625,2,13.50652027,,,
17.40625,2,11.79310989,,,
17.421875,2,9.340514183,,,
17.4375,2,6.072690964,,,
17.453125,2,2.018618107,,,
17.46875,2,-2.623140097,,,
17.484375,2,-7.529526234,,,
17.5,2,-12.31068993,,,
17.515625,2,-16.6709404,,,
17.53125,2,-20.5130291,,,
17.546875,2,-24.01383972,,,
17.5625,2,-27.48986053,,,
17.578125,2,-31.24500084,,,
17.59375,2,-35.37601852,,,
17.609375,2,-39.68362045,,,
17.625,2,-43.76625824,,,
17.640625,2,-47.20306015,,,
17.65625,2,-49.71303177,,,
17.671875,2,-51.28828812,,,
17.6875,2,-52.20214844,,,
17.703125,2,-52.90565872,,,
17.71875,2,-53.89448929,,,
17.734375,2,-55.47431946,,,
17.75,2,-57.54043961,,,
17.765625,2,-59.48078918,,,
17.78125,2,-60.20756149,,,
17.796875,2,-58.48019028,,,
17.8125,2,-53.28514099,,,
17.828125,2,-44.26501083,,,
17.84375,2,-31.84553909,,,
17.859375,2,-17.16308975,,,
17.875,2,-1.725875974,,,
17.890625,2,13.04475021,,,
17.90625,2,26.01350021,,,
17.921875,2,36.54037094,,,
17.9375,2,44.32559967,,,
17.953125,2,49.32485962,,,
17.96875,2,51.6883316,,,
17.984375,2,51.74422073,,,
18,2,50.0044899,,,
18.015625,2,47.04431152,,,
18.03125,2,43.47513962,,,
18.046875,2,39.75854874,,,
18.0625,2,36.23799896,,,
18.078125,2,33.07851028,,,
18.09375,2,30.31908989,,,
18.109375,2,27.87644005,,,
18.125,2,25.62659073,,,
18.140625,2,23.44934082,,,
18.15625,2,21.28158951,,,
18.171875,2,19.21462059,,,
18.1875,2,17.40496063,,,
18.203125,2,16.02532959,,,
18.21875,2,15.10542965,,,
18.234375,2,14.47179031,,,
18.25,2,13.76091003,,,
18.265625,2,12.57312012,,,
18.28125,2,10.67854977,,,
18.296875,2,8.066596985,,,
18.3125,2,4.97013092,,,
18.328125,2,1.733299017,,,
18.34375,2,-1.319118023,,,
18.359375,2,-4.010105133,,,
18.375,2,-6.361656189,,,
18.390625,2,-8.601902008,,,
18.40625,2,-11.07783985,,,
18.421875,2,-14.10628986,,,
18.4375,2,-17.87804985,,,
18.453125,2,-22.29615021,,,
18.46875,2,-27.00394058,,,
18.484375,2,-31.46126938,,,
18.5,2,-35.17036819,,,
18.515625,2,-37.85277176,,,
18.53125,2,-39.61769104,,,
18.546875,2,-40.8827095,,,
18.5625,2,-42.20819092,,,
18.578125,2,-44.10535049,,,
18.59375,2,-46.73461914,,,
18.609375,2,-49.77735901,,,
18.625,2,-52.38460922,,,
18.640625,2,-53.34931946,,,
18.65625,2,-51.41521072,,,
18.671875,2,-45.72584152,,,
18.6875,2,-36.08903885,,,
18.703125,2,-23.15369034,,,
18.71875,2,-8.246959686,,,
18.734375,2,7.027809143,,,
18.75,2,21.18642044,,,
18.765625,2,33.20029831,,,
18.78125,2,42.57579041,,,
18.796875,2,49.27577972,,,
18.8125,2,53.48947144,,,
18.828125,2,55.49493027,,,
18.84375,2,55.55276108,,,
18.859375,2,53.95647049,,,
18.875,2,51.04969025,,,
18.890625,2,47.19781876,,,
18.90625,2,42.83454895,,,
18.921875,2,38.3667717,,,
18.9375,2,34.19721985,,,
18.953125,2,30.60166931,,,
18.96875,2,27.68975067,,,
18.984375,2,25.37182999,,,
19,2,23.38919067,,,
19.015625,2,21.4618206,,,
19.03125,2,19.38500977,,,
19.046875,2,17.15699005,,,
19.0625,2,14.96234989,,,
19.078125,2,13.02431011,,,
19.09375,2,11.45341969,,,
19.109375,2,10.12759018,,,
19.125,2,8.73500061,,,
19.140625,2,6.873939991,,,
19.15625,2,4.24574995,,,
19.171875,2,0.767044127,,,
19.1875,2,-3.368530035,,,
19.203125,2,-7.799605846,,,
19.21875,2,-12.11701965,,,
19.234375,2,-16.02663994,,,
19.25,2,-19.46532059,,,
19.265625,2,-22.52993011,,,
19.28125,2,-25.45467949,,,
19.296875,2,-28.43815041,,,
19.3125,2,-31.56080055,,,
19.328125,2,-34.78985977,,,
19.34375,2,-38.08808899,,,
19.359375,2,-41.42253876,,,
19.375,2,-44.6719017,,,
19.390625,2,-47.51094818,,,
19.40625,2,-49.29246902,,,
19.421875,2,-49.09790039,,,
19.4375,2,-46.01448059,,,
19.453125,2,-39.53723145,,,
19.46875,2,-29.85680008,,,
19.484375,2,-17.9473896,,,
19.5,2,-5.202423096,,,
19.515625,2,7.043762207,,,
19.53125,2,17.94471931,,,
19.546875,2,27.25278091,,,
19.5625,2,35.10454178,,,
19.578125,2,41.62770081,,,
19.59375,2,46.66812897,,,
19.609375,2,49.7772789,,,
19.625,2,50.45624924,,,
19.640625,2,48.5037384,,,
19.65625,2,44.19235992,,,
19.671875,2,38.27402878,,,
19.6875,2,31.71784973,,,
19.703125,2,25.38895988,,,
19.71875,2,19.85963058,,,
19.734375,2,15.39101028,,,
19.75,2,12.06007004,,,
19.765625,2,9.886108398,,,
19.78125,2,8.920097351,,,
19.796875,2,9.105461121,,,
19.8125,2,10.19262981,,,
19.828125,2,11.66530991,,,
19.84375,2,12.8476696,,,
19.859375,2,13.10912037,,,
19.875,2,12.1010704,,,
19.890625,2,9.878067017,,,
19.90625,2,6.738983154,,,
19.921875,2,3.071029902,,,
19.9375,2,-0.906051576,,,
19.953125,2,-5.175582886,,,
19.96875,2,-9.795776367,,,
19.984375,2,-14.71790028,,,
20,2,-19.64635086,,,
20.015625,2,-24.1506691,,,
20.03125,2,-27.81818008,,,
20.046875,2,-30.52461052,,,
20.0625,2,-32.45191956,,,
20.078125,2,-34.01094055,,,
20.09375,2,-35.66123962,,,
20.109375,2,-37.7213707,,,
20.125,2,-40.26755142,,,
20.140625,2,-43.11058044,,,
20.15625,2,-45.83383179,,,
20.171875,2,-47.79146957,,,
20.1875,2,-48.19787979,,,
20.203125,2,-46.26575089,,,
20.21875,2,-41.46406937,,,
20.234375,2,-33.67597961,,,
20.25,2,-23.37822914,,,
20.265625,2,-11.56958008,,,
20.28125,2,0.498962402,,,
20.296875,2,11.59685993,,,
20.3125,2,20.81117058,,,
20.328125,2,27.69054985,,,
20.34375,2,32.20293045,,,
20.359375,2,34.62015152,,,
20.375,2,35.31853867,,,
20.390625,2,34.65750122,,,
20.40625,2,32.91011047,,,
20.421875,2,30.30970955,,,
20.4375,2,27.08432007,,,
20.453125,2,23.54203987,,,
20.46875,2,20.0391407,,,
20.484375,2,16.89192009,,,
20.5,2,14.28736973,,,
20.515625,2,12.2355299,,,
20.53125,2,10.58794975,,,
20.546875,2,9.165298462,,,
20.5625,2,7.851990223,,,
20.578125,2,6.641524792,,,
20.59375,2,5.63407898,,,
20.609375,2,4.883162975,,,
20.625,2,4.326735973,,,
20.640625,2,3.723052979,,,
20.65625,2,2.751480103,,,
20.671875,2,1.101989985,,,
20.6875,2,-1.355422974,,,
20.703125,2,-4.471710205,,,
20.71875,2,-7.927993774,,,
20.734375,2,-11.28334045,,,
20.75,2,-14.20345974,,,
20.765625,2,-16.55681992,,,
20.78125,2,-18.45014954,,,
20.796875,2,-20.10956955,,,
20.8125,2,-21.8250103,,,
20.828125,2,-23.84888077,,,
20.84375,2,-26.37937927,,,
20.859375,2,-29.50083923,,,
20.875,2,-33.09389877,,,
20.890625,2,-36.70956039,,,
20.90625,2,-39.56549072,,,
20.921875,2,-40.64406967,,,
20.9375,2,-39.01459885,,,
20.953125,2,-34.14284897,,,
20.96875,2,-26.14818001,,,
20.984375,2,-15.81511974,,,
21,2,-4.365982056,,,
21.015625,2,6.882003784,,,
21.03125,2,16.84073067,,,
21.046875,2,24.79142952,,,
21.0625,2,30.48827934,,,
21.078125,2,33.96601868,,,
21.09375,2,35.51799011,,,
21.109375,2,35.5191803,,,
21.125,2,34.35012817,,,
21.140625,2,32.30990982,,,
21.15625,2,29.61669922,,,
21.171875,2,26.43638992,,,
21.1875,2,22.89903069,,,
21.203125,2,19.2232399,,,
21.21875,2,15.64356995,,,
21.234375,2,12.42885017,,,
21.25,2,9.80456543,,,
21.265625,2,7.897888184,,,
21.28125,2,6.675949097,,,
21.296875,2,6.046599865,,,
21.3125,2,5.845061779,,,
21.328125,2,5.871826172,,,
21.34375,2,5.938811779,,,
21.359375,2,5.845061779,,,
21.375,2,5.406707764,,,
21.390625,2,4.501235962,,,
21.40625,2,3.101089001,,,
21.421875,2,1.257979989,,,
21.4375,2,-0.932052612,,,
21.453125,2,-3.385299921,,,
21.46875,2,-6.087310791,,,
21.484375,2,-9.060592651,,,
21.5,2,-12.33374023,,,
21.515625,2,-15.84127998,,,
21.53125,2,-19.4190197,,,
21.546875,2,-22.85013008,,,
21.5625,2,-25.92291069,,,
21.578125,2,-28.54566956,,,
21.59375,2,-30.78463936,,,
21.609375,2,-32.84241104,,,
21.625,2,-34.99039841,,,
21.640625,2,-37.47138977,,,
21.65625,2,-40.32891846,,,
21.671875,2,-43.27042007,,,
21.6875,2,-45.64118958,,,
21.703125,2,-46.52009964,,,
21.71875,2,-44.97232056,,,
21.734375,2,-40.39545059,,,
21.75,2,-32.75479126,,,
21.765625,2,-22.6328392,,,
21.78125,2,-11.0970602,,,
21.796875,2,0.649581909,,,
21.8125,2,11.54858017,,,
21.828125,2,20.87041092,,,
21.84375,2,28.25205994,,,
21.859375,2,33.60987854,,,
21.875,2,37.02608871,,,
21.890625,2,38.68621826,,,
21.90625,2,38.83406067,,,
21.921875,2,37.76459885,,,
21.9375,2,35.76424026,,,
21.953125,2,33.13261032,,,
21.96875,2,30.13344002,,,
21.984375,2,27.03030014,,,
22,2,24.05587959,,,
22.015625,2,21.42470932,,,
22.03125,2,19.26921082,,,
22.046875,2,17.61574936,,,
22.0625,2,16.42341995,,,
22.078125,2,15.62751961,,,
22.09375,2,15.1697998,,,
22.109375,2,14.99654007,,,
22.125,2,15.0294199,,,
22.140625,2,15.10622025,,,
22.15625,2,14.94176006,,,
22.171875,2,14.21471024,,,
22.1875,2,12.63144016,,,
22.203125,2,10.09272957,,,
22.21875,2,6.777039051,,,
22.234375,2,3.090485096,,,
22.25,2,-0.466095001,,,
22.265625,2,-3.48435998,,,
22.28125,2,-5.831558228,,,
22.296875,2,-7.691071034,,,
22.3125,2,-9.412826538,,,
22.328125,2,-11.40526962,,,
22.34375,2,-13.91934013,,,
22.359375,2,-17.01967049,,,
22.375,2,-20.58217049,,,
22.390625,2,-24.35390091,,,
22.40625,2,-28.04290962,,,
22.421875,2,-31.37072945,,,
22.4375,2,-34.16505051,,,
22.453125,2,-36.39916992,,,
22.46875,2,-38.26031113,,,
22.484375,2,-40.13331985,,,
22.5,2,-42.49361038,,,
22.515625,2,-45.65613937,,,
22.53125,2,-49.48276901,,,
22.546875,2,-53.26889038,,,
22.5625,2,-55.82477188,,,
22.578125,2,-55.87099838,,,
22.59375,2,-52.47282028,,,
22.609375,2,-45.40267944,,,
22.625,2,-35.21463013,,,
22.640625,2,-23.04865074,,,
22.65625,2,-10.24219036,,,
22.671875,2,2.02404809,,,
22.6875,2,12.94176006,,,
22.703125,2,22.07296944,,,
22.71875,2,29.25600052,,,
22.734375,2,34.46875,,,
22.75,2,37.76704025,,,
22.765625,2,39.31755066,,,
22.78125,2,39.3457489,,,
22.796875,2,38.20463943,,,
22.8125,2,36.26860046,,,
22.828125,2,33.90615845,,,
22.84375,2,31.41628075,,,
22.859375,2,29.0085907,,,
22.875,2,26.79500008,,,
22.890625,2,24.79257011,,,
22.90625,2,23.02128983,,,
22.921875,2,21.49453926,,,
22.9375,2,20.27565002,,,
22.953125,2,19.45631027,,,
22.96875,2,19.05487061,,,
22.984375,2,18.96153069,,,
23,2,18.92049026,,,
23.015625,2,18.58945084,,,
23.03125,2,17.6860199,,,
23.046875,2,16.0800209,,,
23.0625,2,13.83924961,,,
23.078125,2,11.17201042,,,
23.09375,2,8.299025536,,,
23.109375,2,5.358261108,,,
23.125,2,2.364777088,,,
23.140625,2,-0.759384215,,,
23.15625,2,-4.116455078,,,
23.171875,2,-7.729996204,,,
23.1875,2,-11.53958035,,,
23.203125,2,-15.40093994,,,
23.21875,2,-19.14763069,,,
23.234375,2,-22.62682915,,,
23.25,2,-25.75260925,,,
23.265625,2,-28.50271988,,,
23.28125,2,-30.95421028,,,
23.296875,2,-33.21242905,,,
23.3125,2,-35.44485092,,,
23.328125,2,-37.83269882,,,
23.34375,2,-40.50502014,,,
23.359375,2,-43.39865112,,,
23.375,2,-46.14953995,,,
23.390625,2,-48.03731155,,,
23.40625,2,-48.1230011,,,
23.421875,2,-45.48730087,,,
23.4375,2,-39.5821991,,,
23.453125,2,-30.50781059,,,
23.46875,2,-19.01169014,,,
23.484375,2,-6.296494007,,,
23.5,2,6.333571911,,,
23.515625,2,17.84095955,,,
23.53125,2,27.62710953,,,
23.546875,2,35.413311,,,
23.5625,2,41.15674973,,,
23.578125,2,44.83139038,,,
23.59375,2,46.42636108,,,
23.609375,2,46.03499985,,,
23.625,2,43.95116043,,,
23.640625,2,40.67528915,,,
23.65625,2,36.80657959,,,
23.671875,2,32.88204956,,,
23.6875,2,29.19441032,,,
23.703125,2,25.87118912,,,
23.71875,2,22.91263962,,,
23.734375,2,20.36606979,,,
23.75,2,18.35745049,,,
23.765625,2,17.09066963,,,
23.78125,2,16.62771988,,,
23.796875,2,16.85544968,,,
23.8125,2,17.44449997,,,
23.828125,2,17.95479012,,,
23.84375,2,18.01575089,,,
23.859375,2,17.43239021,,,
23.875,2,16.19010925,,,
23.890625,2,14.38599968,,,
23.90625,2,12.15330982,,,
23.921875,2,9.558425903,,,
23.9375,2,6.641051769,,,
23.953125,2,3.45300293,,,
23.96875,2,0.084075928,,,
23.984375,2,-3.303162098,,,
24,3,-6.527359009,,,
24.015625,3,-9.476563454,,,
24.03125,3,-12.13224983,,,
24.046875,3,-14.59564018,,,
24.0625,3,-17.0814209,,,
24.078125,3,-19.80805969,,,
24.09375,3,-22.87418938,,,
24.109375,3,-26.24320984,,,
24.125,3,-29.67449951,,,
24.140625,3,-32.84611893,,,
24.15625,3,-35.48540115,,,
24.171875,3,-37.45291138,,,
24.1875,3,-38.82395935,,,
24.203125,3,-39.86816025,,,
24.21875,3,-40.97492981,,,
24.234375,3,-42.48345947,,,
24.25,3,-44.59029007,,,
24.265625,3,-47.1794014,,,
24.28125,3,-49.79267883,,,
24.296875,3,-51.61785889,,,
24.3125,3,-51.64907837,,,
24.328125,3,-48.94755936,,,
24.34375,3,-42.93659973,,,
24.359375,3,-33.63417053,,,
24.375,3,-21.65320969,,,
24.390625,3,-8.11605835,,,
24.40625,3,5.661872864,,,
24.421875,3,18.45400047,,,
24.4375,3,29.35795975,,,
24.453125,3,37.88428116,,,
24.46875,3,43.93013,,,
24.484375,3,47.6557312,,,
24.5,3,49.33787918,,,
24.515625,3,49.28189087,,,
24.53125,3,47.78871918,,,
24.546875,3,45.17573929,,,
24.5625,3,41.79364014,,,
24.578125,3,38.04708099,,,
24.59375,3,34.34621811,,,
24.609375,3,31.0368309,,,
24.625,3,28.33317947,,,
24.640625,3,26.26248932,,,
24.65625,3,24.76213074,,,
24.671875,3,23.73398972,,,
24.6875,3,23.11417961,,,
24.703125,3,22.87982941,,,
24.71875,3,22.97790909,,,
24.734375,3,23.2706604,,,
24.75,3,23.47747993,,,
24.765625,3,23.2772007,,,
24.78125,3,22.38908005,,,
24.796875,3,20.70875931,,,
24.8125,3,18.33266068,,,
24.828125,3,15.50020027,,,
24.84375,3,12.49810982,,,
24.859375,3,9.541297913,,,
24.875,3,6.67896986,,,
24.890625,3,3.8176651,,,
24.90625,3,0.832237184,,,
24.921875,3,-2.35771203,,,
24.9375,3,-5.689673901,,,
24.953125,3,-9.006446838,,,
24.96875,3,-12.14678001,,,
24.984375,3,-15.04391003,,,
25,3,-17.76637077,,,
25.015625,3,-20.5077095,,,
25.03125,3,-23.44832993,,,
25.046875,3,-26.64646912,,,
25.0625,3,-29.99139023,,,
25.078125,3,-33.2530899,,,
25.09375,3,-36.20325089,,,
25.109375,3,-38.70177841,,,
25.125,3,-40.80131149,,,
25.140625,3,-42.66213989,,,
25.15625,3,-44.52371979,,,
25.171875,3,-46.59975815,,,
25.1875,3,-49.05231094,,,
25.203125,3,-51.88346863,,,
25.21875,3,-54.83359146,,,
25.234375,3,-57.34492111,,,
25.25,3,-58.55437088,,,
25.265625,3,-57.48015976,,,
25.28125,3,-53.28911972,,,
25.296875,3,-45.58314896,,,
25.3125,3,-34.6120491,,,
25.328125,3,-21.23003006,,,
25.34375,3,-6.71248579,,,
25.359375,3,7.587905884,,,
25.375,3,20.49555969,,,
25.390625,3,31.21936989,,,
25.40625,3,39.36783981,,,
25.421875,3,44.93368912,,,
25.4375,3,48.16685104,,,
25.453125,3,49.46818924,,,
25.46875,3,49.25320053,,,
25.484375,3,47.88222122,,,
25.5,3,45.6293602,,,
25.515625,3,42.71424103,,,
25.53125,3,39.42757034,,,
25.546875,3,36.12604904,,,
25.5625,3,33.22587967,,,
25.578125,3,31.07494926,,,
25.59375,3,29.81879044,,,
25.609375,3,29.3472805,,,
25.625,3,29.3629303,,,
25.640625,3,29.51115036,,,
25.65625,3,29.51896095,,,
25.671875,3,29.26919937,,,
25.6875,3,28.73300934,,,
25.703125,3,27.90512085,,,
25.71875,3,26.72488022,,,
25.734375,3,25.06884003,,,
25.75,3,22.84538078,,,
25.765625,3,20.04626083,,,
25.78125,3,16.81516075,,,
25.796875,3,13.37656021,,,
25.8125,3,9.949440002,,,
25.828125,3,6.649517059,,,
25.84375,3,3.508826971,,,
25.859375,3,0.541366577,,,
25.875,3,-2.240561962,,,
25.890625,3,-4.780064106,,,
25.90625,3,-7.089001179,,,
25.921875,3,-9.30115509,,,
25.9375,3,-11.65380001,,,
25.953125,3,-14.41592026,,,
25.96875,3,-17.73566055,,,
25.984375,3,-21.52946091,,,
26,3,-25.52389908,,,
26.015625,3,-29.39108086,,,
26.03125,3,-32.86896133,,,
26.046875,3,-35.92494965,,,
26.0625,3,-38.70661926,,,
26.078125,3,-41.44031143,,,
26.09375,3,-44.33683014,,,
26.109375,3,-47.55099106,,,
26.125,3,-51.0508194,,,
26.140625,3,-54.60725021,,,
26.15625,3,-57.71437073,,,
26.171875,3,-59.55455017,,,
26.1875,3,-59.15745926,,,
26.203125,3,-55.65404892,,,
26.21875,3,-48.58298111,,,
26.234375,3,-38.15457916,,,
26.25,3,-25.25680923,,,
26.265625,3,-11.23558998,,,
26.28125,3,2.480946064,,,
26.296875,3,14.77369022,,,
26.3125,3,24.96776962,,,
26.328125,3,32.84815979,,,
26.34375,3,38.43783951,,,
26.359375,3,41.92673111,,,
26.375,3,43.53126907,,,
26.390625,3,43.53081131,,,
26.40625,3,42.30411911,,,
26.421875,3,40.298069,,,
26.4375,3,37.98360062,,,
26.453125,3,35.74995041,,,
26.46875,3,33.82929993,,,
26.484375,3,32.27711105,,,
26.5,3,31.04981041,,,
26.515625,3,30.07572937,,,
26.53125,3,29.34547043,,,
26.546875,3,28.88204002,,,
26.5625,3,28.70702934,,,
26.578125,3,28.78362083,,,
26.59375,3,29.00045013,,,
26.609375,3,29.15541077,,,
26.625,3,29.05098915,,,
26.640625,3,28.51989937,,,
26.65625,3,27.41284943,,,
26.671875,3,25.67329025,,,
26.6875,3,23.28932953,,,
26.703125,3,20.28141975,,,
26.71875,3,16.78931999,,,
26.734375,3,13.02235031,,,
26.75,3,9.229841232,,,
26.765625,3,5.636627197,,,
26.78125,3,2.36917901,,,
26.796875,3,-0.567279816,,,
26.8125,3,-3.263905048,,,
26.828125,3,-5.837355137,,,
26.84375,3,-8.44463253,,,
26.859375,3,-11.19896984,,,
26.875,3,-14.21683025,,,
26.890625,3,-17.5774498,,,
26.90625,3,-21.29398918,,,
26.921875,3,-25.24151993,,,
26.9375,3,-29.15600014,,,
26.953125,3,-32.70972061,,,
26.96875,3,-35.62076187,,,
26.984375,3,-37.82086945,,,
27,3,-39.49554062,,,
27.015625,3,-41.03805161,,,
27.03125,3,-42.90497971,,,
27.046875,3,-45.42005157,,,
27.0625,3,-48.58740997,,,
27.078125,3,-52.02618027,,,
27.09375,3,-54.95460892,,,
27.109375,3,-56.33955002,,,
27.125,3,-55.09653854,,,
27.140625,3,-50.4109993,,,
27.15625,3,-41.98973084,,,
27.171875,3,-30.24773979,,,
27.1875,3,-16.26135063,,,
27.203125,3,-1.530642986,,,
27.21875,3,12.38885975,,,
27.234375,3,24.27326012,,,
27.25,3,33.45220947,,,
27.265625,3,39.82921982,,,
27.28125,3,43.72090912,,,
27.296875,3,45.62736893,,,
27.3125,3,45.9900589,,,
27.328125,3,45.14144135,,,
27.34375,3,43.30447006,,,
27.359375,3,40.69268036,,,
27.375,3,37.59859085,,,
27.390625,3,34.42274094,,,
27.40625,3,31.60021019,,,
27.421875,3,29.43518066,,,
27.4375,3,28.02545929,,,
27.453125,3,27.24381065,,,
27.46875,3,26.82663918,,,
27.484375,3,26.55858994,,,
27.5,3,26.34288025,,,
27.515625,3,26.22500038,,,
27.53125,3,26.25616074,,,
27.546875,3,26.40018082,,,
27.5625,3,26.43668938,,,
27.578125,3,26.05669975,,,
27.59375,3,25.00254059,,,
27.609375,3,23.18405914,,,
27.625,3,20.76509094,,,
27.640625,3,18.03491974,,,
27.65625,3,15.32065964,,,
27.671875,3,12.82511044,,,
27.6875,3,10.57806015,,,
27.703125,3,8.441448212,,,
27.71875,3,6.260281086,,,
27.734375,3,3.912225962,,,
27.75,3,1.36490202,,,
27.765625,3,-1.294216037,,,
27.78125,3,-3.954576016,,,
27.796875,3,-6.532101154,,,
27.8125,3,-9.035215378,,,
27.828125,3,-11.56682014,,,
27.84375,3,-14.24557972,,,
27.859375,3,-17.15589905,,,
27.875,3,-20.27136993,,,
27.890625,3,-23.50713921,,,
27.90625,3,-26.72273064,,,
27.921875,3,-29.80380058,,,
27.9375,3,-32.67675018,,,
27.953125,3,-35.31797028,,,
27.96875,3,-37.79267883,,,
27.984375,3,-40.22193146,,,
28,3,-42.78326035,,,
28.015625,3,-45.6140213,,,
28.03125,3,-48.70808029,,,
28.046875,3,-51.72423935,,,
28.0625,3,-54.00236893,,,
28.078125,3,-54.60840988,,,
28.09375,3,-52.66117096,,,
28.109375,3,-47.59994125,,,
28.125,3,-39.43153,,,
28.140625,3,-28.72752953,,,
28.15625,3,-16.45799065,,,
28.171875,3,-3.73021102,,,
28.1875,3,8.47600174,,,
28.203125,3,19.37808037,,,
28.21875,3,28.47783089,,,
28.234375,3,35.47978973,,,
28.25,3,40.27505112,,,
28.265625,3,42.93460846,,,
28.28125,3,43.69235992,,,
28.296875,3,42.93310928,,,
28.3125,3,41.13502121,,,
28.328125,3,38.75804901,,,
28.34375,3,36.16024017,,,
28.359375,3,33.62456131,,,
28.375,3,31.36128044,,,
28.390625,3,29.50971031,,,
28.40625,3,28.13706017,,,
28.421875,3,27.26845932,,,
28.4375,3,26.82604027,,,
28.453125,3,26.65999985,,,
28.46875,3,26.58005905,,,
28.484375,3,26.41971016,,,
28.5,3,26.07373047,,,
28.515625,3,25.48971939,,,
28.53125,3,24.62661934,,,
28.546875,3,23.41950035,,,
28.5625,3,21.7779808,,,
28.578125,3,19.65166092,,,
28.59375,3,17.05625916,,,
28.609375,3,14.13759995,,,
28.625,3,11.08320045,,,
28.640625,3,8.096622467,,,
28.65625,3,5.244274139,,,
28.671875,3,2.496753931,,,
28.6875,3,-0.238910705,,,
28.703125,3,-3.015960932,,,
28.71875,3,-5.804904938,,,
28.734375,3,-8.505451202,,,
28.75,3,-11.02840996,,,
28.765625,3,-13.37658024,,,
28.78125,3,-15.63284969,,,
28.796875,3,-17.96022034,,,
28.8125,3,-20.47924995,,,
28.828125,3,-23.21533966,,,
28.84375,3,-26.10461044,,,
28.859375,3,-28.99430084,,,
28.875,3,-31.69043922,,,
28.890625,3,-34.06295013,,,
28.90625,3,-36.10789871,,,
28.921875,3,-37.95281982,,,
28.9375,3,-39.88977051,,,
28.953125,3,-42.247509,,,
28.96875,3,-45.2381897,,,
28.984375,3,-48.74723053,,,
29,3,-52.25582886,,,
29.015625,3,-54.82966995,,,
29.03125,3,-55.40137863,,,
29.046875,3,-53.05189896,,,
29.0625,3,-47.31795883,,,
29.078125,3,-38.39358902,,,
29.09375,3,-27.03813934,,,
29.109375,3,-14.39498997,,,
29.125,3,-1.732638955,,,
29.140625,3,9.859683991,,,
29.15625,3,19.65917015,,,
29.171875,3,27.32823944,,,
29.1875,3,32.86917877,,,
29.203125,3,36.47626877,,,
29.21875,3,38.41627121,,,
29.234375,3,38.94326019,,,
29.25,3,38.32022858,,,
29.265625,3,36.80315018,,,
29.28125,3,34.70114136,,,
29.296875,3,32.33824921,,,
29.3125,3,30.02017021,,,
29.328125,3,27.9711895,,,
29.34375,3,26.2966404,,,
29.359375,3,24.98863983,,,
29.375,3,24.03121948,,,
29.390625,3,23.4197197,,,
29.40625,3,23.17915916,,,
29.421875,3,23.3162899,,,
29.4375,3,23.73389053,,,
29.453125,3,24.19772911,,,
29.46875,3,24.36239052,,,
29.484375,3,23.93928909,,,
29.5,3,22.72574043,,,
29.515625,3,20.7635994,,,
29.53125,3,18.2898407,,,
29.546875,3,15.61322021,,,
29.5625,3,13.02908993,,,
29.578125,3,10.68257046,,,
29.59375,3,8.549468994,,,
29.609375,3,6.477530956,,,
29.625,3,4.296253204,,,
29.640625,3,1.868342996,,,
29.65625,3,-0.825847626,,,
29.671875,3,-3.695422888,,,
29.6875,3,-6.580382824,,,
29.703125,3,-9.342205048,,,
29.71875,3,-11.88673019,,,
29.734375,3,-14.26636982,,,
29.75,3,-16.60689926,,,
29.765625,3,-19.08292007,,,
29.78125,3,-21.81775093,,,
29.796875,3,-24.85692978,,,
29.8125,3,-28.12939072,,,
29.828125,3,-31.48176003,,,
29.84375,3,-34.74620819,,,
29.859375,3,-37.78200912,,,
29.875,3,-40.54354095,,,
29.890625,3,-43.05776978,,,
29.90625,3,-45.44927979,,,
29.921875,3,-47.91270828,,,
29.9375,3,-50.66695023,,,
29.953125,3,-53.83634186,,,
29.96875,3,-57.27473068,,,
29.984375,3,-60.43241119,,,
30,3,-62.33172989,,,
30.015625,3,-61.85634995,,,
30.03125,3,-58.08306122,,,
30.046875,3,-50.65692902,,,
30.0625,3,-40.04925156,,,
30.078125,3,-27.36343002,,,
30.09375,3,-14.00811958,,,
30.109375,3,-1.257956982,,,
30.125,3,10.00666046,,,
30.140625,3,19.37770081,,,
30.15625,3,26.73067093,,,
30.171875,3,32.08224869,,,
30.1875,3,35.50820923,,,
30.203125,3,37.11214066,,,
30.21875,3,37.14572144,,,
30.234375,3,35.99835968,,,
30.25,3,34.09920883,,,
30.265625,3,31.86202049,,,
30.28125,3,29.61914063,,,
30.296875,3,27.58839035,,,
30.3125,3,25.92970085,,,
30.328125,3,24.75802994,,,
30.34375,3,24.1024704,,,
30.359375,3,23.95075989,,,
30.375,3,24.18849945,,,
30.390625,3,24.68638039,,,
30.40625,3,25.29915047,,,
30.421875,3,25.91612053,,,
30.4375,3,26.42680931,,,
30.453125,3,26.72257996,,,
30.46875,3,26.68810081,,,
30.484375,3,26.20829964,,,
30.5,3,25.24764061,,,
30.515625,3,23.85180092,,,
30.53125,3,22.12981987,,,
30.546875,3,20.22451973,,,
30.5625,3,18.23336029,,,
30.578125,3,16.18363953,,,
30.59375,3,14.04627037,,,
30.609375,3,11.78098965,,,
30.625,3,9.358711243,,,
30.640625,3,6.814387798,,,
30.65625,3,4.213837147,,,
30.671875,3,1.689741015,,,
30.6875,3,-0.663053513,,,
30.703125,3,-2.795260906,,,
30.71875,3,-4.771823883,,,
30.734375,3,-6.713853836,,,
30.75,3,-8.804185867,,,
30.765625,3,-11.1796999,,,
30.78125,3,-13.88990021,,,
30.796875,3,-16.91613007,,,
30.8125,3,-20.13721085,,,
30.828125,3,-23.41297913,,,
30.84375,3,-26.66065979,,,
30.859375,3,-29.84634018,,,
30.875,3,-33.00006104,,,
30.890625,3,-36.2228508,,,
30.90625,3,-39.6138916,,,
30.921875,3,-43.27016068,,,
30.9375,3,-47.26686096,,,
30.953125,3,-51.5073204,,,
30.96875,3,-55.65776825,,,
30.984375,3,-59.08071136,,,
31,3,-60.83996964,,,
31.015625,3,-59.90270996,,,
31.03125,3,-55.52769852,,,
31.046875,3,-47.51768875,,,
31.0625,3,-36.38401031,,,
31.078125,3,-23.24080086,,,
31.09375,3,-9.465367317,,,
31.109375,3,3.635586023,,,
31.125,3,15.10204029,,,
31.140625,3,24.45153999,,,
31.15625,3,31.61079025,,,
31.171875,3,36.72475815,,,
31.1875,3,40.02114105,,,
31.203125,3,41.72764969,,,
31.21875,3,42.01116943,,,
31.234375,3,41.09856033,,,
31.25,3,39.25270081,,,
31.265625,3,36.80768967,,,
31.28125,3,34.15312958,,,
31.296875,3,31.67787933,,,
31.3125,3,29.6637001,,,
31.328125,3,28.28026009,,,
31.34375,3,27.55974007,,,
31.359375,3,27.39279938,,,
31.375,3,27.69540024,,,
31.390625,3,28.31497955,,,
31.40625,3,29.09260941,,,
31.421875,3,29.8338604,,,
31.4375,3,30.30590057,,,
31.453125,3,30.2575798,,,
31.46875,3,29.53742981,,,
31.484375,3,28.14267921,,,
31.5,3,26.16056061,,,
31.515625,3,23.78697968,,,
31.53125,3,21.1929493,,,
31.546875,3,18.48689079,,,
31.5625,3,15.6891098,,,
31.578125,3,12.77299023,,,
31.59375,3,9.668394089,,,
31.609375,3,6.387170792,,,
31.625,3,2.98701191,,,
31.640625,3,-0.423052788,,,
31.65625,3,-3.709269047,,,
31.671875,3,-6.780951023,,,
31.6875,3,-9.623907089,,,
31.703125,3,-12.30885983,,,
31.71875,3,-15.00634956,,,
31.734375,3,-17.91407967,,,
31.75,3,-21.17993927,,,
31.765625,3,-24.85685921,,,
31.78125,3,-28.84513092,,,
31.796875,3,-32.9042511,,,
31.8125,3,-36.72021103,,,
31.828125,3,-40.06579971,,,
31.84375,3,-42.85078049,,,
31.859375,3,-45.26456833,,,
31.875,3,-47.66727829,,,
31.890625,3,-50.45037842,,,
31.90625,3,-53.81539154,,,
31.921875,3,-57.59518814,,,
31.9375,3,-61.12155914,,,
31.953125,3,-63.35400009,,,
31.96875,3,-63.14377975,,,
31.984375,3,-59.55162048,,,
32,4,-52.170681,,,
32.015625,4,-41.22967148,,,
32.03125,4,-27.55537987,,,
32.046875,4,-12.38350964,,,
32.0625,4,2.870481014,,,
32.078125,4,16.92112923,,,
32.09375,4,28.77865982,,,
32.109375,4,37.89091873,,,
32.125,4,44.15161133,,,
32.140625,4,47.80958939,,,
32.15625,4,49.32389069,,,
32.171875,4,49.20785904,,,
32.1875,4,47.93386078,,,
32.203125,4,45.85781097,,,
32.21875,4,43.2547493,,,
32.234375,4,40.36426926,,,
32.25,4,37.41040039,,,
32.265625,4,34.6620903,,,
32.28125,4,32.3654213,,,
32.296875,4,30.73332024,,,
32.3125,4,29.91525078,,,
32.328125,4,29.92244911,,,
32.34375,4,30.64039993,,,
32.359375,4,31.81167984,,,
32.375,4,33.09115982,,,
32.390625,4,34.10610962,,,
32.40625,4,34.54819107,,,
32.421875,4,34.17914963,,,
32.4375,4,32.90702057,,,
32.453125,4,30.79039001,,,
32.46875,4,28.02235985,,,
32.484375,4,24.89410019,,,
32.5,4,21.74296951,,,
32.515625,4,18.84922981,,,
32.53125,4,16.36453056,,,
32.546875,4,14.29465961,,,
32.5625,4,12.48577976,,,
32.578125,4,10.68960953,,,
32.59375,4,8.635410309,,,
32.609375,4,6.133862019,,,
32.625,4,3.145195007,,,
32.640625,4,-0.196521804,,,
32.65625,4,-3.650733948,,,
32.671875,4,-6.945437908,,,
32.6875,4,-9.909534454,,,
32.703125,4,-12.60198975,,,
32.71875,4,-15.28485012,,,
32.734375,4,-18.34363937,,,
32.75,4,-22.07883072,,,
32.765625,4,-26.53453064,,,
32.78125,4,-31.45672035,,,
32.796875,4,-36.41653824,,,
32.8125,4,-40.95066834,,,
32.828125,4,-44.76536942,,,
32.84375,4,-47.86040878,,,
32.859375,4,-50.48339081,,,
32.875,4,-52.98991013,,,
32.890625,4,-55.76037979,,,
32.90625,4,-59.03834152,,,
32.921875,4,-62.85614014,,,
32.9375,4,-66.92936707,,,
32.953125,4,-70.53981018,,,
32.96875,4,-72.61882019,,,
32.984375,4,-71.94834137,,,
33,4,-67.46948242,,,
33.015625,4,-58.69358063,,,
33.03125,4,-45.94734955,,,
33.046875,4,-30.35313988,,,
33.0625,4,-13.52105999,,,
33.078125,4,2.861754894,,,
33.09375,4,17.48531914,,,
33.109375,4,29.55739021,,,
33.125,4,38.82209015,,,
33.140625,4,45.44598007,,,
33.15625,4,49.78636932,,,
33.171875,4,52.24880981,,,
33.1875,4,53.22692108,,,
33.203125,4,53.0612793,,,
33.21875,4,52.02621841,,,
33.234375,4,50.34004974,,,
33.25,4,48.16093063,,,
33.265625,4,45.65805054,,,
33.28125,4,43.03252029,,,
33.296875,4,40.49956894,,,
33.3125,4,38.27336884,,,
33.328125,4,36.52841949,,,
33.34375,4,35.33845901,,,
33.359375,4,34.67623901,,,
33.375,4,34.44421005,,,
33.390625,4,34.47655106,,,
33.40625,4,34.56990051,,,
33.421875,4,34.4900589,,,
33.4375,4,33.95309067,,,
33.453125,4,32.73717117,,,
33.46875,4,30.72414017,,,
33.484375,4,27.97756004,,,
33.5,4,24.73283958,,,
33.515625,4,21.33616066,,,
33.53125,4,18.07966995,,,
33.546875,4,15.12611008,,,
33.5625,4,12.46669006,,,
33.578125,4,9.935909271,,,
33.59375,4,7.334988117,,,
33.609375,4,4.507160187,,,
33.625,4,1.362952948,,,
33.640625,4,-2.035839081,,,
33.65625,4,-5.550888062,,,
33.671875,4,-8.945682526,,,
33.6875,4,-12.04533005,,,
33.703125,4,-14.7788496,,,
33.71875,4,-17.27482033,,,
33.734375,4,-19.77359962,,,
33.75,4,-22.53558922,,,
33.765625,4,-25.70957947,,,
33.78125,4,-29.20478058,,,
33.796875,4,-32.78710938,,,
33.8125,4,-36.11568069,,,
33.828125,4,-38.95550919,,,
33.84375,4,-41.24036026,,,
33.859375,4,-43.1149292,,,
33.875,4,-44.85998917,,,
33.890625,4,-46.83079147,,,
33.90625,4,-49.38698959,,,
33.921875,4,-52.71432877,,,
33.9375,4,-56.70555878,,,
33.953125,4,-60.78002167,,,
33.96875,4,-63.92113113,,,
33.984375,4,-64.85543823,,,
34,4,-62.46152115,,,
34.015625,4,-56.11729813,,,
34.03125,4,-45.9664917,,,
34.046875,4,-32.89253998,,,
34.0625,4,-18.24917984,,,
34.078125,4,-3.476253986,,,
34.09375,4,10.22929001,,,
34.109375,4,22.08039093,,,
34.125,4,31.71604919,,,
34.140625,4,39.04779053,,,
34.15625,4,44.13138962,,,
34.171875,4,47.09532928,,,
34.1875,4,48.0956192,,,
34.203125,4,47.33586121,,,
34.21875,4,45.13523865,,,
34.234375,4,41.95296097,,,
34.25,4,38.33879089,,,
34.265625,4,34.86307907,,,
34.28125,4,31.94713974,,,
34.296875,4,29.75229073,,,
34.3125,4,28.22565079,,,
34.328125,4,27.20163918,,,
34.34375,4,26.53455925,,,
34.359375,4,26.17834091,,,
34.375,4,26.17383957,,,
34.390625,4,26.48763084,,,
34.40625,4,26.9409008,,,
34.421875,4,27.19643021,,,
34.4375,4,26.89042091,,,
34.453125,4,25.74793053,,,
34.46875,4,23.6832695,,,
34.484375,4,20.78019905,,,
34.5,4,17.20819092,,,
34.515625,4,13.14358044,,,
34.53125,4,8.77771759,,,
34.546875,4,4.324843884,,,
34.5625,4,-0.003967285,,,
34.578125,4,-4.045859814,,,
34.59375,4,-7.812660217,,,
34.609375,4,-11.49137974,,,
34.625,4,-15.37852001,,,
34.640625,4,-19.6903801,,,
34.65625,4,-24.47612953,,,
34.671875,4,-29.5274601,,,
34.6875,4,-34.4864006,,,
34.703125,4,-39.00197983,,,
34.71875,4,-42.86162949,,,
34.734375,4,-46.05136108,,,
34.75,4,-48.70944977,,,
34.765625,4,-51.08110046,,,
34.78125,4,-53.4160614,,,
34.796875,4,-55.96141052,,,
34.8125,4,-58.80316925,,,
34.828125,4,-61.70413971,,,
34.84375,4,-64.01053619,,,
34.859375,4,-64.68901825,,,
34.875,4,-62.582901,,,
34.890625,4,-56.80828094,,,
34.90625,4,-47.11346054,,,
34.921875,4,-34.01787186,,,
34.9375,4,-18.69235039,,,
34.953125,4,-2.646365881,,,
34.96875,4,12.72784042,,,
34.984375,4,26.34708023,,,
35,4,37.57973099,,,
35.015625,4,46.1073494,,,
35.03125,4,51.88764191,,,
35.046875,4,55.07498932,,,
35.0625,4,56.00382996,,,
35.078125,4,55.17103958,,,
35.09375,4,53.12797165,,,
35.109375,4,50.38364029,,,
35.125,4,47.27032089,,,
35.140625,4,44.00086975,,,
35.15625,4,40.67351913,,,
35.171875,4,37.41992188,,,
35.1875,4,34.39170074,,,
35.203125,4,31.78924942,,,
35.21875,4,29.77725983,,,
35.234375,4,28.42448998,,,
35.25,4,27.7211895,,,
35.265625,4,27.5408802,,,
35.28125,4,27.7050209,,,
35.296875,4,27.96357918,,,
35.3125,4,28.00320053,,,
35.328125,4,27.48810005,,,
35.34375,4,26.15990067,,,
35.359375,4,23.92266083,,,
35.375,4,20.90221024,,,
35.390625,4,17.37491989,,,
35.40625,4,13.70009041,,,
35.421875,4,10.16129971,,,
35.4375,4,6.904190064,,,
35.453125,4,3.891823053,,,
35.46875,4,0.982589722,,,
35.484375,4,-1.993065,,,
35.5,4,-5.133269787,,,
35.515625,4,-8.451507568,,,
35.53125,4,-11.87837982,,,
35.546875,4,-15.31886005,,,
35.5625,4,-18.70421982,,,
35.578125,4,-22.04476929,,,
35.59375,4,-25.40607071,,,
35.609375,4,-28.83971977,,,
35.625,4,-32.38153076,,,
35.640625,4,-35.95560837,,,
35.65625,4,-39.44073105,,,
35.671875,4,-42.69623947,,,
35.6875,4,-45.68832016,,,
35.703125,4,-48.4973793,,,
35.71875,4,-51.33990097,,,
35.734375,4,-54.5250206,,,
35.75,4,-58.32714844,,,
35.765625,4,-62.87871933,,,
35.78125,4,-68.01896667,,,
35.796875,4,-73.15120697,,,
35.8125,4,-77.27948761,,,
35.828125,4,-79.0894928,,,
35.84375,4,-77.3112793,,,
35.859375,4,-71.08010864,,,
35.875,4,-60.25418854,,,
35.890625,4,-45.5572319,,,
35.90625,4,-28.44214058,,,
35.921875,4,-10.70384026,,,
35.9375,4,5.96021986,,,
35.953125,4,20.2571106,,,
35.96875,4,31.57699013,,,
35.984375,4,39.83647919,,,
36,4,45.34972,,,
36.015625,4,48.57751846,,,
36.03125,4,49.99430847,,,
36.046875,4,49.98775101,,,
36.0625,4,48.95692062,,,
36.078125,4,47.31333923,,,
36.09375,4,45.46733856,,,
36.109375,4,43.82902908,,,
36.125,4,42.6277504,,,
36.140625,4,41.93907166,,,
36.15625,4,41.67444992,,,
36.171875,4,41.70888901,,,
36.1875,4,41.96377945,,,
36.203125,4,42.46366119,,,
36.21875,4,43.25868988,,,
36.234375,4,44.27096939,,,
36.25,4,45.28656006,,,
36.265625,4,45.89332962,,,
36.28125,4,45.62797165,,,
36.296875,4,44.18946075,,,
36.3125,4,41.5291481,,,
36.328125,4,37.85577011,,,
36.34375,4,33.55117035,,,
36.359375,4,29.02024078,,,
36.375,4,24.54007912,,,
36.390625,4,20.25255966,,,
36.40625,4,16.14049912,,,
36.421875,4,12.12125015,,,
36.4375,4,8.157943726,,,
36.453125,4,4.26314497,,,
36.46875,4,0.501808226,,,
36.484375,4,-3.056197882,,,
36.5,4,-6.41233778,,,
36.515625,4,-9.663864136,,,
36.53125,4,-12.94266987,,,
36.546875,4,-16.38684082,,,
36.5625,4,-20.03404045,,,
36.578125,4,-23.80149078,,,
36.59375,4,-27.52883911,,,
36.609375,4,-31.08544922,,,
36.625,4,-34.40745163,,,
36.640625,4,-37.54310989,,,
36.65625,4,-40.60750961,,,
36.671875,4,-43.68167114,,,
36.6875,4,-46.85258102,,,
36.703125,4,-50.17092133,,,
36.71875,4,-53.74855042,,,
36.734375,4,-57.63837814,,,
36.75,4,-61.75468826,,,
36.765625,4,-65.61128998,,,
36.78125,4,-68.2750473,,,
36.796875,4,-68.5120163,,,
36.8125,4,-65.11572266,,,
36.828125,4,-57.4119606,,,
36.84375,4,-45.55183029,,,
36.859375,4,-30.58576965,,,
36.875,4,-14.1121397,,,
36.890625,4,2.15387702,,,
36.90625,4,16.89916992,,,
36.921875,4,29.36656952,,,
36.9375,4,39.31805038,,,
36.953125,4,46.82849884,,,
36.96875,4,51.98171997,,,
36.984375,4,54.80823898,,,
37,4,55.31354904,,,
37.015625,4,53.66714096,,,
37.03125,4,50.30562973,,,
37.046875,4,45.95325851,,,
37.0625,4,41.46278,,,
37.078125,4,37.51665878,,,
37.09375,4,34.52299118,,,
37.109375,4,32.43159103,,,
37.125,4,30.91604042,,,
37.140625,4,29.63389969,,,
37.15625,4,28.43198013,,,
37.171875,4,27.44228935,,,
37.1875,4,26.85850906,,,
37.203125,4,26.76408005,,,
37.21875,4,26.87644959,,,
37.234375,4,26.6470108,,,
37.25,4,25.46702957,,,
37.265625,4,22.97871017,,,
37.28125,4,19.23790932,,,
37.296875,4,14.68155956,,,
37.3125,4,9.891807556,,,
37.328125,4,5.306793213,,,
37.34375,4,1.096984983,,,
37.359375,4,-2.858733892,,,
37.375,4,-6.782166004,,,
37.390625,4,-10.85435009,,,
37.40625,4,-15.10299969,,,
37.421875,4,-19.45009041,,,
37.4375,4,-23.71839905,,,
37.453125,4,-27.72410965,,,
37.46875,4,-31.31587982,,,
37.484375,4,-34.40882111,,,
37.5,4,-37.05405045,,,
37.515625,4,-39.40967941,,,
37.53125,4,-41.77820969,,,
37.546875,4,-44.49029922,,,
37.5625,4,-47.81877899,,,
37.578125,4,-51.77030182,,,
37.59375,4,-55.93378067,,,
37.609375,4,-59.42148972,,,
37.625,4,-60.99681854,,,
37.640625,4,-59.38624954,,,
37.65625,4,-53.70975876,,,
37.671875,4,-43.78372955,,,
37.6875,4,-30.26144981,,,
37.703125,4,-14.51206017,,,
37.71875,4,1.803130984,,,
37.734375,4,17.10646057,,,
37.75,4,30.23907089,,,
37.765625,4,40.58169937,,,
37.78125,4,47.95061111,,,
37.796875,4,52.46165085,,,
37.8125,4,54.36737061,,,
37.828125,4,54.02981186,,,
37.84375,4,51.92000961,,,
37.859375,4,48.6213913,,,
37.875,4,44.73112869,,,
37.890625,4,40.78847885,,,
37.90625,4,37.24245071,,,
37.921875,4,34.31135941,,,
37.9375,4,32.08916092,,,
37.953125,4,30.51646042,,,
37.96875,4,29.48217011,,,
37.984375,4,28.85647964,,,
38,4,28.53396034,,,
38.015625,4,28.40889931,,,
38.03125,4,28.36878014,,,
38.046875,4,28.33222961,,,
38.0625,4,28.1459198,,,
38.078125,4,27.6337204,,,
38.09375,4,26.5509491,,,
38.109375,4,24.66324997,,,
38.125,4,21.80508995,,,
38.140625,4,17.98347092,,,
38.15625,4,13.41415977,,,
38.171875,4,8.472015381,,,
38.1875,4,3.636398077,,,
38.203125,4,-0.713806212,,,
38.21875,4,-4.413085938,,,
38.234375,4,-7.567115784,,,
38.25,4,-10.45775986,,,
38.265625,4,-13.45088959,,,
38.28125,4,-16.79973984,,,
38.296875,4,-20.57831001,,,
38.3125,4,-24.66618919,,,
38.328125,4,-28.83420944,,,
38.34375,4,-32.87574005,,,
38.359375,4,-36.64849854,,,
38.375,4,-40.10071945,,,
38.390625,4,-43.26710129,,,
38.40625,4,-46.20700836,,,
38.421875,4,-49.01758957,,,
38.4375,4,-51.86222076,,,
38.453125,4,-54.963871,,,
38.46875,4,-58.55614853,,,
38.484375,4,-62.66992188,,,
38.5,4,-66.93917847,,,
38.515625,4,-70.47071075,,,
38.53125,4,-71.97717285,,,
38.546875,4,-70.11219025,,,
38.5625,4,-63.91942978,,,
38.578125,4,-53.21648026,,,
38.59375,4,-38.74401855,,,
38.609375,4,-21.96376991,,,
38.625,4,-4.671791077,,,
38.640625,4,11.47058964,,,
38.65625,4,25.26856041,,,
38.671875,4,36.13158035,,,
38.6875,4,43.94770813,,,
38.703125,4,48.98472977,,,
38.71875,4,51.66109848,,,
38.734375,4,52.41823959,,,
38.75,4,51.70606995,,,
38.765625,4,49.93933868,,,
38.78125,4,47.54864883,,,
38.796875,4,44.94079971,,,
38.8125,4,42.47900009,,,
38.828125,4,40.41659927,,,
38.84375,4,38.84273148,,,
38.859375,4,37.70735168,,,
38.875,4,36.88589096,,,
38.890625,4,36.2641716,,,
38.90625,4,35.78657913,,,
38.921875,4,35.44742966,,,
38.9375,4,35.19121933,,,
38.953125,4,34.85808182,,,
38.96875,4,34.17174912,,,
38.984375,4,32.86994934,,,
39,4,30.73913956,,,
39.015625,4,27.75276947,,,
39.03125,4,24.05874062,,,
39.046875,4,19.93790054,,,
39.0625,4,15.65052032,,,
39.078125,4,11.38393974,,,
39.09375,4,7.165442944,,,
39.109375,4,2.879683971,,,
39.125,4,-1.588623047,,,
39.140625,4,-6.275229931,,,
39.15625,4,-11.0527401,,,
39.171875,4,-15.60859013,,,
39.1875,4,-19.63367081,,,
39.203125,4,-23.02514076,,,
39.21875,4,-25.95521927,,,
39.234375,4,-28.87957954,,,
39.25,4,-32.27917099,,,
39.265625,4,-36.41070175,,,
39.28125,4,-41.15832138,,,
39.296875,4,-46.11069107,,,
39.3125,4,-50.75727844,,,
39.328125,4,-54.68381882,,,
39.34375,4,-57.73886871,,,
39.359375,4,-59.89255905,,,
39.375,4,-61.25123978,,,
39.390625,4,-61.90579987,,,
39.40625,4,-61.95492935,,,
39.421875,4,-61.44890976,,,
39.4375,4,-60.26506042,,,
39.453125,4,-57.98910904,,,
39.46875,4,-53.88711929,,,
39.484375,4,-47.12882996,,,
39.5,4,-37.15470123,,,
39.515625,4,-24.08885956,,,
39.53125,4,-8.956268311,,,
39.546875,4,6.47495985,,,
39.5625,4,20.09321022,,,
39.578125,4,29.99164963,,,
39.59375,4,34.91302109,,,
39.609375,4,34.41703033,,,
39.625,4,28.8073597,,,
39.640625,4,18.94548035,,,
39.65625,4,5.963562012,,,
39.671875,4,-8.903030396,,,
39.6875,4,-24.40447998,,,
39.703125,4,-39.26684952,,,
39.71875,4,-52.06058121,,,
39.734375,4,-61.15024185,,,
39.75,4,-64.77776337,,,
39.765625,4,-61.36936951,,,
39.78125,4,-50.00440979,,,
39.796875,4,-30.85767937,,,
39.8125,4,-5.410294056,,,
39.828125,4,23.7376709,,,
39.84375,4,53.31079102,,,
39.859375,4,80.08640289,,,
39.875,4,101.4502029,,,
39.890625,4,115.7081985,,,
39.90625,4,122.1402969,,,
39.921875,4,120.8415985,,,
39.9375,4,112.6430969,,,
39.953125,4,98.98438263,,,
39.96875,4,81.80731201,,,
39.984375,4,63.31858826,,,
40,5,45.65515137,,,
40.015625,5,30.39899063,,,
40.03125,5,18.33428955,,,
40.046875,5,9.413833618,,,
40.0625,5,3.035202026,,,
40.078125,5,-1.518646002,,,
40.09375,5,-4.792313099,,,
40.109375,5,-7.066329956,,,
40.125,5,-8.509292603,,,
40.140625,5,-9.40953064,,,
40.15625,5,-10.25998974,,,
40.171875,5,-11.6257,,,
40.1875,5,-13.86028004,,,
40.203125,5,-16.91537094,,,
40.21875,5,-20.16769028,,,
40.234375,5,-22.53296089,,,
40.25,5,-22.71059036,,,
40.265625,5,-19.55487061,,,
40.28125,5,-12.51189041,,,
40.296875,5,-1.893126965,,,
40.3125,5,11.03044033,,,
40.328125,5,24.43050003,,,
40.34375,5,36.46049118,,,
40.359375,5,45.91125107,,,
40.375,5,52.57170105,,,
40.390625,5,57.09746933,,,
40.40625,5,60.51390076,,,
40.421875,5,63.58037949,,,
40.4375,5,66.40715027,,,
40.453125,5,68.5632782,,,
40.46875,5,69.53015137,,,
40.484375,5,69.15453339,,,
40.5,5,67.87008667,,,
40.515625,5,66.43380737,,,
40.53125,5,65.48545074,,,
40.546875,5,65.17690277,,,
40.5625,5,65.1624527,,,
40.578125,5,64.91233063,,,
40.59375,5,64.08554077,,,
40.609375,5,62.70740891,,,
40.625,5,60.98442841,,,
40.640625,5,58.9297905,,,
40.65625,5,56.0860405,,,
40.671875,5,51.74618912,,,
40.6875,5,45.42081833,,,
40.703125,5,37.34012985,,,
40.71875,5,28.56489944,,,
40.734375,5,20.48881912,,,
40.75,5,14.12854958,,,
40.765625,5,9.585830689,,,
40.78125,5,6.101601124,,,
40.796875,5,2.70156908,,,
40.8125,5,-1.210219979,,,
40.828125,5,-5.545972824,,,
40.84375,5,-9.877979279,,,
40.859375,5,-13.99991035,,,
40.875,5,-18.29236031,,,
40.890625,5,-23.53992081,,,
40.90625,5,-30.4045105,,,
40.921875,5,-38.90208054,,,
40.9375,5,-48.38999939,,,
40.953125,5,-57.97204971,,,
40.96875,5,-66.88169098,,,
40.984375,5,-74.6499176,,,
41,5,-80.74996948,,,
41.015625,5,-84.341362,,,
41.03125,5,-84.31297302,,,
41.046875,5,-79.85961914,,,
41.0625,5,-71.07202911,,,
41.078125,5,-59.2070694,,,
41.09375,5,-46.20690155,,,
41.109375,5,-33.7768898,,,
41.125,5,-22.73130035,,,
41.140625,5,-12.83479023,,,
41.15625,5,-3.452438116,,,
41.171875,5,5.756081104,,,
41.1875,5,14.4209404,,,
41.203125,5,21.70144081,,,
41.21875,5,26.84119034,,,
41.234375,5,29.62965965,,,
41.25,5,30.42185974,,,
41.265625,5,29.68176079,,,
41.28125,5,27.6112709,,,
41.296875,5,24.10127068,,,
41.3125,5,19.03206062,,,
41.328125,5,12.70123005,,,
41.34375,5,5.935195923,,,
41.359375,5,-0.189086899,,,
41.375,5,-4.84895277,,,
41.390625,5,-7.771591187,,,
41.40625,5,-9.298583984,,,
41.421875,5,-9.975372315,,,
41.4375,5,-10.25261021,,,
41.453125,5,-10.40491009,,,
41.46875,5,-10.66127014,,,
41.484375,5,-11.42574978,,,
41.5,5,-13.20203018,,,
41.515625,5,-16.35276985,,,
41.53125,5,-20.76497078,,,
41.546875,5,-25.86138916,,,
41.5625,5,-30.80855942,,,
41.578125,5,-35.02595901,,,
41.59375,5,-38.49234009,,,
41.609375,5,-41.6473999,,,
41.625,5,-45.02338028,,,
41.640625,5,-48.77672958,,,
41.65625,5,-52.52796936,,,
41.671875,5,-55.51887894,,,
41.6875,5,-57.14075851,,,
41.703125,5,-57.23429871,,,
41.71875,5,-56.26126099,,,
41.734375,5,-55.09241867,,,
41.75,5,-54.65195084,,,
41.765625,5,-55.6230011,,,
41.78125,5,-58.29645157,,,
41.796875,5,-62.4800911,,,
41.8125,5,-67.4436264,,,
41.828125,5,-72.00908661,,,
41.84375,5,-74.68962097,,,
41.859375,5,-74.02710724,,,
41.875,5,-69.0266571,,,
41.890625,5,-59.45201111,,,
41.90625,5,-45.94511032,,,
41.921875,5,-29.84244919,,,
41.9375,5,-12.78649998,,,
41.953125,5,3.691665888,,,
41.96875,5,18.43103027,,,
41.984375,5,30.71859932,,,
42,5,40.23146057,,,
42.015625,5,46.9264183,,,
42.03125,5,50.99834824,,,
42.046875,5,52.83312988,,,
42.0625,5,53.02719116,,,
42.078125,5,52.32781982,,,
42.09375,5,51.54272079,,,
42.109375,5,51.32778931,,,
42.125,5,52.04909897,,,
42.140625,5,53.64678955,,,
42.15625,5,55.70026016,,,
42.171875,5,57.63473892,,,
42.1875,5,59.00769043,,,
42.203125,5,59.68429947,,,
42.21875,5,59.8577919,,,
42.234375,5,59.85654068,,,
42.25,5,59.85519028,,,
42.265625,5,59.73843002,,,
42.28125,5,59.11663818,,,
42.296875,5,57.54964828,,,
42.3125,5,54.84576035,,,
42.328125,5,51.11066055,,,
42.34375,5,46.68637085,,,
42.359375,5,41.91635132,,,
42.375,5,37.00748062,,,
42.390625,5,32.00643921,,,
42.40625,5,26.87014961,,,
42.421875,5,21.61931992,,,
42.4375,5,16.28244019,,,
42.453125,5,10.89214993,,,
42.46875,5,5.317993164,,,
42.484375,5,-0.741333008,,,
42.5,5,-7.593383789,,,
42.515625,5,-15.42177963,,,
42.53125,5,-24.14944077,,,
42.546875,5,-33.49227905,,,
42.5625,5,-43.10308838,,,
42.578125,5,-52.76047134,,,
42.59375,5,-62.35668945,,,
42.609375,5,-71.8465271,,,
42.625,5,-80.97976685,,,
42.640625,5,-89.11312866,,,
42.65625,5,-95.24611664,,,
42.671875,5,-98.23681641,,,
42.6875,5,-97.17474365,,,
42.703125,5,-91.78710938,,,
42.71875,5,-82.58001709,,,
42.734375,5,-70.72387695,,,
42.75,5,-57.7182312,,,
42.765625,5,-44.942379,,,
42.78125,5,-33.27294922,,,
42.796875,5,-22.98257065,,,
42.8125,5,-13.8242197,,,
42.828125,5,-5.23516798,,,
42.84375,5,3.346863031,,,
42.859375,5,12.26529026,,,
42.875,5,21.52648926,,,
42.890625,5,30.81093979,,,
42.90625,5,39.58425903,,,
42.921875,5,47.34875107,,,
42.9375,5,53.84572983,,,
42.953125,5,59.21551895,,,
42.96875,5,63.95412827,,,
42.984375,5,68.60598755,,,
43,5,73.47412109,,,
43.015625,5,78.31994629,,,
43.03125,5,82.42822266,,,
43.046875,5,84.89309692,,,
43.0625,5,85.12084961,,,
43.078125,5,83.1100235,,,
43.09375,5,79.44360352,,,
43.109375,5,74.83217621,,,
43.125,5,69.62854004,,,
43.140625,5,63.6378212,,,
43.15625,5,56.3560791,,,
43.171875,5,47.54428101,,,
43.1875,5,37.70928955,,,
43.203125,5,28.13718033,,,
43.21875,5,20.36660957,,,
43.234375,5,15.44943047,,,
43.25,5,13.24658012,,,
43.265625,5,12.39142036,,,
43.28125,5,10.83300972,,,
43.296875,5,6.815369129,,,
43.3125,5,-0.386413604,,,
43.328125,5,-10.07293987,,,
43.34375,5,-20.44838905,,,
43.359375,5,-29.26766968,,,
43.375,5,-34.52468872,,,
43.390625,5,-34.94363022,,,
43.40625,5,-30.12997055,,,
43.421875,5,-20.58922958,,,
43.4375,5,-7.476990223,,,
43.453125,5,7.50054884,,,
43.46875,5,22.35577011,,,
43.484375,5,35.04547119,,,
43.5,5,43.86651993,,,
43.515625,5,47.81896973,,,
43.53125,5,46.84241104,,,
43.546875,5,41.62305069,,,
43.5625,5,33.15496826,,,
43.578125,5,22.25017929,,,
43.59375,5,9.339050293,,,
43.609375,5,-5.453734875,,,
43.625,5,-21.93236923,,,
43.640625,5,-39.51745987,,,
43.65625,5,-57.03673935,,,
43.671875,5,-72.79943848,,,
43.6875,5,-84.76555634,,,
43.703125,5,-90.88585663,,,
43.71875,5,-89.62561035,,,
43.734375,5,-80.50115967,,,
43.75,5,-64.5268631,,,
43.765625,5,-44.1812706,,,
43.78125,5,-22.96978951,,,
43.796875,5,-4.224486828,,,
43.8125,5,9.783081055,,,
43.828125,5,18.5475502,,,
43.84375,5,23.04583931,,,
43.859375,5,24.87200928,,,
43.875,5,25.1926899,,,
43.890625,5,24.20208931,,,
43.90625,5,21.45006943,,,
43.921875,5,16.4874897,,,
43.9375,5,9.465209961,,,
43.953125,5,1.088806033,,,
43.96875,5,-7.888123035,,,
43.984375,5,-17.25536919,,,
44,5,-27.42694092,,,
44.015625,5,-39.0335083,,,
44.03125,5,-52.17156982,,,
44.046875,5,-65.90656281,,,
44.0625,5,-78.41680908,,,
44.078125,5,-87.73760986,,,
44.09375,5,-92.50994873,,,
44.109375,5,-92.61962891,,,
44.125,5,-89.11829376,,,
44.140625,5,-83.7265625,,,
44.15625,5,-78.04608154,,,
44.171875,5,-73.04083252,,,
44.1875,5,-68.72968292,,,
44.203125,5,-64.34539795,,,
44.21875,5,-58.63970947,,,
44.234375,5,-50.35192871,,,
44.25,5,-38.60784912,,,
44.265625,5,-23.22186089,,,
44.28125,5,-4.911437988,,,
44.296875,5,15.07915974,,,
44.3125,5,35.29663086,,,
44.328125,5,54.61566162,,,
44.34375,5,72.34631348,,,
44.359375,5,88.09899902,,,
44.375,5,101.4465027,,,
44.390625,5,111.6774979,,,
44.40625,5,117.8919983,,,
44.421875,5,119.4084015,,,
44.4375,5,116.1207962,,,
44.453125,5,108.6613007,,,
44.46875,5,98.17462158,,,
44.484375,5,85.69342041,,,
44.5,5,71.67534637,,,
44.515625,5,55.89233017,,,
44.53125,5,37.82709122,,,
44.546875,5,17.35552979,,,
44.5625,5,-4.636962891,,,
44.578125,5,-26.22979927,,,
44.59375,5,-44.93201065,,,
44.609375,5,-58.526371,,,
44.625,5,-65.825737,,,
44.640625,5,-67.09533691,,,
44.65625,5,-63.79401016,,,
44.671875,5,-57.94964981,,,
44.6875,5,-51.40179062,,,
44.703125,5,-45.26763916,,,
44.71875,5,-39.90655899,,,
44.734375,5,-35.2716713,,,
44.75,5,-31.3862896,,,
44.765625,5,-28.59441948,,,
44.78125,5,-27.47802925,,,
44.796875,5,-28.41760063,,,
44.8125,5,-31.26758003,,,
44.828125,5,-35.28704834,,,
44.84375,5,-39.47399902,,,
44.859375,5,-43.07196045,,,
44.875,5,-46.01636124,,,
44.890625,5,-48.94506836,,,
44.90625,5,-52.84777832,,,
44.921875,5,-58.47594833,,,
44.9375,5,-65.91010284,,,
44.953125,5,-74.41710663,,,
44.96875,5,-82.6906662,,,
44.984375,5,-89.15039063,,,
45,5,-92.29210663,,,
45.015625,5,-90.89440918,,,
45.03125,5,-84.22662354,,,
45.046875,5,-72.16887665,,,
45.0625,5,-55.38830948,,,
45.078125,5,-35.2913208,,,
45.09375,5,-13.87322998,,,
45.109375,5,6.656616211,,,
45.125,5,24.36017036,,,
45.140625,5,37.95428085,,,
45.15625,5,47.00513077,,,
45.171875,5,51.86486816,,,
45.1875,5,53.44086075,,,
45.203125,5,52.79265976,,,
45.21875,5,50.93420029,,,
45.234375,5,48.63592911,,,
45.25,5,46.41193008,,,
45.265625,5,44.61285019,,,
45.28125,5,43.44775009,,,
45.296875,5,42.97552109,,,
45.3125,5,43.04101944,,,
45.328125,5,43.27325058,,,
45.34375,5,43.07104111,,,
45.359375,5,41.84009171,,,
45.375,5,39.20087051,,,
45.390625,5,35.18854141,,,
45.40625,5,30.25268936,,,
45.421875,5,25.09337997,,,
45.4375,5,20.32953072,,,
45.453125,5,16.26775932,,,
45.46875,5,12.8269701,,,
45.484375,5,9.612426758,,,
45.5,5,6.126586914,,,
45.515625,5,2.030700922,,,
45.53125,5,-2.79620409,,,
45.546875,5,-8.228270531,,,
45.5625,5,-14.01245022,,,
45.578125,5,-19.89666939,,,
45.59375,5,-25.66278076,,,
45.609375,5,-31.10217094,,,
45.625,5,-36.05187988,,,
45.640625,5,-40.44652939,,,
45.65625,5,-44.37902832,,,
45.671875,5,-48.12578964,,,
45.6875,5,-52.05884171,,,
45.703125,5,-56.39722061,,,
45.71875,5,-60.84215927,,,
45.734375,5,-64.42913818,,,
45.75,5,-65.60626221,,,
45.765625,5,-62.71686172,,,
45.78125,5,-54.64818954,,,
45.796875,5,-41.44219971,,,
45.8125,5,-24.46776962,,,
45.828125,5,-6.088745117,,,
45.84375,5,11.00512981,,,
45.859375,5,24.63537979,,,
45.875,5,33.65710068,,,
45.890625,5,38.03789902,,,
45.90625,5,38.52770996,,,
45.921875,5,36.16675186,,,
45.9375,5,31.87035942,,,
45.953125,5,26.32415962,,,
45.96875,5,20.1198101,,,
45.984375,5,13.94147015,,,
46,5,8.571899414,,,
46.015625,5,4.731322765,,,
46.03125,5,2.856750011,,,
46.046875,5,2.916991949,,,
46.0625,5,4.394104004,,,
46.078125,5,6.524047852,,,
46.09375,5,8.517700195,,,
46.109375,5,9.858398438,,,
46.125,5,10.32019043,,,
46.140625,5,9.922728539,,,
46.15625,5,8.750793457,,,
46.171875,5,6.858214855,,,
46.1875,5,4.337830067,,,
46.203125,5,1.303833008,,,
46.21875,5,-1.925598025,,,
46.234375,5,-5.011962891,,,
46.25,5,-7.67565918,,,
46.265625,5,-9.898071289,,,
46.28125,5,-11.84381008,,,
46.296875,5,-13.84375,,,
46.3125,5,-16.18036079,,,
46.328125,5,-18.96515083,,,
46.34375,5,-22.17798042,,,
46.359375,5,-25.71051025,,,
46.375,5,-29.44861031,,,
46.390625,5,-33.29986954,,,
46.40625,5,-37.16138077,,,
46.421875,5,-40.87145996,,,
46.4375,5,-44.27692032,,,
46.453125,5,-47.31689072,,,
46.46875,5,-50.03638077,,,
46.484375,5,-52.60754013,,,
46.5,5,-55.17382813,,,
46.515625,5,-57.66809082,,,
46.53125,5,-59.6862793,,,
46.546875,5,-60.42303085,,,
46.5625,5,-58.88787842,,,
46.578125,5,-54.15954971,,,
46.59375,5,-45.81409073,,,
46.609375,5,-34.13677979,,,
46.625,5,-20.21100044,,,
46.640625,5,-5.632141113,,,
46.65625,5,7.984008789,,,
46.671875,5,19.47052002,,,
46.6875,5,28.47229004,,,
46.703125,5,35.39313126,,,
46.71875,5,41.08782959,,,
46.734375,5,46.32836914,,,
46.75,5,51.52222061,,,
46.765625,5,56.45946884,,,
46.78125,5,60.59235001,,,
46.796875,5,63.24401855,,,
46.8125,5,63.93878174,,,
46.828125,5,62.63922119,,,
46.84375,5,59.78973007,,,
46.859375,5,56.19580078,,,
46.875,5,52.68164063,,,
46.890625,5,49.8409996,,,
46.90625,5,47.72045898,,,
46.921875,5,45.90740967,,,
46.9375,5,43.6975708,,,
46.953125,5,40.38286972,,,
46.96875,5,35.60821915,,,
46.984375,5,29.46184921,,,
47,5,22.44512939,,,
47.015625,5,15.25049019,,,
47.03125,5,8.617188454,,,
47.046875,5,3.230652094,,,
47.0625,5,-0.387268096,,,
47.078125,5,-1.904052973,,,
47.09375,5,-1.336303949,,,
47.109375,5,0.87121582,,,
47.125,5,3.773010016,,,
47.140625,5,6.143859863,,,
47.15625,5,6.79797411,,,
47.171875,5,5.098937988,,,
47.1875,5,1.283447027,,,
47.203125,5,-3.562011957,,,
47.21875,5,-7.931884766,,,
47.234375,5,-10.5756197,,,
47.25,5,-11.04613972,,,
47.265625,5,-9.991821289,,,
47.28125,5,-8.743895531,,,
47.296875,5,-8.795837402,,,
47.3125,5,-11.09344006,,,
47.328125,5,-15.72136974,,,
47.34375,5,-21.85535049,,,
47.359375,5,-28.10741997,,,
47.375,5,-32.97290039,,,
47.390625,5,-35.15979004,,,
47.40625,5,-33.95647812,,,
47.421875,5,-29.28693008,,,
47.4375,5,-21.7849102,,,
47.453125,5,-12.67290974,,,
47.46875,5,-3.520874023,,,
47.484375,5,4.163756847,,,
47.5,5,9.338012695,,,
47.515625,5,11.64838028,,,
47.53125,5,11.48297024,,,
47.546875,5,9.741699219,,,
47.5625,5,7.415648937,,,
47.578125,5,5.235717773,,,
47.59375,5,3.407776117,,,
47.609375,5,1.673218012,,,
47.625,5,-0.433166504,,,
47.640625,5,-3.227782965,,,
47.65625,5,-6.64117384,,,
47.671875,5,-10.15270996,,,
47.6875,5,-12.94719982,,,
47.703125,5,-14.24639988,,,
47.71875,5,-13.56634998,,,
47.734375,5,-10.82769966,,,
47.75,5,-6.338195801,,,
47.765625,5,-0.721923828,,,
47.78125,5,5.134459972,,,
47.796875,5,10.13683987,,,
47.8125,5,13.11516953,,,
47.828125,5,13.09424019,,,
47.84375,5,9.625,,,
47.859375,5,3.140014887,,,
47.875,5,-5.018555164,,,
47.890625,5,-12.87469006,,,
47.90625,5,-18.4524498,,,
47.921875,5,-20.48278999,,,
47.9375,5,-18.89697075,,,
47.953125,5,-14.82763958,,,
47.96875,5,-10.1679697,,,
47.984375,5,-6.863402844,,,
48,6,-6.215880871,,,
48.015625,6,-8.585693359,,,
48.03125,6,-13.53063965,,,
48.046875,6,-20.08423042,,,
48.0625,6,-27.23406982,,,
48.078125,6,-34.09630966,,,
48.09375,6,-40.00146103,,,
48.109375,6,-44.4849205,,,
48.125,6,-47.40441895,,,
48.140625,6,-48.94556046,,,
48.15625,6,-49.67882919,,,
48.171875,6,-50.25292969,,,
48.1875,6,-50.91418076,,,
48.203125,6,-51.18255997,,,
48.21875,6,-49.84484863,,,
48.234375,6,-45.45788956,,,
48.25,6,-37.01708984,,,
48.265625,6,-24.59979057,,,
48.28125,6,-9.362304688,,,
48.296875,6,6.784058094,,,
48.3125,6,21.93664932,,,
48.328125,6,34.78789902,,,
48.34375,6,44.83966064,,,
48.359375,6,52.27959824,,,
48.375,6,57.60303116,,,
48.390625,6,61.27191162,,,
48.40625,6,63.50415039,,,
48.421875,6,64.35321045,,,
48.4375,6,63.79840088,,,
48.453125,6,61.91564941,,,
48.46875,6,59.01599121,,,
48.484375,6,55.47369003,,,
48.5,6,51.69890976,,,
48.515625,6,47.97974014,,,
48.53125,6,44.34917831,,,
48.546875,6,40.71081924,,,
48.5625,6,36.95660019,,,
48.578125,6,33.20349121,,,
48.59375,6,29.74309921,,,
48.609375,6,27.03179932,,,
48.625,6,25.27453995,,,
48.640625,6,24.32445908,,,
48.65625,6,23.62585068,,,
48.671875,6,22.49102974,,,
48.6875,6,20.39550972,,,
48.703125,6,17.22339058,,,
48.71875,6,13.23314953,,,
48.734375,6,8.819091797,,,
48.75,6,4.316223145,,,
48.765625,6,-0.219604507,,,
48.78125,6,-4.882812977,,,
48.796875,6,-9.80255127,,,
48.8125,6,-14.90985012,,,
48.828125,6,-19.89203072,,,
48.84375,6,-24.34814072,,,
48.859375,6,-27.96606064,,,
48.875,6,-30.75037003,,,
48.890625,6,-32.95679092,,,
48.90625,6,-34.97943115,,,
48.921875,6,-37.0800209,,,
48.9375,6,-39.28771973,,,
48.953125,6,-41.41796875,,,
48.96875,6,-43.25402832,,,
48.984375,6,-44.72851944,,,
49,6,-45.88647079,,,
49.015625,6,-46.7091713,,,
49.03125,6,-46.8062706,,,
49.046875,6,-45.34838867,,,
49.0625,6,-41.31579971,,,
49.078125,6,-33.94213867,,,
49.09375,6,-23.25348091,,,
49.109375,6,-10.21990967,,,
49.125,6,3.427428961,,,
49.140625,6,15.84490967,,,
49.15625,6,25.64794922,,,
49.171875,6,32.30878067,,,
49.1875,6,36.0965004,,,
49.203125,6,37.73730087,,,
49.21875,6,37.9675293,,,
49.234375,6,37.29565048,,,
49.25,6,35.93378067,,,
49.265625,6,33.95629883,,,
49.28125,6,31.50835991,,,
49.296875,6,28.88695908,,,
49.3125,6,26.52161026,,,
49.328125,6,24.79644966,,,
49.34375,6,23.98082924,,,
49.359375,6,24.1310997,,,
49.375,6,25.07580948,,,
49.390625,6,26.50531006,,,
49.40625,6,27.98364067,,,
49.421875,6,29.09166908,,,
49.4375,6,29.43964005,,,
49.453125,6,28.77532959,,,
49.46875,6,27.00946045,,,
49.484375,6,24.25818062,,,
49.5,6,20.79462051,,,
49.515625,6,16.94580078,,,
49.53125,6,13.04174995,,,
49.546875,6,9.286437988,,,
49.5625,6,5.743164063,,,
49.578125,6,2.299743891,,,
49.59375,6,-1.221068978,,,
49.609375,6,-5.009705067,,,
49.625,6,-9.139282227,,,
49.640625,6,-13.51086044,,,
49.65625,6,-17.90246964,,,
49.671875,6,-21.99547958,,,
49.6875,6,-25.55718994,,,
49.703125,6,-28.49828911,,,
49.71875,6,-30.91527939,,,
49.734375,6,-33.03503037,,,
49.75,6,-35.16033936,,,
49.765625,6,-37.53662109,,,
49.78125,6,-40.28467178,,,
49.796875,6,-43.2878418,,,
49.8125,6,-46.02655029,,,
49.828125,6,-47.68201065,,,
49.84375,6,-47.26391983,,,
49.859375,6,-43.97003174,,,
49.875,6,-37.53087997,,,
49.890625,6,-28.43236923,,,
49.90625,6,-17.80405045,,,
49.921875,6,-7.076477051,,,
49.9375,6,2.493865967,,,
49.953125,6,10.1420002,,,
49.96875,6,15.70847034,,,
49.984375,6,19.44652939,,,
50,6,21.80875015,,,
50.015625,6,23.18243027,,,
50.03125,6,23.81460953,,,
50.046875,6,23.79265976,,,
50.0625,6,23.1956501,,,
50.078125,6,22.06595039,,,
50.09375,6,20.48434067,,,
50.109375,6,18.57196045,,,
50.125,6,16.43746948,,,
50.140625,6,14.20516968,,,
50.15625,6,12.02254963,,,
50.171875,6,10.09105968,,,
50.1875,6,8.625732422,,,
50.203125,6,7.899750233,,,
50.21875,6,8.095306397,,,
50.234375,6,9.2237854,,,
50.25,6,11.01638985,,,
50.265625,6,12.95821953,,,
50.28125,6,14.38799953,,,
50.296875,6,14.71963978,,,
50.3125,6,13.65567017,,,
50.328125,6,11.30142021,,,
50.34375,6,8.100585938,,,
50.359375,6,4.596221924,,,
50.375,6,1.220306039,,,
50.390625,6,-1.895691037,,,
50.40625,6,-4.863677979,,,
50.421875,6,-7.93539381,,,
50.4375,6,-11.29059029,,,
50.453125,6,-14.96930027,,,
50.46875,6,-18.84970093,,,
50.484375,6,-22.76855087,,,
50.5,6,-26.57268906,,,
50.515625,6,-30.18117905,,,
50.53125,6,-33.54880142,,,
50.546875,6,-36.68535995,,,
50.5625,6,-39.65380859,,,
50.578125,6,-42.58724976,,,
50.59375,6,-45.62805176,,,
50.609375,6,-48.71875,,,
50.625,6,-51.43854141,,,
50.640625,6,-52.90518188,,,
50.65625,6,-52.00183105,,,
50.671875,6,-47.75054932,,,
50.6875,6,-39.78421021,,,
50.703125,6,-28.58959961,,,
50.71875,6,-15.43282986,,,
50.734375,6,-1.923125982,,,
50.75,6,10.40017986,,,
50.765625,6,20.53516006,,,
50.78125,6,28.11096001,,,
50.796875,6,33.30636978,,,
50.8125,6,36.62078857,,,
50.828125,6,38.57217026,,,
50.84375,6,39.53342056,,,
50.859375,6,39.69104004,,,
50.875,6,39.1456604,,,
50.890625,6,37.9925499,,,
50.90625,6,36.47031021,,,
50.921875,6,34.93164063,,,
50.9375,6,33.7359314,,,
50.953125,6,33.11709976,,,
50.96875,6,33.07427979,,,
50.984375,6,33.37289047,,,
51,6,33.69564819,,,
51.015625,6,33.78686905,,,
51.03125,6,33.55649185,,,
51.046875,6,33.09685898,,,
51.0625,6,32.55575943,,,
51.078125,6,32.004879,,,
51.09375,6,31.3705101,,,
51.109375,6,30.4633503,,,
51.125,6,29.0268898,,,
51.140625,6,26.81406021,,,
51.15625,6,23.71810913,,,
51.171875,6,19.7600708,,,
51.1875,6,15.14873981,,,
51.203125,6,10.23906994,,,
51.21875,6,5.352570057,,,
51.234375,6,0.777801514,,,
51.25,6,-3.437835932,,,
51.265625,6,-7.381652832,,,
51.28125,6,-11.27169991,,,
51.296875,6,-15.29174995,,,
51.3125,6,-19.55468941,,,
51.328125,6,-23.98476982,,,
51.34375,6,-28.4052105,,,
51.359375,6,-32.56607056,,,
51.375,6,-36.20743179,,,
51.390625,6,-39.17218018,,,
51.40625,6,-41.43198013,,,
51.421875,6,-43.08420181,,,
51.4375,6,-44.33330917,,,
51.453125,6,-45.51089096,,,
51.46875,6,-46.98723984,,,
51.484375,6,-49.07410049,,,
51.5,6,-51.83034897,,,
51.515625,6,-54.88898087,,,
51.53125,6,-57.32104111,,,
51.546875,6,-57.79561996,,,
51.5625,6,-54.9382019,,,
51.578125,6,-47.83005142,,,
51.59375,6,-36.51086044,,,
51.609375,6,-22.0699501,,,
51.625,6,-6.320861816,,,
51.640625,6,8.780456543,,,
51.65625,6,21.77807999,,,
51.671875,6,32.02843857,,,
51.6875,6,39.60097885,,,
51.703125,6,44.95798111,,,
51.71875,6,48.46496964,,,
51.734375,6,50.31253052,,,
51.75,6,50.52869034,,,
51.765625,6,49.28673935,,,
51.78125,6,46.96813965,,,
51.796875,6,44.21786118,,,
51.8125,6,41.6487999,,,
51.828125,6,39.70682144,,,
51.84375,6,38.47240829,,,
51.859375,6,37.69702148,,,
51.875,6,36.97521973,,,
51.890625,6,35.96844101,,,
51.90625,6,34.5612793,,,
51.921875,6,32.89859009,,,
51.9375,6,31.34524918,,,
51.953125,6,30.16785049,,,
51.96875,6,29.44144058,,,
51.984375,6,28.89385986,,,
52,6,28.02609062,,,
52.015625,6,26.31386948,,,
52.03125,6,23.47314072,,,
52.046875,6,19.63946915,,,
52.0625,6,15.21947956,,,
52.078125,6,10.74139023,,,
52.09375,6,6.541779041,,,
52.109375,6,2.646393061,,,
52.125,6,-1.176208019,,,
52.140625,6,-5.294312,,,
52.15625,6,-9.979919434,,,
52.171875,6,-15.29337025,,,
52.1875,6,-21.09583092,,,
52.203125,6,-27.1137104,,,
52.21875,6,-32.98474121,,,
52.234375,6,-38.35248184,,,
52.25,6,-42.90457153,,,
52.265625,6,-46.41228867,,,
52.28125,6,-48.87582016,,,
52.296875,6,-50.52914047,,,
52.3125,6,-51.88837051,,,
52.328125,6,-53.5906105,,,
52.34375,6,-56.15346909,,,
52.359375,6,-59.64508057,,,
52.375,6,-63.44913101,,,
52.390625,6,-66.30225372,,,
52.40625,6,-66.62145996,,,
52.421875,6,-63.06240845,,,
52.4375,6,-55.0189209,,,
52.453125,6,-42.94366074,,,
52.46875,6,-28.20441055,,,
52.484375,6,-12.65322971,,,
52.5,6,2.003479004,,,
52.515625,6,14.64249039,,,
52.53125,6,24.85784912,,,
52.546875,6,32.79507065,,,
52.5625,6,38.76147079,,,
52.578125,6,42.95523071,,,
52.59375,6,45.3824501,,,
52.609375,6,46.00188828,,,
52.625,6,44.96274185,,,
52.640625,6,42.74689865,,,
52.65625,6,40.08774185,,,
52.671875,6,37.73768997,,,
52.6875,6,36.20180893,,,
52.703125,6,35.53656006,,,
52.71875,6,35.47861099,,,
52.734375,6,35.59857178,,,
52.75,6,35.62528992,,,
52.765625,6,35.54772949,,,
52.78125,6,35.4926796,,,
52.796875,6,35.64635086,,,
52.8125,6,35.97195053,,,
52.828125,6,36.2817688,,,
52.84375,6,36.26197815,,,
52.859375,6,35.60972977,,,
52.875,6,34.11254883,,,
52.890625,6,31.72484016,,,
52.90625,6,28.54735947,,,
52.921875,6,24.78200912,,,
52.9375,6,20.75066948,,,
52.953125,6,16.73411942,,,
52.96875,6,12.94822979,,,
52.984375,6,9.404876709,,,
53,6,5.940430164,,,
53.015625,6,2.26663208,,,
53.03125,6,-1.86114502,,,
53.046875,6,-6.464569092,,,
53.0625,6,-11.32126045,,,
53.078125,6,-16.01758957,,,
53.09375,6,-20.13788986,,,
53.109375,6,-23.41205978,,,
53.125,6,-25.82578087,,,
53.140625,6,-27.60568047,,,
53.15625,6,-29.08448982,,,
53.171875,6,-30.66113091,,,
53.1875,6,-32.6749382,,,
53.203125,6,-35.4294014,,,
53.21875,6,-38.98999023,,,
53.234375,6,-43.01509094,,,
53.25,6,-46.59854126,,,
53.265625,6,-48.28403854,,,
53.28125,6,-46.50954056,,,
53.296875,6,-40.17903137,,,
53.3125,6,-29.32010078,,,
53.328125,6,-15.21278,,,
53.34375,6,-0.1025391,,,
53.359375,6,13.61797047,,,
53.375,6,24.20601082,,,
53.390625,6,31.09119987,,,
53.40625,6,34.76868057,,,
53.421875,6,36.24116898,,,
53.4375,6,36.41476059,,,
53.453125,6,35.71628189,,,
53.46875,6,34.12998962,,,
53.484375,6,31.53887939,,,
53.5,6,28.07051086,,,
53.515625,6,24.10123062,,,
53.53125,6,20.17658997,,,
53.546875,6,16.70107079,,,
53.5625,6,13.71640015,,,
53.578125,6,10.96516037,,,
53.59375,6,8.098907471,,,
53.609375,6,4.918715954,,,
53.625,6,1.630416989,,,
53.640625,6,-1.275192022,,,
53.65625,6,-3.222794056,,,
53.671875,6,-3.856415033,,,
53.6875,6,-3.197036982,,,
53.703125,6,-1.694777966,,,
53.71875,6,-0.031036381,,,
53.734375,6,1.094604015,,,
53.75,6,1.157333016,,,
53.765625,6,-0.030715941,,,
53.78125,6,-2.329071045,,,
53.796875,6,-5.315261841,,,
53.8125,6,-8.460769653,,,
53.828125,6,-11.24619961,,,
53.84375,6,-13.35247993,,,
53.859375,6,-14.66705036,,,
53.875,6,-15.39632034,,,
53.890625,6,-15.98795033,,,
53.90625,6,-17.04995918,,,
53.921875,6,-19.15546989,,,
53.9375,6,-22.64825058,,,
53.953125,6,-27.40619087,,,
53.96875,6,-32.88973999,,,
53.984375,6,-38.32025146,,,
54,6,-42.92634964,,,
54.015625,6,-46.35887146,,,
54.03125,6,-48.79396057,,,
54.046875,6,-50.88692856,,,
54.0625,6,-53.43936157,,,
54.078125,6,-57.12736893,,,
54.09375,6,-62.16115952,,,
54.109375,6,-68.24957275,,,
54.125,6,-74.55214691,,,
54.140625,6,-79.79537964,,,
54.15625,6,-82.48017883,,,
54.171875,6,-81.2339325,,,
54.1875,6,-75.14964294,,,
54.203125,6,-64.15853882,,,
54.21875,6,-49.15932083,,,
54.234375,6,-31.78804016,,,
54.25,6,-14.01418018,,,
54.265625,6,2.453444958,,,
54.28125,6,16.54425049,,,
54.296875,6,27.88054085,,,
54.3125,6,36.55920029,,,
54.328125,6,42.8493309,,,
54.34375,6,46.9444313,,,
54.359375,6,49.02685928,,,
54.375,6,49.33602905,,,
54.390625,6,48.37852097,,,
54.40625,6,46.76527023,,,
54.421875,6,45.15209961,,,
54.4375,6,43.8805809,,,
54.453125,6,43.01285934,,,
54.46875,6,42.37397003,,,
54.484375,6,41.75326157,,,
54.5,6,41.10446167,,,
54.515625,6,40.6174202,,,
54.53125,6,40.59532166,,,
54.546875,6,41.21744156,,,
54.5625,6,42.42427826,,,
54.578125,6,43.75959015,,,
54.59375,6,44.6661911,,,
54.609375,6,44.60245895,,,
54.625,6,43.28889084,,,
54.640625,6,40.77399063,,,
54.65625,6,37.32434082,,,
54.671875,6,33.28355026,,,
54.6875,6,28.8478508,,,
54.703125,6,24.00815964,,,
54.71875,6,18.53198051,,,
54.734375,6,12.15406036,,,
54.75,6,4.757796764,,,
54.765625,6,-3.490925074,,,
54.78125,6,-12.09521961,,,
54.796875,6,-20.39797974,,,
54.8125,6,-27.77029037,,,
54.828125,6,-33.80422974,,,
54.84375,6,-38.49311066,,,
54.859375,6,-42.21453094,,,
54.875,6,-45.6151619,,,
54.890625,6,-49.38217926,,,
54.90625,6,-54.10142899,,,
54.921875,6,-59.9783783,,,
54.9375,6,-66.77990723,,,
54.953125,6,-73.69461823,,,
54.96875,6,-79.39337158,,,
54.984375,6,-82.26846313,,,
55,6,-80.91660309,,,
55.015625,6,-74.52842712,,,
55.03125,6,-63.25265884,,,
55.046875,6,-48.18016052,,,
55.0625,6,-30.94836998,,,
55.078125,6,-13.26562977,,,
55.09375,6,3.626964092,,,
55.109375,6,19.05031013,,,
55.125,6,32.75447083,,,
55.140625,6,44.46994019,,,
55.15625,6,53.67139053,,,
55.171875,6,59.49333954,,,
55.1875,6,61.06917191,,,
55.203125,6,57.93653107,,,
55.21875,6,50.46311951,,,
55.234375,6,39.99909973,,,
55.25,6,28.69556999,,,
55.265625,6,19.03268051,,,
55.28125,6,13.11544037,,,
55.296875,6,12.06803989,,,
55.3125,6,15.67031956,,,
55.328125,6,22.62586021,,,
55.34375,6,31.20931053,,,
55.359375,6,40.10636902,,,
55.375,6,48.94271088,,,
55.390625,6,58.28752899,,,
55.40625,6,69.07639313,,,
55.421875,6,81.735672,,,
55.4375,6,95.51817322,,,
55.453125,6,108.4569016,,,
55.46875,6,117.9425964,,,
55.484375,6,121.7343979,,,
55.5,6,118.7601013,,,
55.515625,6,109.4732971,,,
55.53125,6,95.58126068,,,
55.546875,6,79.36334991,,,
55.5625,6,62.85832977,,,
55.578125,6,47.30385971,,,
55.59375,6,32.98175049,,,
55.609375,6,19.46585083,,,
55.625,6,6.168961048,,,
55.640625,6,-7.246646881,,,
55.65625,6,-20.55323982,,,
55.671875,6,-33.16136169,,,
55.6875,6,-44.47518158,,,
55.703125,6,-54.34011078,,,
55.71875,6,-63.15908813,,,
55.734375,6,-71.68216705,,,
55.75,6,-80.49907684,,,
55.765625,6,-89.67221069,,,
55.78125,6,-98.7559433,,,
55.796875,6,-107.0549011,,,
55.8125,6,-114.0991974,,,
55.828125,6,-119.7232971,,,
55.84375,6,-123.8884964,,,
55.859375,6,-126.1331024,,,
55.875,6,-125.3649979,,,
55.890625,6,-120.0535965,,,
55.90625,6,-109.0251007,,,
55.921875,6,-92.29348755,,,
55.9375,6,-71.45088196,,,
55.953125,6,-49.26749039,,,
55.96875,6,-28.64030075,,,
55.984375,6,-11.57419014,,,
56,7,1.395866036,,,
56.015625,7,10.90596962,,,
56.03125,7,18.05833054,,,
56.046875,7,23.66032982,,,
56.0625,7,27.95529938,,,
56.078125,7,30.84634018,,,
56.09375,7,32.30850983,,,
56.109375,7,32.67351913,,,
56.125,7,32.50997925,,,
56.140625,7,32.25862122,,,
56.15625,7,31.94131088,,,
56.171875,7,31.26773071,,,
56.1875,7,29.96511078,,,
56.203125,7,28.14014053,,,
56.21875,7,26.35223961,,,
56.234375,7,25.24554062,,,
56.25,7,25.16959953,,,
56.265625,7,25.88723946,,,
56.28125,7,26.69586945,,,
56.296875,7,26.79527092,,,
56.3125,7,25.6926403,,,
56.328125,7,23.34004974,,,
56.34375,7,20.03741074,,,
56.359375,7,16.12302971,,,
56.375,7,11.78853989,,,
56.390625,7,7.136505127,,,
56.40625,7,2.322814941,,,
56.421875,7,-2.27394104,,,
56.4375,7,-6.147980213,,,
56.453125,7,-8.926177979,,,
56.46875,7,-10.67698956,,,
56.484375,7,-11.97189045,,,
56.5,7,-13.69285965,,,
56.515625,7,-16.67531967,,,
56.53125,7,-21.32765007,,,
56.546875,7,-27.5696907,,,
56.5625,7,-34.98836899,,,
56.578125,7,-43.07323074,,,
56.59375,7,-51.45729065,,,
56.609375,7,-59.86420059,,,
56.625,7,-67.95004272,,,
56.640625,7,-75.20144653,,,
56.65625,7,-81.0717926,,,
56.671875,7,-85.24677277,,,
56.6875,7,-87.98265076,,,
56.703125,7,-90.18427277,,,
56.71875,7,-93.07051086,,,
56.734375,7,-97.5332489,,,
56.75,7,-103.5332031,,,
56.765625,7,-109.8606033,,,
56.78125,7,-114.4481964,,,
56.796875,7,-115.1147003,,,
56.8125,7,-110.4101028,,,
56.828125,7,-100.1211014,,,
56.84375,7,-85.21367645,,,
56.859375,7,-67.43496704,,,
56.875,7,-48.61639023,,,
56.890625,7,-30.18387032,,,
56.90625,7,-13.00720024,,,
56.921875,7,2.538177013,,,
56.9375,7,16.3882103,,,
56.953125,7,28.50061035,,,
56.96875,7,38.81951904,,,
56.984375,7,47.33507919,,,
57,7,54.11560059,,,
57.015625,7,59.39165878,,,
57.03125,7,63.47225952,,,
57.046875,7,66.68579102,,,
57.0625,7,69.25396729,,,
57.078125,7,71.27301025,,,
57.09375,7,72.69016266,,,
57.109375,7,73.41599274,,,
57.125,7,73.46337891,,,
57.140625,7,73.01531982,,,
57.15625,7,72.43798828,,,
57.171875,7,72.14224243,,,
57.1875,7,72.41268921,,,
57.203125,7,73.23873901,,,
57.21875,7,74.23703003,,,
57.234375,7,74.7605896,,,
57.25,7,74.10037231,,,
57.265625,7,71.73679352,,,
57.28125,7,67.53527832,,,
57.296875,7,61.7975502,,,
57.3125,7,55.15935898,,,
57.328125,7,48.38946915,,,
57.34375,7,42.11046982,,,
57.359375,7,36.5911293,,,
57.375,7,31.66473007,,,
57.390625,7,26.87450981,,,
57.40625,7,21.72747993,,,
57.421875,7,15.93811035,,,
57.4375,7,9.515136719,,,
57.453125,7,2.761475086,,,
57.46875,7,-3.965698004,,,
57.484375,7,-10.35766983,,,
57.5,7,-16.3427105,,,
57.515625,7,-22.01868057,,,
57.53125,7,-27.59552002,,,
57.546875,7,-33.32062149,,,
57.5625,7,-39.4347496,,,
57.578125,7,-46.10406113,,,
57.59375,7,-53.20972061,,,
57.609375,7,-60.22954941,,,
57.625,7,-66.07739258,,,
57.640625,7,-69.32348633,,,
57.65625,7,-68.53521729,,,
57.671875,7,-62.84173965,,,
57.6875,7,-52.31842041,,,
57.703125,7,-38.02539063,,,
57.71875,7,-21.67754936,,,
57.734375,7,-5.04577589,,,
57.75,7,10.52501965,,,
57.765625,7,24.31695938,,,
57.78125,7,36.16547012,,,
57.796875,7,46.14812851,,,
57.8125,7,54.3253212,,,
57.828125,7,60.65032959,,,
57.84375,7,65.04412842,,,
57.859375,7,67.49176025,,,
57.875,7,68.20831299,,,
57.890625,7,67.54473877,,,
57.90625,7,65.98145294,,,
57.921875,7,64.00653076,,,
57.9375,7,62.01073837,,,
57.953125,7,60.26459122,,,
57.96875,7,58.87781143,,,
57.984375,7,57.88500977,,,
58,7,57.23883057,,,
58.015625,7,56.89014053,,,
58.03125,7,56.75439072,,,
58.046875,7,56.74103165,,,
58.0625,7,56.66046143,,,
58.078125,7,56.30279922,,,
58.09375,7,55.42663956,,,
58.109375,7,53.86243057,,,
58.125,7,51.58037949,,,
58.140625,7,48.63550186,,,
58.15625,7,45.1077919,,,
58.171875,7,41.0364418,,,
58.1875,7,36.4225502,,,
58.203125,7,31.27539063,,,
58.21875,7,25.74218941,,,
58.234375,7,20.07184029,,,
58.25,7,14.58520985,,,
58.265625,7,9.505737305,,,
58.28125,7,4.899047852,,,
58.296875,7,0.59954828,,,
58.3125,7,-3.667175055,,,
58.328125,7,-8.151672363,,,
58.34375,7,-12.99462986,,,
58.359375,7,-18.17473984,,,
58.375,7,-23.56176949,,,
58.390625,7,-29.02813911,,,
58.40625,7,-34.45251083,,,
58.421875,7,-39.71538925,,,
58.4375,7,-44.73297119,,,
58.453125,7,-49.4547081,,,
58.46875,7,-53.99420166,,,
58.484375,7,-58.65985107,,,
58.5,7,-63.84801865,,,
58.515625,7,-69.78283691,,,
58.53125,7,-76.17254639,,,
58.546875,7,-81.99323273,,,
58.5625,7,-85.68231201,,,
58.578125,7,-85.56658936,,,
58.59375,7,-80.50140381,,,
58.609375,7,-70.28411865,,,
58.625,7,-55.78448105,,,
58.640625,7,-38.5720787,,,
58.65625,7,-20.45965958,,,
58.671875,7,-3.011535883,,,
58.6875,7,12.71002007,,,
58.703125,7,26.15942001,,,
58.71875,7,37.14226913,,,
58.734375,7,45.69519043,,,
58.75,7,51.99499893,,,
58.765625,7,56.31549072,,,
58.78125,7,59.05865097,,,
58.796875,7,60.66315079,,,
58.8125,7,61.55498886,,,
58.828125,7,62.08929062,,,
58.84375,7,62.50635147,,,
58.859375,7,62.94812012,,,
58.875,7,63.47406006,,,
58.890625,7,64.08886719,,,
58.90625,7,64.74230957,,,
58.921875,7,65.41394043,,,
58.9375,7,66.08630371,,,
58.953125,7,66.76940918,,,
58.96875,7,67.49835205,,,
58.984375,7,68.25256348,,,
59,7,68.91472626,,,
59.015625,7,69.26519775,,,
59.03125,7,69.05859375,,,
59.046875,7,68.10894775,,,
59.0625,7,66.41162109,,,
59.078125,7,64.18347168,,,
59.09375,7,61.74670029,,,
59.109375,7,59.38940048,,,
59.125,7,57.19665909,,,
59.140625,7,54.98865128,,,
59.15625,7,52.41405869,,,
59.171875,7,49.14733887,,,
59.1875,7,45.02807999,,,
59.203125,7,40.08551025,,,
59.21875,7,34.46057129,,,
59.234375,7,28.23834038,,,
59.25,7,21.36034966,,,
59.265625,7,13.63953018,,,
59.28125,7,4.884888172,,,
59.296875,7,-4.947814941,,,
59.3125,7,-15.6510601,,,
59.328125,7,-26.78589058,,,
59.34375,7,-37.74884033,,,
59.359375,7,-47.94469833,,,
59.375,7,-56.90813828,,,
59.390625,7,-64.34313965,,,
59.40625,7,-70.19122314,,,
59.421875,7,-74.57232666,,,
59.4375,7,-77.68811035,,,
59.453125,7,-79.77924347,,,
59.46875,7,-81.06817627,,,
59.484375,7,-81.69934082,,,
59.5,7,-81.61541748,,,
59.515625,7,-80.43756104,,,
59.53125,7,-77.35693359,,,
59.546875,7,-71.35217285,,,
59.5625,7,-61.66553116,,,
59.578125,7,-48.27001953,,,
59.59375,7,-32.213871,,,
59.609375,7,-15.41973972,,,
59.625,7,-0.034790039,,,
59.640625,7,12.36450005,,,
59.65625,7,21.24987984,,,
59.671875,7,27.13616943,,,
59.6875,7,31.05591011,,,
59.703125,7,33.85522079,,,
59.71875,7,35.77545166,,,
59.734375,7,36.56964111,,,
59.75,7,35.83135986,,,
59.765625,7,33.43828964,,,
59.78125,7,29.67156982,,,
59.796875,7,25.06469917,,,
59.8125,7,20.16809082,,,
59.828125,7,15.35846043,,,
59.84375,7,10.91650009,,,
59.859375,7,7.04675293,,,
59.875,7,4.015441895,,,
59.890625,7,2.093261957,,,
59.90625,7,1.474730969,,,
59.921875,7,2.192931891,,,
59.9375,7,4.050109863,,,
59.953125,7,6.672362804,,,
59.96875,7,9.530883789,,,
59.984375,7,12.07293987,,,
60,7,13.82689953,,,
60.015625,7,14.55626965,,,
60.03125,7,14.2481699,,,
60.046875,7,13.16650009,,,
60.0625,7,11.63976955,,,
60.078125,7,9.966124535,,,
60.09375,7,8.276794434,,,
60.109375,7,6.53192091,,,
60.125,7,4.594116211,,,
60.140625,7,2.301392078,,,
60.15625,7,-0.451721191,,,
60.171875,7,-3.68206811,,,
60.1875,7,-7.341492176,,,
60.203125,7,-11.33057022,,,
60.21875,7,-15.5512104,,,
60.234375,7,-19.85638046,,,
60.25,7,-24.1614399,,,
60.265625,7,-28.3902607,,,
60.28125,7,-32.53186035,,,
60.296875,7,-36.5911293,,,
60.3125,7,-40.55382919,,,
60.328125,7,-44.38415909,,,
60.34375,7,-47.99182129,,,
60.359375,7,-51.38037109,,,
60.375,7,-54.60985947,,,
60.390625,7,-57.93059921,,,
60.40625,7,-61.62456894,,,
60.421875,7,-65.90936279,,,
60.4375,7,-70.6619873,,,
60.453125,7,-75.21942139,,,
60.46875,7,-78.41467285,,,
60.484375,7,-78.81989288,,,
60.5,7,-75.23937988,,,
60.515625,7,-67.12127686,,,
60.53125,7,-54.86182022,,,
60.546875,7,-39.64599991,,,
60.5625,7,-23.11223984,,,
60.578125,7,-6.842833996,,,
60.59375,7,7.969055176,,,
60.609375,7,20.69091988,,,
60.625,7,31.11597061,,,
60.640625,7,39.29180908,,,
60.65625,7,45.35968018,,,
60.671875,7,49.51514053,,,
60.6875,7,51.96892929,,,
60.703125,7,52.99779892,,,
60.71875,7,52.87958145,,,
60.734375,7,51.91077042,,,
60.75,7,50.37598038,,,
60.765625,7,48.58959961,,,
60.78125,7,46.85454941,,,
60.796875,7,45.44849014,,,
60.8125,7,44.54224014,,,
60.828125,7,44.16138077,,,
60.84375,7,44.19866943,,,
60.859375,7,44.44641113,,,
60.875,7,44.70251083,,,
60.890625,7,44.7640419,,,
60.90625,7,44.52672958,,,
60.921875,7,43.86516953,,,
60.9375,7,42.66875839,,,
60.953125,7,40.8297081,,,
60.96875,7,38.29248047,,,
60.984375,7,35.09246826,,,
61,7,31.40691948,,,
61.015625,7,27.50037003,,,
61.03125,7,23.6399498,,,
61.046875,7,19.99579048,,,
61.0625,7,16.52856064,,,
61.078125,7,13.03435993,,,
61.09375,7,9.24206543,,,
61.109375,7,4.992980957,,,
61.125,7,0.333007813,,,
61.140625,7,-4.470275879,,,
61.15625,7,-9.112243652,,,
61.171875,7,-13.38341999,,,
61.1875,7,-17.32061958,,,
61.203125,7,-21.16467094,,,
61.21875,7,-25.24840927,,,
61.234375,7,-29.75054932,,,
61.25,7,-34.63708115,,,
61.265625,7,-39.67657089,,,
61.28125,7,-44.55144882,,,
61.296875,7,-48.99731064,,,
61.3125,7,-52.88616943,,,
61.328125,7,-56.21014023,,,
61.34375,7,-59.09991074,,,
61.359375,7,-61.86114883,,,
61.375,7,-64.8840332,,,
61.390625,7,-68.64312744,,,
61.40625,7,-73.34564209,,,
61.421875,7,-78.70098877,,,
61.4375,7,-83.73400879,,,
61.453125,7,-86.93126678,,,
61.46875,7,-86.5982132,,,
61.484375,7,-81.52155304,,,
61.5,7,-71.42510986,,,
61.515625,7,-57.07629013,,,
61.53125,7,-40.08514023,,,
61.546875,7,-22.33539009,,,
61.5625,7,-5.5,,,
61.578125,7,9.275390625,,,
61.59375,7,21.46538925,,,
61.609375,7,31.01671982,,,
61.625,7,38.14910889,,,
61.640625,7,43.23223877,,,
61.65625,7,46.67803955,,,
61.671875,7,48.85602188,,,
61.6875,7,50.07738876,,,
61.703125,7,50.57477188,,,
61.71875,7,50.47925186,,,
61.734375,7,49.93682861,,,
61.75,7,49.10400009,,,
61.765625,7,48.16033936,,,
61.78125,7,47.27869034,,,
61.796875,7,46.59447861,,,
61.8125,7,46.15209961,,,
61.828125,7,45.9300499,,,
61.84375,7,45.84154892,,,
61.859375,7,45.79108047,,,
61.875,7,45.68688965,,,
61.890625,7,45.42816162,,,
61.90625,7,44.88183975,,,
61.921875,7,43.9199791,,,
61.9375,7,42.43341064,,,
61.953125,7,40.35467911,,,
61.96875,7,37.70751953,,,
61.984375,7,34.61431885,,,
62,7,31.25164986,,,
62.015625,7,27.83300972,,,
62.03125,7,24.48839951,,,
62.046875,7,21.20490074,,,
62.0625,7,17.83325005,,,
62.078125,7,14.12878037,,,
62.09375,7,9.906921387,,,
62.109375,7,5.128173828,,,
62.125,7,0.027709959,,,
62.140625,7,-5.001953125,,,
62.15625,7,-9.557678223,,,
62.171875,7,-13.38623047,,,
62.1875,7,-16.53152084,,,
62.203125,7,-19.29879951,,,
62.21875,7,-22.16445923,,,
62.234375,7,-25.54840088,,,
62.25,7,-29.6626606,,,
62.265625,7,-34.39197159,,,
62.28125,7,-39.37817001,,,
62.296875,7,-44.15182114,,,
62.3125,7,-48.34743881,,,
62.328125,7,-51.85152817,,,
62.34375,7,-54.84395981,,,
62.359375,7,-57.72994995,,,
62.375,7,-60.98379898,,,
62.390625,7,-64.97244263,,,
62.40625,7,-69.76364136,,,
62.421875,7,-75.00789642,,,
62.4375,7,-79.81036377,,,
62.453125,7,-82.88671875,,,
62.46875,7,-82.80300903,,,
62.484375,7,-78.4397583,,,
62.5,7,-69.39849854,,,
62.515625,7,-56.20956039,,,
62.53125,7,-40.23342896,,,
62.546875,7,-23.20602036,,,
62.5625,7,-6.778289795,,,
62.578125,7,7.92300415,,,
62.59375,7,20.40612984,,,
62.609375,7,30.63158989,,,
62.625,7,38.74291992,,,
62.640625,7,44.8706398,,,
62.65625,7,49.07809067,,,
62.671875,7,51.47893906,,,
62.6875,7,52.34582901,,,
62.703125,7,52.09511948,,,
62.71875,7,51.18420029,,,
62.734375,7,49.99753189,,,
62.75,7,48.77896118,,,
62.765625,7,47.63714981,,,
62.78125,7,46.62197876,,,
62.796875,7,45.79523087,,,
62.8125,7,45.26140976,,,
62.828125,7,45.09695053,,,
62.84375,7,45.27059937,,,
62.859375,7,45.60586929,,,
62.875,7,45.786129,,,
62.890625,7,45.47711182,,,
62.90625,7,44.42827988,,,
62.921875,7,42.56658936,,,
62.9375,7,40.01604843,,,
62.953125,7,37.02359009,,,
62.96875,7,33.86417007,,,
62.984375,7,30.67819023,,,
63,7,27.48151016,,,
63.015625,7,24.1420002,,,
63.03125,7,20.48531914,,,
63.046875,7,16.43755913,,,
63.0625,7,12.09920979,,,
63.078125,7,7.712677002,,,
63.09375,7,3.535430908,,,
63.109375,7,-0.245666504,,,
63.125,7,-3.67828393,,,
63.140625,7,-6.970917225,,,
63.15625,7,-10.38436985,,,
63.171875,7,-14.11577988,,,
63.1875,7,-18.19079971,,,
63.203125,7,-22.45984077,,,
63.21875,7,-26.73843002,,,
63.234375,7,-30.88830948,,,
63.25,7,-34.86719131,,,
63.265625,7,-38.67702866,,,
63.28125,7,-42.31624985,,,
63.296875,7,-45.75,,,
63.3125,7,-48.98807144,,,
63.328125,7,-52.21271133,,,
63.34375,7,-55.78873062,,,
63.359375,7,-60.06792831,,,
63.375,7,-65.12872314,,,
63.390625,7,-70.44891357,,,
63.40625,7,-74.8781662,,,
63.421875,7,-76.87512207,,,
63.4375,7,-75.01452637,,,
63.453125,7,-68.52639771,,,
63.46875,7,-57.58749008,,,
63.484375,7,-43.29241943,,,
63.5,7,-27.21880913,,,
63.515625,7,-10.98528957,,,
63.53125,7,4.146392822,,,
63.546875,7,17.3562603,,,
63.5625,7,28.25073051,,,
63.578125,7,36.67327881,,,
63.59375,7,42.58523941,,,
63.609375,7,46.13695908,,,
63.625,7,47.61428833,,,
63.640625,7,47.49045181,,,
63.65625,7,46.34943008,,,
63.671875,7,44.73984146,,,
63.6875,7,43.048069,,,
63.703125,7,41.51177979,,,
63.71875,7,40.21099854,,,
63.734375,7,39.15491104,,,
63.75,7,38.37908936,,,
63.765625,7,37.9576683,,,
63.78125,7,37.96463013,,,
63.796875,7,38.41788101,,,
63.8125,7,39.21932983,,,
63.828125,7,40.09595108,,,
63.84375,7,40.65356064,,,
63.859375,7,40.46683121,,,
63.875,7,39.23764038,,,
63.890625,7,36.92004013,,,
63.90625,7,33.70788956,,,
63.921875,7,29.9935894,,,
63.9375,7,26.20022964,,,
63.953125,7,22.63570976,,,
63.96875,7,19.3989296,,,
63.984375,7,16.35370064,,,
64,8,13.25298977,,,
64.015625,8,9.855407715,,,
64.03125,8,6.096770763,,,
64.046875,8,2.057921886,,,
64.0625,8,-2.063568115,,,
64.078125,8,-6.056519032,,,
64.09375,8,-9.846282959,,,
64.109375,8,-13.47766018,,,
64.125,8,-17.08535957,,,
64.140625,8,-20.83472061,,,
64.15625,8,-24.83328056,,,
64.171875,8,-29.08358955,,,
64.1875,8,-33.52199936,,,
64.203125,8,-38.01675034,,,
64.21875,8,-42.42990112,,,
64.234375,8,-46.68811035,,,
64.25,8,-50.75809097,,,
64.265625,8,-54.67678833,,,
64.28125,8,-58.58462906,,,
64.296875,8,-62.74271011,,,
64.3125,8,-67.4039917,,,
64.328125,8,-72.618927,,,
64.34375,8,-77.98416138,,,
64.359375,8,-82.53067017,,,
64.375,8,-84.87322998,,,
64.390625,8,-83.5715332,,,
64.40625,8,-77.68933105,,,
64.421875,8,-67.13950348,,,
64.4375,8,-52.7835083,,,
64.453125,8,-36.18651962,,,
64.46875,8,-19.0868206,,,
64.484375,8,-2.956268072,,,
64.5,8,11.26498032,,,
64.515625,8,23.15826035,,,
64.53125,8,32.66003037,,,
64.546875,8,39.85567856,,,
64.5625,8,44.89447021,,,
64.578125,8,47.9765892,,,
64.59375,8,49.36016846,,,
64.609375,8,49.42895889,,,
64.625,8,48.63660049,,,
64.640625,8,47.45016098,,,
64.65625,8,46.2819519,,,
64.671875,8,45.40029907,,,
64.6875,8,44.89730835,,,
64.703125,8,44.73477173,,,
64.71875,8,44.82342911,,,
64.734375,8,45.0463295,,,
64.75,8,45.36700058,,,
64.765625,8,45.74679947,,,
64.78125,8,46.12216187,,,
64.796875,8,46.33974838,,,
64.8125,8,46.17630005,,,
64.828125,8,45.3984108,,,
64.84375,8,43.83761978,,,
64.859375,8,41.47182846,,,
64.875,8,38.41802979,,,
64.890625,8,34.89696884,,,
64.90625,8,31.1506691,,,
64.921875,8,27.39450073,,,
64.9375,8,23.75878906,,,
64.953125,8,20.24484062,,,
64.96875,8,16.76519966,,,
64.984375,8,13.14727974,,,
65,8,9.252960205,,,
65.015625,8,5.069427013,,,
65.03125,8,0.711791992,,,
65.046875,8,-3.589782953,,,
65.0625,8,-7.646912098,,,
65.078125,8,-11.3862896,,,
65.09375,8,-14.97451973,,,
65.109375,8,-18.68227959,,,
65.125,8,-22.77942085,,,
65.140625,8,-27.38132095,,,
65.15625,8,-32.35958862,,,
65.171875,8,-37.40158081,,,
65.1875,8,-42.12636948,,,
65.203125,8,-46.27193832,,,
65.21875,8,-49.74663925,,,
65.234375,8,-52.69995117,,,
65.25,8,-55.39212036,,,
65.265625,8,-58.13695908,,,
65.28125,8,-61.22307968,,,
65.296875,8,-64.79174805,,,
65.3125,8,-68.74810791,,,
65.328125,8,-72.60501099,,,
65.34375,8,-75.47631836,,,
65.359375,8,-76.17059326,,,
65.375,8,-73.52158356,,,
65.390625,8,-66.76973724,,,
65.40625,8,-55.92441177,,,
65.421875,8,-41.83684921,,,
65.4375,8,-26.00008965,,,
65.453125,8,-10.11126995,,,
65.46875,8,4.386199951,,,
65.484375,8,16.58544922,,,
65.5,8,26.16897964,,,
65.515625,8,33.25014877,,,
65.53125,8,38.12734985,,,
65.546875,8,41.12121964,,,
65.5625,8,42.52630997,,,
65.578125,8,42.64044189,,,
65.59375,8,41.78927994,,,
65.609375,8,40.35742188,,,
65.625,8,38.70772934,,,
65.640625,8,37.13373184,,,
65.65625,8,35.83374023,,,
65.671875,8,34.85979843,,,
65.6875,8,34.18854141,,,
65.703125,8,33.77753067,,,
65.71875,8,33.59545898,,,
65.734375,8,33.61413956,,,
65.75,8,33.80875015,,,
65.765625,8,34.06185913,,,
65.78125,8,34.16638184,,,
65.796875,8,33.90628052,,,
65.8125,8,33.07717896,,,
65.828125,8,31.56753922,,,
65.84375,8,29.36203003,,,
65.859375,8,26.50888062,,,
65.875,8,23.04874039,,,
65.890625,8,19.06838989,,,
65.90625,8,14.68764973,,,
65.921875,8,10.09729004,,,
65.9375,8,5.546905994,,,
65.953125,8,1.261901975,,,
65.96875,8,-2.670288086,,,
65.984375,8,-6.333953857,,,
66,8,-9.951446533,,,
66.015625,8,-13.75372028,,,
66.03125,8,-17.85470963,,,
66.046875,8,-22.17114067,,,
66.0625,8,-26.48238945,,,
66.078125,8,-30.54217911,,,
66.09375,8,-34.14310074,,,
66.109375,8,-37.2507019,,,
66.125,8,-39.95801163,,,
66.140625,8,-42.48569107,,,
66.15625,8,-45.10134888,,,
66.171875,8,-48.13687134,,,
66.1875,8,-51.87578964,,,
66.203125,8,-56.42089844,,,
66.21875,8,-61.53894043,,,
66.234375,8,-66.50272369,,,
66.25,8,-70.16088867,,,
66.265625,8,-71.12969971,,,
66.28125,8,-68.25512695,,,
66.296875,8,-61.00133896,,,
66.3125,8,-49.68371964,,,
66.328125,8,-35.44855118,,,
66.34375,8,-19.90575981,,,
66.359375,8,-4.653533936,,,
66.375,8,9.07901001,,,
66.390625,8,20.61800957,,,
66.40625,8,29.78393936,,,
66.421875,8,36.68774033,,,
66.4375,8,41.49634171,,,
66.453125,8,44.39751816,,,
66.46875,8,45.58132935,,,
66.484375,8,45.33472061,,,
66.5,8,44.07907104,,,
66.515625,8,42.27724838,,,
66.53125,8,40.32860947,,,
66.546875,8,38.5149498,,,
66.5625,8,36.96419907,,,
66.578125,8,35.69641113,,,
66.59375,8,34.75186157,,,
66.609375,8,34.20946884,,,
66.625,8,34.17010117,,,
66.640625,8,34.6244812,,,
66.65625,8,35.44924927,,,
66.671875,8,36.34704971,,,
66.6875,8,36.94171143,,,
66.703125,8,36.89580917,,,
66.71875,8,36.02032089,,,
66.734375,8,34.31676865,,,
66.75,8,31.90926933,,,
66.765625,8,29.01324081,,,
66.78125,8,25.81055069,,,
66.796875,8,22.42898941,,,
66.8125,8,18.93783951,,,
66.828125,8,15.37845039,,,
66.84375,8,11.77044964,,,
66.859375,8,8.1355896,,,
66.875,8,4.488341808,,,
66.890625,8,0.846130371,,,
66.90625,8,-2.744507074,,,
66.921875,8,-6.23425293,,,
66.9375,8,-9.602478027,,,
66.953125,8,-12.87106037,,,
66.96875,8,-16.11771011,,,
66.984375,8,-19.50027084,,,
67,8,-23.16894913,,,
67.015625,8,-27.19652939,,,
67.03125,8,-31.51523018,,,
67.046875,8,-35.89754868,,,
67.0625,8,-40.05181885,,,
67.078125,8,-43.76004028,,,
67.09375,8,-47.01861954,,,
67.109375,8,-50.07418823,,,
67.125,8,-53.33942032,,,
67.140625,8,-57.20336914,,,
67.15625,8,-61.75802994,,,
67.171875,8,-66.61694336,,,
67.1875,8,-70.86022949,,,
67.203125,8,-73.24816895,,,
67.21875,8,-72.5090332,,,
67.234375,8,-67.77258301,,,
67.25,8,-58.87530899,,,
67.265625,8,-46.44068909,,,
67.28125,8,-31.74593925,,,
67.296875,8,-16.3732605,,,
67.3125,8,-1.823058963,,,
67.328125,8,10.83675957,,,
67.34375,8,21.0807209,,,
67.359375,8,28.90667915,,,
67.375,8,34.60348892,,,
67.390625,8,38.57265854,,,
67.40625,8,41.16532898,,,
67.421875,8,42.65504074,,,
67.4375,8,43.26018906,,,
67.453125,8,43.17840958,,,
67.46875,8,42.61968994,,,
67.484375,8,41.80389023,,,
67.5,8,40.94318008,,,
67.515625,8,40.19746017,,,
67.53125,8,39.67021179,,,
67.546875,8,39.3880806,,,
67.5625,8,39.35179138,,,
67.578125,8,39.47748184,,,
67.59375,8,39.65047836,,,
67.609375,8,39.7462883,,,
67.625,8,39.65457153,,,
67.640625,8,39.27721024,,,
67.65625,8,38.51436996,,,
67.671875,8,37.25696945,,,
67.6875,8,35.42969131,,,
67.703125,8,33.03596115,,,
67.71875,8,30.20624924,,,
67.734375,8,27.15224075,,,
67.75,8,24.10627937,,,
67.765625,8,21.21645927,,,
67.78125,8,18.46386909,,,
67.796875,8,15.69460011,,,
67.8125,8,12.73408985,,,
67.828125,8,9.513244629,,,
67.84375,8,6.10215807,,,
67.859375,8,2.719863892,,,
67.875,8,-0.485076904,,,
67.890625,8,-3.472960949,,,
67.90625,8,-6.367827892,,,
67.921875,8,-9.368240356,,,
67.9375,8,-12.66713047,,,
67.953125,8,-16.3120594,,,
67.96875,8,-20.23929977,,,
67.984375,8,-24.24799919,,,
68,8,-28.0909996,,,
68.015625,8,-31.54323959,,,
68.03125,8,-34.45920944,,,
68.046875,8,-36.85486984,,,
68.0625,8,-38.93272018,,,
68.078125,8,-41.06459045,,,
68.09375,8,-43.65256119,,,
68.109375,8,-47.01654053,,,
68.125,8,-51.15193176,,,
68.140625,8,-55.63586044,,,
68.15625,8,-59.6210289,,,
68.171875,8,-61.99209976,,,
68.1875,8,-61.65085983,,,
68.203125,8,-57.83568954,,,
68.21875,8,-50.3180809,,,
68.234375,8,-39.57561874,,,
68.25,8,-26.68330002,,,
68.265625,8,-13.02657986,,,
68.28125,8,0.04309082,,,
68.296875,8,11.48324966,,,
68.3125,8,20.73660088,,,
68.328125,8,27.68508911,,,
68.34375,8,32.46660995,,,
68.359375,8,35.38068008,,,
68.375,8,36.78725815,,,
68.390625,8,37.05469894,,,
68.40625,8,36.58823013,,,
68.421875,8,35.79761887,,,
68.4375,8,34.98632813,,,
68.453125,8,34.32535934,,,
68.46875,8,33.8400116,,,
68.484375,8,33.45452881,,,
68.5,8,33.11240005,,,
68.515625,8,32.8187294,,,
68.53125,8,32.62649918,,,
68.546875,8,32.62263107,,,
68.5625,8,32.83197021,,,
68.578125,8,33.1908989,,,
68.59375,8,33.51602173,,,
68.609375,8,33.600811,,,
68.625,8,33.21445847,,,
68.640625,8,32.17792892,,,
68.65625,8,30.40410042,,,
68.671875,8,27.92218018,,,
68.6875,8,24.87989998,,,
68.703125,8,21.53145981,,,
68.71875,8,18.18342972,,,
68.734375,8,15.06737041,,,
68.75,8,12.2999897,,,
68.765625,8,9.785202026,,,
68.78125,8,7.296799183,,,
68.796875,8,4.585999012,,,
68.8125,8,1.530869007,,,
68.828125,8,-1.795943975,,,
68.84375,8,-5.155823231,,,
68.859375,8,-8.249420166,,,
68.875,8,-10.9038496,,,
68.890625,8,-13.13175964,,,
68.90625,8,-15.16364002,,,
