Time:64Hz,Epoch,Channel 1,Event Id,Event Date,Event Duration
0.0000000000,0,-0.0401840210,,,
0.0156250000,0,-0.0367279090,,,
0.0312500000,0,-0.1278076023,,,
0.0468750000,0,-0.3804549873,,,
0.0625000000,0,-0.7248306274,,,
0.0781250000,0,-0.9889907837,,,
0.0937500000,0,-0.9692000747,,,
0.1093750000,0,-0.5791016221,,,
0.1250000000,0,0.0929870605,,,
0.1406250000,0,0.7971038818,,,
0.1562500000,0,1.2914049625,,,
0.1718750000,0,1.4229969978,,,
0.1875000000,0,1.2259670496,,,
0.2031250000,0,0.8728485107,,,
0.2187500000,0,0.5399932861,,,
0.2343750000,0,0.3229903877,,,
0.2500000000,0,0.2186432034,,,
0.2656250000,0,0.1323090047,,,
0.2812500000,0,-0.0114364596,,,
0.2968750000,0,-0.2249373943,,,
0.3125000000,0,-0.4549866021,,,
0.3281250000,0,-0.6081696153,,,
0.3437500000,0,-0.6290206909,,,
0.3593750000,0,-0.5322266221,,,
0.3750000000,0,-0.3650054932,,,
0.3906250000,0,-0.1944884956,,,
0.4062500000,0,-0.0724639893,,,
0.4218750000,0,-0.0207977295,,,
0.4375000000,0,-0.0485839806,,,
0.4531250000,0,-0.1489409953,,,
0.4687500000,0,-0.2756423950,,,
0.4843750000,0,-0.3612594903,,,
0.5000000000,0,-0.3656387031,,,
0.5156250000,0,-0.2469405979,,,
0.5312500000,0,-0.0452652015,,,
0.5468750000,0,0.1473923028,,,
0.5625000000,0,0.2459564060,,,
0.5781250000,0,0.1720505059,,,
0.5937500000,0,-0.0696411133,,,
0.6093750000,0,-0.3986130059,,,
0.6250000000,0,-0.6644210815,,,
0.6406250000,0,-0.7368317246,,,
0.6562500000,0,-0.5408629775,,,
0.6718750000,0,-0.1019973978,,,
0.6875000000,0,0.4685134888,,,
0.7031250000,0,1.0148390532,,,
0.7187500000,0,1.3892290592,,,
0.7343750000,0,1.4771649837,,,
0.7500000000,0,1.2773740292,,,
0.7656250000,0,0.8659133911,,,
0.7812500000,0,0.3769072890,,,
0.7968750000,0,-0.0354919396,,,
0.8125000000,0,-0.2887878120,,,
0.8281250000,0,-0.3699570000,,,
0.8437500000,0,-0.3293685913,,,
0.8593750000,0,-0.2555770874,,,
0.8750000000,0,-0.2113724053,,,
0.8906250000,0,-0.2068253011,,,
0.9062500000,0,-0.1996764988,,,
0.9218750000,0,-0.1381378025,,,
0.9375000000,0,-0.0019912720,,,
0.9531250000,0,0.1447295994,,,
0.9687500000,0,0.1999282986,,,
0.9843750000,0,0.1042174995,,,
1.0000000000,0,-0.1453018039,,,
1.0156250000,0,-0.4332580864,,,
1.0312500000,0,-0.6075134277,,,
1.0468750000,0,-0.5550842285,,,
1.0625000000,0,-0.2504425049,,,
1.0781250000,0,0.2191925049,,,
1.0937500000,0,0.7195053101,,,
1.1093750000,0,1.1198430061,,,
1.1250000000,0,1.3391489983,,,
1.1406250000,0,1.3483730555,,,
1.1562500000,0,1.1572719812,,,
1.1718750000,0,0.7821273804,,,
1.1875000000,0,0.2611618042,,,
1.2031250000,0,-0.3494719863,,,
1.2187500000,0,-0.9480515122,,,
1.2343750000,0,-1.4455640316,,,
1.2500000000,0,-1.7763750553,,,
1.2656250000,0,-1.9254679680,,,
1.2812500000,0,-1.9361720085,,,
1.2968750000,0,-1.8634190559,,,
1.3125000000,0,-1.7484359741,,,
1.3281250000,0,-1.6004940271,,,
1.3437500000,0,-1.4118800163,,,
1.3593750000,0,-1.1701350212,,,
1.3750000000,0,-0.8664702773,,,
1.3906250000,0,-0.5374069214,,,
1.4062500000,0,-0.2347182930,,,
1.4218750000,0,-0.0257339496,,,
1.4375000000,0,0.0520172082,,,
1.4531250000,0,-0.0414657593,,,
1.4687500000,0,-0.2933807075,,,
1.4843750000,0,-0.6349257827,,,
1.5000000000,0,-0.9711151123,,,
1.5156250000,0,-1.1816250086,,,
1.5312500000,0,-1.1831439734,,,
1.5468750000,0,-0.9643936157,,,
1.5625000000,0,-0.5888062119,,,
1.5781250000,0,-0.1637496948,,,
1.5937500000,0,0.1788406074,,,
1.6093750000,0,0.3682861030,,,
1.6250000000,0,0.4079742134,,,
1.6406250000,0,0.3890686035,,,
1.6562500000,0,0.4392547905,,,
1.6718750000,0,0.6427611709,,,
1.6875000000,0,0.9861145020,,,
1.7031250000,0,1.3324049711,,,
1.7187500000,0,1.5239490271,,,
1.7343750000,0,1.4605480433,,,
1.7500000000,0,1.1918109655,,,
1.7656250000,0,0.8685988784,,,
1.7812500000,0,0.6450806260,,,
1.7968750000,0,0.5529174805,,,
1.8125000000,0,0.4856339097,,,
1.8281250000,0,0.2725220025,,,
1.8437500000,0,-0.1682738960,,,
1.8593750000,0,-0.7669982910,,,
1.8750000000,0,-1.3040080070,,,
1.8906250000,0,-1.5522919893,,,
1.9062500000,0,-1.4214479923,,,
1.9218750000,0,-1.0238649845,,,
1.9375000000,0,-0.5334473252,,,
1.9531250000,0,-0.1238097996,,,
1.9687500000,0,0.1509398967,,,
1.9843750000,0,0.3575820923,,,
2.0000000000,0,0.5685424805,,,
2.0156250000,0,0.7861176133,,,
2.0312500000,0,0.9506301880,,,
2.0468750000,0,0.9728546143,,,
2.0625000000,0,0.7908400893,,,
2.0781250000,0,0.4607009888,,,
2.0937500000,0,0.0928802490,,,
2.1093750000,0,-0.2008666992,,,
2.1250000000,0,-0.3464278877,,,
2.1406250000,0,-0.3508377075,,,
2.1562500000,0,-0.2551726997,,,
2.1718750000,0,-0.1126099005,,,
2.1875000000,0,0.0475234985,,,
2.2031250000,0,0.1914902031,,,
2.2187500000,0,0.3010329902,,,
2.2343750000,0,0.3657532036,,,
2.2500000000,0,0.3963393867,,,
2.2656250000,0,0.4224472046,,,
2.2812500000,0,0.4844894111,,,
2.2968750000,0,0.5891571045,,,
2.3125000000,0,0.7200394273,,,
2.3281250000,0,0.8362503052,,,
2.3437500000,0,0.8818054199,,,
2.3593750000,0,0.8387908936,,,
2.3750000000,0,0.6936417222,,,
2.3906250000,0,0.4743804932,,,
2.4062500000,0,0.2036132962,,,
2.4218750000,0,-0.1177292019,,,
2.4375000000,0,-0.5000457764,,,
2.4531250000,0,-0.9036026001,,,
2.4687500000,0,-1.2633130550,,,
2.4843750000,0,-1.4858169556,,,
2.5000000000,0,-1.4705200195,,,
2.5156250000,0,-1.2082209587,,,
2.5312500000,0,-0.7833480835,33025,2.5312500000,0.0000000000
2.5468750000,0,-0.3262177110,,,
2.5625000000,0,0.0037765501,,,
2.5781250000,0,0.1217269972,,,
2.5937500000,0,0.0701828003,,,
2.6093750000,0,-0.0391921997,,,
2.6250000000,0,-0.0590209998,33024,2.6250000000,0.0000000000
2.6406250000,0,0.0909194872,,,
2.6562500000,0,0.3782272041,,,
2.6718750000,0,0.6945418715,,,
2.6875000000,0,0.9295654297,,,
2.7031250000,0,1.0163040161,,,
2.7187500000,0,0.9596405029,,,
2.7343750000,0,0.8100966811,,,
2.7500000000,0,0.5926284790,,,
2.7656250000,0,0.3070831001,,,
2.7812500000,0,-0.0171356201,,,
2.7968750000,0,-0.3326111138,,,
2.8125000000,0,-0.5427017212,,,
2.8281250000,0,-0.5580368042,,,
2.8437500000,0,-0.3917846978,,,
2.8593750000,0,-0.1391448975,,,
2.8750000000,0,0.0436325110,,,
2.8906250000,0,0.0737762526,,,
2.9062500000,0,-0.0256500207,,,
2.9218750000,0,-0.1113129035,,,
2.9375000000,0,-0.0811843872,,,
2.9531250000,0,0.1001282036,,,
2.9687500000,0,0.3271942139,,,
2.9843750000,0,0.4272842109,,,
3.0000000000,0,0.3155364990,,,
3.0156250000,0,0.0207595807,,,
3.0312500000,0,-0.3273848891,,,
3.0468750000,0,-0.5873641968,,,
3.0625000000,0,-0.7142028809,,,
3.0781250000,0,-0.7818375230,,,
3.0937500000,0,-0.8890609741,,,
3.1093750000,0,-1.0738910437,,,
3.1250000000,0,-1.2934190035,,,
3.1406250000,0,-1.4224849939,,,
3.1562500000,0,-1.3700640202,,,
3.1718750000,0,-1.1027300358,,,
3.1875000000,0,-0.6730651855,,,
3.2031250000,0,-0.1530379951,,,
3.2187500000,0,0.3970642090,,,
3.2343750000,0,0.9431838989,,,
3.2500000000,0,1.4450989962,,,
3.2656250000,0,1.8314969540,,,
3.2812500000,0,2.0456700325,,,
3.2968750000,0,2.0460970402,,,
3.3125000000,0,1.8751909733,,,
3.3281250000,0,1.6371769905,,,
3.3437500000,0,1.4290080070,,,
3.3593750000,0,1.2933809757,,,
3.3750000000,0,1.1949919462,,,
3.3906250000,0,1.0558780432,,,
3.4062500000,0,0.8208770752,,,
3.4218750000,0,0.4931716919,,,
3.4375000000,0,0.0973281935,,,
3.4531250000,0,-0.3258208930,,,
3.4687500000,0,-0.7279738784,,,
3.4843750000,0,-1.0880199671,,,
3.5000000000,0,-1.3735890388,,,
3.5156250000,0,-1.5254139900,,,
3.5312500000,0,-1.5036770105,,,
3.5468750000,0,-1.3001630306,,,
3.5625000000,0,-0.9493865967,,,
3.5781250000,0,-0.5261154175,,,
3.5937500000,0,-0.1012573019,,,
3.6093750000,0,0.2868041992,,,
3.6250000000,0,0.6128159165,,,
3.6406250000,0,0.8660430908,,,
3.6562500000,0,1.0091170073,,,
3.6718750000,0,1.0200730562,,,
3.6875000000,0,0.8519058228,,,
3.7031250000,0,0.5210266113,,,
3.7187500000,0,0.0925445631,,,
3.7343750000,0,-0.3180770874,,,
3.7500000000,0,-0.5771027207,,,
3.7656250000,0,-0.5687789917,,,
3.7812500000,0,-0.2568741143,,,
3.7968750000,0,0.2728652954,,,
3.8125000000,0,0.8533400893,,,
3.8281250000,0,1.2744220495,,,
3.8437500000,0,1.4110109806,,,
3.8593750000,0,1.2725909948,,,
3.8750000000,0,0.9920120239,,,
3.8906250000,0,0.7392578125,,,
3.9062500000,0,0.6264420152,,,
3.9218750000,0,0.6453781128,,,
3.9375000000,0,0.6906433105,,,
3.9531250000,0,0.6167603135,,,
3.9687500000,0,0.3613204956,,,
3.9843750000,0,-0.0225601196,,,
4.0000000000,0,-0.4475936890,,,
4.0156250000,0,-0.8155211806,,,
4.0312500000,0,-1.0940779448,,,
4.0468750000,0,-1.3190610409,,,
4.0625000000,0,-1.5302660465,,,
4.0781250000,0,-1.7235029936,,,
4.0937500000,0,-1.8345869780,,,
4.1093750000,0,-1.7676769495,,,
4.1250000000,0,-1.4691929817,,,
4.1406250000,0,-0.9837036133,,,
4.1562500000,0,-0.4537124932,,,
4.1718750000,0,-0.0389938392,,,
4.1875000000,0,0.1380310059,,,
4.2031250000,0,0.0972137526,,,
4.2187500000,0,-0.0516662598,,,
4.2343750000,0,-0.1564864963,,,
4.2500000000,0,-0.1412810981,,,
4.2656250000,0,-0.0417327918,,,
4.2812500000,0,0.0212325994,,,
4.2968750000,0,-0.0818939209,,,
4.3125000000,0,-0.3870621026,,,
4.3281250000,0,-0.8289871216,,,
4.3437500000,0,-1.2668759823,,,
4.3593750000,0,-1.5741729736,,,
4.3750000000,0,-1.6877980232,,,
4.3906250000,0,-1.6114120483,,,
4.4062500000,0,-1.3819350004,,,
4.4218750000,0,-1.0334700346,,,
4.4375000000,0,-0.5712738037,,,
4.4531250000,0,-0.0156936608,,,
4.4687500000,0,0.5796431899,33025,4.4687500000,0.0000000000
4.4843750000,0,1.1161270142,,,
4.5000000000,0,1.4809039831,,,
4.5156250000,0,1.6080700159,,,
4.5312500000,0,1.5127489567,,,
4.5468750000,0,1.2843019962,,,
4.5625000000,0,1.0316469669,,,
4.5781250000,0,0.8417891860,,,
4.5937500000,0,0.7218552232,,,
4.6093750000,0,0.6153945923,,,
4.6250000000,0,0.4723891914,,,
4.6406250000,0,0.2792358100,,,
4.6562500000,0,0.1148148030,33024,4.6562500000,0.0000000000
4.6718750000,0,0.1118163988,,,
4.6875000000,0,0.3490523994,,,
4.7031250000,0,0.8068389893,,,
4.7187500000,0,1.3383560181,,,
4.7343750000,0,1.7381440401,,,
4.7500000000,0,1.8409500122,,,
4.7656250000,0,1.6249849796,,,
4.7812500000,0,1.1977080107,,,
4.7968750000,0,0.7398604751,,,
4.8125000000,0,0.3960036933,,,
4.8281250000,0,0.1981049031,,,
4.8437500000,0,0.0740737915,,,
4.8593750000,0,-0.0850372314,,,
4.8750000000,0,-0.3759078979,,,
4.8906250000,0,-0.8012238145,,,
4.9062500000,0,-1.2801209688,,,
4.9218750000,0,-1.6927490234,,,
4.9375000000,0,-1.9179229736,,,
4.9531250000,0,-1.9010540247,,,
4.9687500000,0,-1.6449660063,,,
4.9843750000,0,-1.2454609871,,,
5.0000000000,0,-0.8035125732,,,
5.0156250000,0,-0.4351882935,,,
5.0312500000,0,-0.1884994954,,,
5.0468750000,0,-0.0467376709,,,
5.0625000000,0,0.0288162194,,,
5.0781250000,0,0.0979156494,,,
5.0937500000,0,0.1823424995,,,
5.1093750000,0,0.2541122139,,,
5.1250000000,0,0.2791824043,,,
5.1406250000,0,0.2486266941,,,
5.1562500000,0,0.1714859009,,,
5.1718750000,0,0.0806579590,,,
5.1875000000,0,0.0038375850,,,
5.2031250000,0,-0.0613326989,,,
5.2187500000,0,-0.1304091960,,,
5.2343750000,0,-0.1847153008,,,
5.2500000000,0,-0.1835021973,,,
5.2656250000,0,-0.0657501221,,,
5.2812500000,0,0.2191237956,,,
5.2968750000,0,0.6435089111,,,
5.3125000000,0,1.1045680046,,,
5.3281250000,0,1.4292600155,,,
5.3437500000,0,1.4357299805,,,
5.3593750000,0,1.0457609892,,,
5.3750000000,0,0.3136977851,,,
5.3906250000,0,-0.5867081285,,,
5.4062500000,0,-1.4108279943,,,
5.4218750000,0,-1.9601900578,,,
5.4375000000,0,-2.1678309441,,,
5.4531250000,0,-2.0963289738,,,
5.4687500000,0,-1.8998260498,,,
5.4843750000,0,-1.7255860567,,,
5.5000000000,0,-1.6265490055,,,
5.5156250000,0,-1.5880969763,,,
5.5312500000,0,-1.5477290154,,,
5.5468750000,0,-1.4305800200,,,
5.5625000000,0,-1.2074049711,,,
5.5781250000,0,-0.8813933730,,,
5.5937500000,0,-0.4680710137,,,
5.6093750000,0,-0.0113601703,,,
5.6250000000,0,0.4029845893,,,
5.6406250000,0,0.6977233887,,,
5.6562500000,0,0.8078308105,,,
5.6718750000,0,0.7416533828,,,
5.6875000000,0,0.5929183960,,,
5.7031250000,0,0.4925461113,,,
5.7187500000,0,0.5247116089,,,
5.7343750000,0,0.6878815293,,,
5.7500000000,0,0.8982924819,,,
5.7656250000,0,1.0370179415,,,
5.7812500000,0,1.0458830595,,,
5.7968750000,0,0.9415053725,,,
5.8125000000,0,0.8180007935,,,
5.8281250000,0,0.7617874146,,,
5.8437500000,0,0.7789077759,,,
5.8593750000,0,0.8196640015,,,
5.8750000000,0,0.8205872178,,,
5.8906250000,0,0.7616196275,,,
5.9062500000,0,0.6623229980,,,
5.9218750000,0,0.6031188965,,,
5.9375000000,0,0.6198577881,,,
5.9531250000,0,0.7172011733,,,
5.9687500000,0,0.8120651245,,,
5.9843750000,0,0.7959136963,,,
6.0000000000,0,0.5831375122,,,
6.0156250000,0,0.1867751926,,,
6.0312500000,0,-0.3101500869,,,
6.0468750000,0,-0.7672882080,,,
6.0625000000,0,-1.0484850407,,,
6.0781250000,0,-1.1341249943,,,
6.0937500000,0,-1.0712130070,,,
6.1093750000,0,-0.9743118286,,,
6.1250000000,0,-0.9518355727,,,
6.1406250000,0,-1.0192949772,,,
6.1562500000,0,-1.1046910286,,,
6.1718750000,0,-1.0920870304,,,
6.1875000000,0,-0.8615189195,,,
6.2031250000,0,-0.3818741143,,,
6.2187500000,0,0.3007889092,,,
6.2343750000,0,1.0729980469,,,
6.2500000000,0,1.7731859684,,,
6.2656250000,0,2.2586820126,,,
6.2812500000,0,2.4311830997,,,
6.2968750000,0,2.2675399780,,,
6.3125000000,0,1.8349989653,,,
6.3281250000,0,1.2651059628,,,
6.3437500000,0,0.7123107910,,,
6.3593750000,0,0.2890166938,,,
6.3750000000,0,0.0421295203,,,
6.3906250000,0,-0.0541076697,,,
6.4062500000,0,-0.0772857666,,,
6.4218750000,0,-0.0910186768,,,
6.4375000000,0,-0.1297149956,,,
6.4531250000,0,-0.1832581013,,,
6.4687500000,0,-0.2298583984,,,
6.4843750000,0,-0.2652587891,,,
6.5000000000,0,-0.3242264092,,,
6.5156250000,0,-0.4289779961,,,
6.5312500000,0,-0.5844954848,,,
6.5468750000,0,-0.7655715942,,,
6.5625000000,0,-0.9078444839,,,
6.5781250000,0,-0.9667357802,,,
6.5937500000,0,-0.9127197266,,,
6.6093750000,0,-0.7533798218,,,
6.6250000000,0,-0.5257720947,,,
6.6406250000,0,-0.3010941148,,,
6.6562500000,0,-0.1313323975,,,
6.6718750000,0,-0.0572280884,,,
6.6875000000,0,-0.0681304932,,,
6.7031250000,0,-0.1072997972,,,
6.7187500000,0,-0.1314850003,33025,6.7187500000,0.0000000000
6.7343750000,0,-0.0909347534,,,
6.7500000000,0,-0.0219192505,,,
6.7656250000,0,0.0310287494,,,
6.7812500000,0,0.0035400391,,,
6.7968750000,0,-0.1303939968,,,
6.8125000000,0,-0.3240813911,,,
6.8281250000,0,-0.4885483086,,,
6.8437500000,0,-0.5106124878,,,
6.8593750000,0,-0.3474884033,,,
6.8750000000,0,0.0001678467,,,
6.8906250000,0,0.4522933960,,,
6.9062500000,0,0.9318314195,,,
6.9218750000,0,1.3588099480,,,
6.9375000000,0,1.6658400297,,,
6.9531250000,0,1.7943949699,,,
6.9687500000,0,1.7065199614,33024,6.9687500000,0.0000000000
6.9843750000,0,1.4053119421,,,
7.0000000000,0,0.9262161255,,,
7.0156250000,0,0.3714827895,,,
7.0312500000,0,-0.1361999959,,,
7.0468750000,0,-0.4779967964,,,
7.0625000000,0,-0.5998839736,,,
7.0781250000,0,-0.5283278823,,,
7.0937500000,0,-0.3533478081,,,
7.1093750000,0,-0.1871795952,,,
7.1250000000,0,-0.1002350003,,,
7.1406250000,0,-0.1402817070,,,
7.1562500000,0,-0.2854691148,,,
7.1718750000,0,-0.4979324043,,,
7.1875000000,0,-0.7167968750,,,
7.2031250000,0,-0.8775177002,,,
7.2187500000,0,-0.9387360215,,,
7.2343750000,0,-0.8684539795,,,
7.2500000000,0,-0.6962128282,,,
7.2656250000,0,-0.4815750122,,,
7.2812500000,0,-0.3079223931,,,
7.2968750000,0,-0.2540206909,,,
7.3125000000,0,-0.3355331123,,,
7.3281250000,0,-0.5098571777,,,
7.3437500000,0,-0.6744536757,,,
7.3593750000,0,-0.7230759263,,,
7.3750000000,0,-0.5768126845,,,
7.3906250000,0,-0.2514572144,,,
7.4062500000,0,0.1794891059,,,
7.4218750000,0,0.6022719741,,,
7.4375000000,0,0.9145203233,,,
7.4531250000,0,1.0522309542,,,
7.4687500000,0,1.0046390295,,,
7.4843750000,0,0.8311234117,,,
7.5000000000,0,0.6201782227,,,
7.5156250000,0,0.4788132012,,,
7.5312500000,0,0.4497528076,,,
7.5468750000,0,0.5201262832,,,
7.5625000000,0,0.6074677110,,,
7.5781250000,0,0.6263732910,,,
7.5937500000,0,0.5254210830,,,
7.6093750000,0,0.3244476020,,,
7.6250000000,0,0.1006850973,,,
7.6406250000,0,-0.0705108568,,,
7.6562500000,0,-0.1454468071,,,
7.6718750000,0,-0.1690063030,,,
7.6875000000,0,-0.2025299072,,,
7.7031250000,0,-0.2870101929,,,
7.7187500000,0,-0.4146805108,,,
7.7343750000,0,-0.5434647202,,,
7.7500000000,0,-0.6139221191,,,
7.7656250000,0,-0.6038208008,,,
7.7812500000,0,-0.5162047744,,,
7.7968750000,0,-0.3767623901,,,
7.8125000000,0,-0.1876831055,,,
7.8281250000,0,0.0493774414,,,
7.8437500000,0,0.3396529853,,,
7.8593750000,0,0.6458588243,,,
7.8750000000,0,0.8798522949,,,
7.8906250000,0,0.9779891968,,,
7.9062500000,0,0.9062805176,,,
7.9218750000,0,0.7082520127,,,
7.9375000000,0,0.4521560967,,,
7.9531250000,0,0.1869201958,,,
7.9687500000,0,-0.1118317023,,,
7.9843750000,0,-0.4762878120,,,
8.0000000000,1,-0.9281311035,,,
8.0156250000,1,-1.4149700403,,,
8.0312500000,1,-1.8155820370,,,
8.0468750000,1,-2.0173649788,,,
8.0625000000,1,-1.9664150476,,,
8.0781250000,1,-1.7018589973,,,
8.0937500000,1,-1.3224719763,,,
8.1093750000,1,-0.9135360718,,,
8.1250000000,1,-0.5046768188,,,
8.1406250000,1,-0.0954208374,,,
8.1562500000,1,0.3102036119,,,
8.1718750000,1,0.6715164185,,,
8.1875000000,1,0.8602600098,,,
8.2031250000,1,0.7842864990,,,
8.2187500000,1,0.4300841987,,,
8.2343750000,1,-0.0985641479,,,
8.2500000000,1,-0.6285247803,,,
8.2656250000,1,-0.9870223999,,,
8.2812500000,1,-1.0878299475,,,
8.2968750000,1,-0.9521408081,,,
8.3125000000,1,-0.6563034058,,,
8.3281250000,1,-0.3055953979,,,
8.3437500000,1,0.0326309204,,,
8.3593750000,1,0.3319168091,,,
8.3750000000,1,0.5785980225,,,
8.3906250000,1,0.7519379258,,,
8.4062500000,1,0.8300858140,,,
8.4218750000,1,0.8240584731,,,
8.4375000000,1,0.7557373047,,,
8.4531250000,1,0.7077178955,,,
8.4687500000,1,0.7161635756,,,
8.4843750000,1,0.7760620117,,,
8.5000000000,1,0.8277968764,,,
8.5156250000,1,0.7664794922,,,
8.5312500000,1,0.5348433852,,,
8.5468750000,1,0.1598587036,,,
8.5625000000,1,-0.2571181953,,,
8.5781250000,1,-0.5810927749,,,
8.5937500000,1,-0.7192534804,,,
8.6093750000,1,-0.6530913711,,,
8.6250000000,1,-0.4371337891,,,
8.6406250000,1,-0.1419524997,,,
8.6562500000,1,0.1457671970,,,
8.6718750000,1,0.3801040947,,,
8.6875000000,1,0.5385817885,,,
8.7031250000,1,0.6066207886,,,
8.7187500000,1,0.5912399292,,,
8.7343750000,1,0.5251693726,,,
8.7500000000,1,0.4490661919,,,
8.7656250000,1,0.4033660889,,,
8.7812500000,1,0.3988494873,,,
8.7968750000,1,0.3928070068,,,
8.8125000000,1,0.3220444024,,,
8.8281250000,1,0.1314315945,,,
8.8437500000,1,-0.1747283936,,,
8.8593750000,1,-0.5099868774,,,
8.8750000000,1,-0.7492905259,,,
8.8906250000,1,-0.8080673218,,,
8.9062500000,1,-0.6793593764,,,
8.9218750000,1,-0.4322127998,,,
8.9375000000,1,-0.1776504964,,,
8.9531250000,1,0.0193633996,,,
8.9687500000,1,0.1395493001,,,
8.9843750000,1,0.1875534058,,,
9.0000000000,1,0.2095946968,,,
9.0156250000,1,0.2202910930,,,
9.0312500000,1,0.2030028999,,,
9.0468750000,1,0.1333923042,,,
9.0625000000,1,-0.0128250103,,,
9.0781250000,1,-0.2405700982,,,
9.0937500000,1,-0.5502777100,,,
9.1093750000,1,-0.8936080933,,,
9.1250000000,1,-1.2217559814,,,
9.1406250000,1,-1.4206160307,,,
9.1562500000,1,-1.3878630400,,,
9.1718750000,1,-1.0742419958,,,
9.1875000000,1,-0.5317000747,,,
9.2031250000,1,0.0694961473,,,
9.2187500000,1,0.5342864990,,,
9.2343750000,1,0.7180709839,,,
9.2500000000,1,0.5993195176,,,
9.2656250000,1,0.2686614990,,,
9.2812500000,1,-0.1407776028,,,
9.2968750000,1,-0.5029448867,,,
9.3125000000,1,-0.7162857056,,,
9.3281250000,1,-0.7173308730,,,
9.3437500000,1,-0.4739379883,,,
9.3593750000,1,-0.0130310096,,,
9.3750000000,1,0.5818405151,,,
9.3906250000,1,1.1288219690,,,
9.4062500000,1,1.4674760103,,,
9.4218750000,1,1.4639279842,,,
9.4375000000,1,1.1081310511,,,
9.4531250000,1,0.4848709106,,,
9.4687500000,1,-0.2390671074,,,
9.4843750000,1,-0.9225844741,,,
9.5000000000,1,-1.4473340511,,,
9.5156250000,1,-1.7103040218,,,
9.5312500000,1,-1.6563719511,,,
9.5468750000,1,-1.2469710112,,,
9.5625000000,1,-0.5500336289,,,
9.5781250000,1,0.2828063965,,,
9.5937500000,1,1.0107350349,,,
9.6093750000,1,1.4464800358,,,
9.6250000000,1,1.4955060482,,,
9.6406250000,1,1.2237399817,,,
9.6562500000,1,0.7786179185,,,
9.6718750000,1,0.3257522881,,,
9.6875000000,1,0.0059509282,,,
9.7031250000,1,-0.1300659031,,,
9.7187500000,1,-0.0661926270,,,
9.7343750000,1,0.1624680012,,,
9.7500000000,1,0.4945220947,,,
9.7656250000,1,0.8568726182,,,
9.7812500000,1,1.1383060217,,,
9.7968750000,1,1.2512890100,,,
9.8125000000,1,1.1251599789,,,
9.8281250000,1,0.7681580186,,,
9.8437500000,1,0.2592773139,,,
9.8593750000,1,-0.2635039985,,,
9.8750000000,1,-0.6160507202,,,
9.8906250000,1,-0.7014235854,,,
9.9062500000,1,-0.4958648980,,,
9.9218750000,1,-0.0983581468,,,
9.9375000000,1,0.3383179009,,,
9.9531250000,1,0.6517105103,,,
9.9687500000,1,0.7752686143,,,
9.9843750000,1,0.7280197144,,,
10.0000000000,1,0.5836716294,,,
10.0156250000,1,0.4272156060,,,
10.0312500000,1,0.2650603950,,,
10.0468750000,1,0.0935897827,,,
10.0625000000,1,-0.1214523017,,,
10.0781250000,1,-0.3313750923,,,
10.0937500000,1,-0.4563904107,,,
10.1093750000,1,-0.4258956909,,,
10.1250000000,1,-0.2406464070,,,
10.1406250000,1,0.0236663800,,,
10.1562500000,1,0.2442245036,,,
10.1718750000,1,0.3282851875,,,
10.1875000000,1,0.2759704888,,,
10.2031250000,1,0.1699676961,,,
10.2187500000,1,0.1164780036,,,
10.2343750000,1,0.1619568020,,,
10.2500000000,1,0.2725906074,,,
10.2656250000,1,0.3380813897,,,
10.2812500000,1,0.2293166965,,,
10.2968750000,1,-0.0784606934,,,
10.3125000000,1,-0.5418090820,,,
10.3281250000,1,-1.0351790190,,,
10.3437500000,1,-1.4356000423,,,
10.3593750000,1,-1.6733089685,,,
10.3750000000,1,-1.7602159977,,,
10.3906250000,1,-1.7613140345,,,
10.4062500000,1,-1.7493289709,,,
10.4218750000,1,-1.7602159977,,,
10.4375000000,1,-1.7283170223,,,
10.4531250000,1,-1.5555269718,,,
10.4687500000,1,-1.1672290564,,,
10.4843750000,1,-0.5700684190,,,
10.5000000000,1,0.1234588996,,,
10.5156250000,1,0.7482604980,,,
10.5312500000,1,1.1793290377,,,
10.5468750000,1,1.3771129847,,,
10.5625000000,1,1.4034119844,,,
10.5781250000,1,1.3685760498,,,
10.5937500000,1,1.3355710506,,,
10.6093750000,1,1.2982790470,,,
10.6250000000,1,1.1835629940,,,
10.6406250000,1,0.9397202134,,,
10.6562500000,1,0.6043549180,,,
10.6718750000,1,0.3138504028,,,
10.6875000000,1,0.2286071926,,,
10.7031250000,1,0.4474182129,,,
10.7187500000,1,0.9159317017,,,
10.7343750000,1,1.4237060547,,,
10.7500000000,1,1.7213820219,,,
10.7656250000,1,1.6509629488,,,
10.7812500000,1,1.1952899694,,,
10.7968750000,1,0.4997558892,,,
10.8125000000,1,-0.2411269993,,,
10.8281250000,1,-0.9036026001,,,
10.8437500000,1,-1.4326020479,,,
10.8593750000,1,-1.8368680477,,,
10.8750000000,1,-2.1392440796,,,
10.8906250000,1,-2.3129730225,,,
10.9062500000,1,-2.3100049496,,,
10.9218750000,1,-2.1246190071,,,
10.9375000000,1,-1.8044589758,,,
10.9531250000,1,-1.4207079411,,,
10.9687500000,1,-1.0609279871,,,
10.9843750000,1,-0.7446898818,,,
11.0000000000,1,-0.4377059937,,,
11.0156250000,1,-0.1043090969,,,
11.0312500000,1,0.2768172920,,,
11.0468750000,1,0.6559829712,,,
11.0625000000,1,0.9839478135,,,
11.0781250000,1,1.2563860416,,,
11.0937500000,1,1.5264049768,,,
11.1093750000,1,1.8519209623,,,
11.1250000000,1,2.2594380379,,,
11.1406250000,1,2.6790390015,,,
11.1562500000,1,2.9815139771,,,
11.1718750000,1,3.0492100716,,,
11.1875000000,1,2.8434140682,,,
11.2031250000,1,2.4218440056,,,
11.2187500000,1,1.9062119722,,,
11.2343750000,1,1.4000469446,,,
11.2500000000,1,0.9364243150,,,
11.2656250000,1,0.5000687242,,,
11.2812500000,1,0.0437545814,,,
11.2968750000,1,-0.4278487861,,,
11.3125000000,1,-0.8306961060,,,
11.3281250000,1,-1.0854640007,,,
11.3437500000,1,-1.1249239445,,,
11.3593750000,1,-0.9639664292,,,
11.3750000000,1,-0.7017670274,,,
11.3906250000,1,-0.4650268853,,,
11.4062500000,1,-0.3349457085,,,
11.4218750000,1,-0.3151321113,,,
11.4375000000,1,-0.3405227959,,,
11.4531250000,1,-0.3136444092,,,
11.4687500000,1,-0.1665877998,,,
11.4843750000,1,0.1035918966,,,
11.5000000000,1,0.4301758111,,,
11.5156250000,1,0.7161102295,,,
11.5312500000,1,0.8634948730,,,
11.5468750000,1,0.8401259780,,,
11.5625000000,1,0.6482468247,,,
11.5781250000,1,0.3179855049,,,
11.5937500000,1,-0.1100158989,,,
11.6093750000,1,-0.6074295044,,,
11.6250000000,1,-1.1467820406,,,
11.6406250000,1,-1.6667710543,,,
11.6562500000,1,-2.0850679874,,,
11.6718750000,1,-2.3346250057,,,
11.6875000000,1,-2.3709719181,,,
11.7031250000,1,-2.2043230534,,,
11.7187500000,1,-1.8755340576,,,
11.7343750000,1,-1.4660949707,,,
11.7500000000,1,-1.0461649895,,,
11.7656250000,1,-0.6770706177,,,
11.7812500000,1,-0.3859862983,,,
11.7968750000,1,-0.1767425984,,,
11.8125000000,1,-0.0329971313,,,
11.8281250000,1,0.0684280396,,,
11.8437500000,1,0.1401138008,,,
11.8593750000,1,0.1799622029,,,
11.8750000000,1,0.1765594035,,,
11.8906250000,1,0.1014480963,,,
11.9062500000,1,-0.0678863525,,,
11.9218750000,1,-0.3128204048,,,
11.9375000000,1,-0.5912932754,,,
11.9531250000,1,-0.8540496826,,,
11.9687500000,1,-1.0523610115,,,
11.9843750000,1,-1.1481479406,,,
12.0000000000,1,-1.1326450109,,,
12.0156250000,1,-0.9890518188,,,
12.0312500000,1,-0.7522429824,,,
12.0468750000,1,-0.4800643921,,,
12.0625000000,1,-0.2562561035,,,
12.0781250000,1,-0.1572570950,,,
12.0937500000,1,-0.1956939995,,,
12.1093750000,1,-0.3216933906,,,
12.1250000000,1,-0.4276047051,,,
12.1406250000,1,-0.4171370864,,,
12.1562500000,1,-0.2281569988,,,
12.1718750000,1,0.1271591038,,,
12.1875000000,1,0.5815277100,,,
12.2031250000,1,1.0508420467,,,
12.2187500000,1,1.4649889469,,,
12.2343750000,1,1.7942429781,,,
12.2500000000,1,2.0308070183,,,
12.2656250000,1,2.1554110050,,,
12.2812500000,1,2.1439590454,,,
12.2968750000,1,1.9831999540,,,
12.3125000000,1,1.6761699915,,,
12.3281250000,1,1.2580180168,,,
12.3437500000,1,0.8031768799,,,
12.3593750000,1,0.3923186958,,,
12.3750000000,1,0.0988159180,,,
12.3906250000,1,-0.0369796790,,,
12.4062500000,1,-0.0289459191,,,
12.4218750000,1,0.0726470873,,,
12.4375000000,1,0.1971587986,,,
12.4531250000,1,0.2757338881,,,
12.4687500000,1,0.2663269043,,,
12.4843750000,1,0.1722106934,,,
12.5000000000,1,0.0250473004,,,
12.5156250000,1,-0.1296081990,,,
12.5312500000,1,-0.2508620918,,,
12.5468750000,1,-0.3227309883,,,
12.5625000000,1,-0.3334732056,,,
12.5781250000,1,-0.3002395928,,,
12.5937500000,1,-0.2448959053,,,
12.6093750000,1,-0.1973648071,,,
12.6250000000,1,-0.1932449043,,,
12.6406250000,1,-0.2894744873,,,
12.6562500000,1,-0.5171585083,,,
12.6718750000,1,-0.8537520766,,,
12.6875000000,1,-1.2250670195,,,
12.7031250000,1,-1.4983220100,,,
12.7187500000,1,-1.5782320499,,,
12.7343750000,1,-1.4257129431,,,
12.7500000000,1,-1.0933840275,,,
12.7656250000,1,-0.6796187758,,,
12.7812500000,1,-0.2731094062,,,
12.7968750000,1,0.1107024997,,,
12.8125000000,1,0.5096892715,,,
12.8281250000,1,0.9327164292,,,
12.8437500000,1,1.3466030359,,,
12.8593750000,1,1.6339260340,,,
12.8750000000,1,1.6838300228,,,
12.8906250000,1,1.4406360388,,,
12.9062500000,1,0.9683151245,,,
12.9218750000,1,0.4069977105,,,
12.9375000000,1,-0.0905304030,,,
12.9531250000,1,-0.4419785142,,,
12.9687500000,1,-0.6756821275,,,
12.9843750000,1,-0.8626633286,,,
13.0000000000,1,-1.0687710047,,,
13.0156250000,1,-1.2636179924,,,
13.0312500000,1,-1.3799060583,,,
13.0468750000,1,-1.3389129639,,,
13.0625000000,1,-1.1060179472,,,
13.0781250000,1,-0.7316284180,,,
13.0937500000,1,-0.3351134956,,,
13.1093750000,1,-0.0491867103,,,
13.1250000000,1,0.0618286096,,,
13.1406250000,1,0.0074462891,,,
13.1562500000,1,-0.1055144966,,,
13.1718750000,1,-0.1564712971,,,
13.1875000000,1,-0.0783233568,,,
13.2031250000,1,0.1195679009,,,
13.2187500000,1,0.3220215142,,,
13.2343750000,1,0.4178313911,,,
13.2500000000,1,0.3361052871,,,
13.2656250000,1,0.1247939989,,,
13.2812500000,1,-0.1140671000,,,
13.2968750000,1,-0.2681655884,,,
13.3125000000,1,-0.2573775947,,,
13.3281250000,1,-0.1166915968,,,
13.3437500000,1,0.0675659180,,,
13.3593750000,1,0.1986313015,,,
13.3750000000,1,0.2594070137,,,
13.3906250000,1,0.2643127143,,,
13.4062500000,1,0.2647018135,,,
13.4218750000,1,0.2912979126,,,
13.4375000000,1,0.3246383965,,,
13.4531250000,1,0.3592833877,,,
13.4687500000,1,0.3787688911,,,
13.4843750000,1,0.3971176147,,,
13.5000000000,1,0.4031676948,,,
13.5156250000,1,0.4115523994,,,
13.5312500000,1,0.4343262017,,,
13.5468750000,1,0.4916000068,,,
13.5625000000,1,0.6137465835,,,
13.5781250000,1,0.8007277846,,,
13.5937500000,1,1.0165859461,,,
13.6093750000,1,1.1649930477,,,
13.6250000000,1,1.1562650204,,,
13.6406250000,1,0.9272766113,,,
13.6562500000,1,0.5206223130,,,
13.6718750000,1,0.0511093102,,,
13.6875000000,1,-0.3310776055,,,
13.7031250000,1,-0.4946441948,,,
13.7187500000,1,-0.4078674018,,,
13.7343750000,1,-0.1266631931,,,
13.7500000000,1,0.2186661065,,,
13.7656250000,1,0.5030670166,,,
13.7812500000,1,0.6431961060,,,
13.7968750000,1,0.6082152724,,,
13.8125000000,1,0.4167557061,,,
13.8281250000,1,0.1137695014,,,
13.8437500000,1,-0.2439727932,,,
13.8593750000,1,-0.5902327895,,,
13.8750000000,1,-0.8317337036,,,
13.8906250000,1,-0.9146729112,,,
13.9062500000,1,-0.8165894151,,,
13.9218750000,1,-0.5799102783,,,
13.9375000000,1,-0.3241958916,,,
13.9531250000,1,-0.1817321926,,,
13.9687500000,1,-0.2494353950,,,
13.9843750000,1,-0.5364151001,,,
14.0000000000,1,-0.9611511230,,,
14.0156250000,1,-1.3614729643,,,
14.0312500000,1,-1.5818860531,,,
14.0468750000,1,-1.5250630379,,,
14.0625000000,1,-1.2042920589,,,
14.0781250000,1,-0.7372208238,,,
14.0937500000,1,-0.2872925103,,,
14.1093750000,1,-0.0114059402,,,
14.1250000000,1,-0.0020141599,,,
14.1406250000,1,-0.2484741062,,,
14.1562500000,1,-0.6332396865,,,
14.1718750000,1,-0.9850997925,,,
14.1875000000,1,-1.1448520422,,,
14.2031250000,1,-1.0371630192,,,
14.2187500000,1,-0.6944503784,,,
14.2343750000,1,-0.2338027954,,,
14.2500000000,1,0.2028426975,,,
14.2656250000,1,0.5015488267,,,
14.2812500000,1,0.6095123291,,,
14.2968750000,1,0.5397567749,,,
14.3125000000,1,0.3588714898,,,
14.3281250000,1,0.1519012004,,,
14.3437500000,1,-0.0034561160,,,
14.3593750000,1,-0.0489730798,,,
14.3750000000,1,0.0402603112,,,
14.3906250000,1,0.2319411933,,,
14.4062500000,1,0.4801558852,,,
14.4218750000,1,0.7086638808,,,
14.4375000000,1,0.8517150879,,,
14.4531250000,1,0.8935927749,,,
14.4687500000,1,0.8634185791,,,
14.4843750000,1,0.8288878798,,,
14.5000000000,1,0.8387603760,,,
14.5156250000,1,0.9293975830,,,
14.5312500000,1,1.0677720308,,,
14.5468750000,1,1.1885149479,,,
14.5625000000,1,1.2294160128,,,
14.5781250000,1,1.1605679989,,,
14.5937500000,1,1.0227739811,,,
14.6093750000,1,0.8779830933,,,
14.6250000000,1,0.7863082886,,,
14.6406250000,1,0.7443923950,,,
14.6562500000,1,0.6937255859,,,
14.6718750000,1,0.5593109131,,,
14.6875000000,1,0.3121643066,,,
14.7031250000,1,-0.0092926025,,,
14.7187500000,1,-0.3131713867,,,
14.7343750000,1,-0.4902266860,,,
14.7500000000,1,-0.5115355849,,,
14.7656250000,1,-0.4036864936,,,
14.7812500000,1,-0.2300186008,,,
14.7968750000,1,-0.0503692590,,,
14.8125000000,1,0.1366652995,,,
14.8281250000,1,0.3651809990,,,
14.8437500000,1,0.6573638916,,,
14.8593750000,1,0.9884796143,,,
14.8750000000,1,1.2656170130,,,
14.8906250000,1,1.3462369442,,,
14.9062500000,1,1.1295700073,,,
14.9218750000,1,0.5983353257,,,
14.9375000000,1,-0.1678542942,,,
14.9531250000,1,-1.0145419836,,,
14.9687500000,1,-1.7716059685,,,
14.9843750000,1,-2.3095779419,,,
15.0000000000,1,-2.5694270134,,,
15.0156250000,1,-2.5368731022,,,
15.0312500000,1,-2.2271881104,,,
15.0468750000,1,-1.6790920496,,,
15.0625000000,1,-0.9314270020,,,
15.0781250000,1,-0.0905075073,,,
15.0937500000,1,0.7152022719,,,
15.1093750000,1,1.3386759758,,,
15.1250000000,1,1.6789170504,,,
15.1406250000,1,1.7230609655,,,
15.1562500000,1,1.5648729801,,,
15.1718750000,1,1.3635859489,,,
15.1875000000,1,1.2372889519,,,
15.2031250000,1,1.2329709530,,,
15.2187500000,1,1.2563630342,,,
15.2343750000,1,1.1718219519,,,
15.2500000000,1,0.8701477051,,,
15.2656250000,1,0.3538360894,,,
15.2812500000,1,-0.2505416870,,,
15.2968750000,1,-0.7709732056,,,
15.3125000000,1,-1.0769419670,,,
15.3281250000,1,-1.1351009607,,,
15.3437500000,1,-1.0124659538,,,
15.3593750000,1,-0.8256378174,,,
15.3750000000,1,-0.6510925293,,,
15.3906250000,1,-0.5111008286,,,
15.4062500000,1,-0.3716048896,,,
15.4218750000,1,-0.2079696953,,,
15.4375000000,1,-0.0457458496,,,
15.4531250000,1,0.0418777503,,,
15.4687500000,1,0.0022048950,,,
15.4843750000,1,-0.1697234958,,,
15.5000000000,1,-0.3949126899,,,
15.5156250000,1,-0.5750350952,,,
15.5312500000,1,-0.6328430176,,,
15.5468750000,1,-0.5855178833,,,
15.5625000000,1,-0.5146179199,,,
15.5781250000,1,-0.5371552110,,,
15.5937500000,1,-0.7155838013,,,
15.6093750000,1,-1.0129699707,,,
15.6250000000,1,-1.3106989861,,,
15.6406250000,1,-1.4803090096,,,
15.6562500000,1,-1.4425890446,,,
15.6718750000,1,-1.1824799776,,,
15.6875000000,1,-0.8032379150,,,
15.7031250000,1,-0.4183959961,,,
15.7187500000,1,-0.1513901055,,,
15.7343750000,1,-0.0564117394,,,
15.7500000000,1,-0.1137543023,,,
15.7656250000,1,-0.2272873074,,,
15.7812500000,1,-0.2812500000,,,
15.7968750000,1,-0.1892928928,,,
15.8125000000,1,0.0838775635,,,
15.8281250000,1,0.4797058105,,,
15.8437500000,1,0.8992996216,,,
15.8593750000,1,1.2300870419,,,
15.8750000000,1,1.4017560482,,,
15.8906250000,1,1.3816070557,,,
15.9062500000,1,1.2024689913,,,
15.9218750000,1,0.9313430786,,,
15.9375000000,1,0.6299285889,,,
15.9531250000,1,0.3848418891,,,
15.9687500000,1,0.2647705078,,,
15.9843750000,1,0.3325729072,,,
16.0000000000,2,0.6273422241,,,
16.0156250000,2,1.1277010441,,,
16.0312500000,2,1.7485810518,,,
16.0468750000,2,2.3650670052,,,
16.0625000000,2,2.8315579891,,,
16.0781250000,2,3.0050430298,,,
16.0937500000,2,2.7855529785,,,
16.1093750000,2,2.1310350895,,,
16.1250000000,2,1.1148680449,,,
16.1406250000,2,-0.1100006029,,,
16.1562500000,2,-1.2949140072,,,
16.1718750000,2,-2.1803278923,,,
16.1875000000,2,-2.5910949707,,,
16.2031250000,2,-2.4882891178,,,
16.2187500000,2,-2.0174939632,,,
16.2343750000,2,-1.4106220007,,,
16.2500000000,2,-0.9250031114,,,
16.2656250000,2,-0.7064055800,,,
16.2812500000,2,-0.7738800049,,,
16.2968750000,2,-1.0298229456,,,
16.3125000000,2,-1.3071140051,,,
16.3281250000,2,-1.4628299475,,,
16.3437500000,2,-1.4205780029,,,
16.3593750000,2,-1.1915129423,,,
16.3750000000,2,-0.8350983262,,,
16.3906250000,2,-0.4554825127,,,
16.4062500000,2,-0.1302566975,,,
16.4218750000,2,0.0921249390,,,
16.4375000000,2,0.1764983982,,,
16.4531250000,2,0.1335220039,,,
16.4687500000,2,-0.0283889808,,,
16.4843750000,2,-0.2730942070,,,
16.5000000000,2,-0.5518035889,,,
16.5156250000,2,-0.8035125732,,,
16.5312500000,2,-0.9657744765,,,
16.5468750000,2,-0.9808884263,,,
16.5625000000,2,-0.8434906006,,,
16.5781250000,2,-0.6005858779,,,
16.5937500000,2,-0.3384932876,,,
16.6093750000,2,-0.1827163994,,,
16.6250000000,2,-0.1754608005,,,
16.6406250000,2,-0.3249435127,,,
16.6562500000,2,-0.5358046889,,,
16.6718750000,2,-0.7108994126,,,
16.6875000000,2,-0.7807769775,,,
16.7031250000,2,-0.7460631728,,,
16.7187500000,2,-0.6896973252,,,
16.7343750000,2,-0.6752089858,,,
16.7500000000,2,-0.7548369765,,,
16.7656250000,2,-0.8441237807,,,
16.7812500000,2,-0.8389359117,,,
16.7968750000,2,-0.6581726074,,,
16.8125000000,2,-0.2942580879,,,
16.8281250000,2,0.1825789958,,,
16.8437500000,2,0.6840056777,,,
16.8593750000,2,1.1684950590,,,
16.8750000000,2,1.6415859461,,,
16.8906250000,2,2.0621719360,,,
16.9062500000,2,2.3551940918,,,
16.9218750000,2,2.4014050961,,,
16.9375000000,2,2.0890200138,,,
16.9531250000,2,1.4516220093,,,
16.9687500000,2,0.6783217788,,,
16.9843750000,2,0.0211181603,,,
17.0000000000,2,-0.3020248115,,,
17.0156250000,2,-0.2264403999,,,
17.0312500000,2,0.1057358012,,,
17.0468750000,2,0.4783630073,,,
17.0625000000,2,0.6978148818,,,
17.0781250000,2,0.6763916016,,,
17.0937500000,2,0.4797362983,,,
17.1093750000,2,0.2154006958,,,
17.1250000000,2,-0.0152893104,,,
17.1406250000,2,-0.1770325005,,,
17.1562500000,2,-0.2505187988,,,
17.1718750000,2,-0.2565993965,,,
17.1875000000,2,-0.1863022000,,,
17.2031250000,2,-0.0190200806,,,
17.2187500000,2,0.2378005981,,,
17.2343750000,2,0.5706253052,,,
17.2500000000,2,0.8978118896,,,
17.2656250000,2,1.1323239803,,,
17.2812500000,2,1.1703640223,,,
17.2968750000,2,0.9658966064,,,
17.3125000000,2,0.5107802749,,,
17.3281250000,2,-0.0803604126,,,
17.3437500000,2,-0.6556090713,,,
17.3593750000,2,-1.0458220243,,,
17.3750000000,2,-1.1283340454,,,
17.3906250000,2,-0.9211196899,,,
17.4062500000,2,-0.5673676133,,,
17.4218750000,2,-0.2718811035,,,
17.4375000000,2,-0.1823654026,,,
17.4531250000,2,-0.3385773003,,,
17.4687500000,2,-0.5889664292,,,
17.4843750000,2,-0.7486342788,,,
17.5000000000,2,-0.6979445815,,,
17.5156250000,2,-0.4490356147,,,
17.5312500000,2,-0.1679001004,,,
17.5468750000,2,-0.0362319909,,,
17.5625000000,2,-0.1509476006,,,
17.5781250000,2,-0.4450607002,,,
17.5937500000,2,-0.7458267212,,,
17.6093750000,2,-0.8520889282,,,
17.6250000000,2,-0.6754456162,,,
17.6406250000,2,-0.2957915962,,,
17.6562500000,2,0.1321640015,,,
17.6718750000,2,0.4507293999,,,
17.6875000000,2,0.5882720947,,,
17.7031250000,2,0.5922927856,,,
17.7187500000,2,0.5568923950,,,
17.7343750000,2,0.5662307739,,,
17.7500000000,2,0.6449127197,,,
17.7656250000,2,0.7625885010,,,
17.7812500000,2,0.8426514268,,,
17.7968750000,2,0.8449782729,,,
17.8125000000,2,0.7606430054,,,
17.8281250000,2,0.6345595717,,,
17.8437500000,2,0.5415955186,,,
17.8593750000,2,0.5379639268,,,
17.8750000000,2,0.6348114014,,,
17.8906250000,2,0.7652587891,,,
17.9062500000,2,0.8504561782,,,
17.9218750000,2,0.7899628282,,,
17.9375000000,2,0.5616455078,,,
17.9531250000,2,0.1741943061,,,
17.9687500000,2,-0.2928161919,,,
17.9843750000,2,-0.7400054932,,,
18.0000000000,2,-1.0761719942,,,
18.0156250000,2,-1.2402950525,,,
18.0312500000,2,-1.2447969913,,,
18.0468750000,2,-1.1280820370,,,
18.0625000000,2,-0.9655761719,,,
18.0781250000,2,-0.8038712144,,,
18.0937500000,2,-0.6687468886,,,
18.1093750000,2,-0.5421906114,,,
18.1250000000,2,-0.3923873901,,,
18.1406250000,2,-0.1849364936,,,
18.1562500000,2,0.0790405273,,,
18.1718750000,2,0.3710556030,,,
18.1875000000,2,0.6425095201,,,
18.2031250000,2,0.8567581177,,,
18.2187500000,2,1.0020519495,,,
18.2343750000,2,1.0769120455,,,
18.2500000000,2,1.0996400118,,,
18.2656250000,2,1.0653920174,,,
18.2812500000,2,0.9539641738,,,
18.2968750000,2,0.7359923720,,,
18.3125000000,2,0.4101257026,,,
18.3281250000,2,0.0130081195,,,
18.3437500000,2,-0.4011765122,,,
18.3593750000,2,-0.7609786987,,,
18.3750000000,2,-1.0155940056,,,
18.3906250000,2,-1.1426539421,,,
18.4062500000,2,-1.1414339542,,,
18.4218750000,2,-1.0286710262,,,
18.4375000000,2,-0.8066254258,,,
18.4531250000,2,-0.4806900024,,,
18.4687500000,2,-0.0468597412,,,
18.4843750000,2,0.4549179077,,,
18.5000000000,2,0.9695739746,,,
18.5156250000,2,1.4094090462,,,
18.5312500000,2,1.7244800329,,,
18.5468750000,2,1.9134219885,,,
18.5625000000,2,2.0315699577,,,
18.5781250000,2,2.1384658813,,,
18.5937500000,2,2.2497410774,,,
18.6093750000,2,2.3171079159,,,
18.6250000000,2,2.2244949341,,,
18.6406250000,2,1.9084630013,,,
18.6562500000,2,1.3680340052,,,
18.6718750000,2,0.6784744263,,,
18.6875000000,2,-0.0462951697,,,
18.7031250000,2,-0.7119522095,,,
18.7187500000,2,-1.2658230066,,,
18.7343750000,2,-1.6748729944,,,
18.7500000000,2,-1.9234160185,,,
18.7656250000,2,-1.9842070341,,,
18.7812500000,2,-1.8436510563,,,
18.7968750000,2,-1.5501630306,,,
18.8125000000,2,-1.2168350220,,,
18.8281250000,2,-0.9740142822,,,
18.8437500000,2,-0.9114531875,,,
18.8593750000,2,-1.0142209530,,,
18.8750000000,2,-1.1971590519,,,
18.8906250000,2,-1.3629380465,,,
18.9062500000,2,-1.4846730232,,,
18.9218750000,2,-1.6041179895,,,
18.9375000000,2,-1.7905579805,,,
18.9531250000,2,-2.0716860294,,,
18.9687500000,2,-2.3627169132,,,
18.9843750000,2,-2.5177149773,,,
19.0000000000,2,-2.3797678947,,,
19.0156250000,2,-1.9060289860,,,
19.0312500000,2,-1.1768419743,,,
19.0468750000,2,-0.3821564019,,,
19.0625000000,2,0.2830047905,,,
19.0781250000,2,0.6957550049,,,
19.0937500000,2,0.8588637710,,,
19.1093750000,2,0.8831406236,,,
19.1250000000,2,0.8935164809,,,
19.1406250000,2,0.9950408936,,,
19.1562500000,2,1.1869579554,,,
19.1718750000,2,1.3828959465,,,
19.1875000000,2,1.4657210112,,,
19.2031250000,2,1.3363649845,,,
19.2187500000,2,0.9705734253,,,
19.2343750000,2,0.4396514893,,,
19.2500000000,2,-0.1525344998,,,
19.2656250000,2,-0.7078781128,,,
19.2812500000,2,-1.1286239624,,,
19.2968750000,2,-1.3333660364,,,
19.3125000000,2,-1.2611080408,,,
19.3281250000,2,-0.8882675171,,,
19.3437500000,2,-0.2477492988,,,
19.3593750000,2,0.5158463120,,,
19.3750000000,2,1.2202910185,,,
19.3906250000,2,1.6878809929,,,
19.4062500000,2,1.8181300163,,,
19.4218750000,2,1.6343990564,,,
19.4375000000,2,1.2640910149,,,
19.4531250000,2,0.8515701294,,,
19.4687500000,2,0.5004425049,,,
19.4843750000,2,0.2461165935,,,
19.5000000000,2,0.0914840698,,,
19.5156250000,2,0.0345230103,,,
19.5312500000,2,0.0729980469,,,
19.5468750000,2,0.2036284953,,,
19.5625000000,2,0.3824538887,,,
19.5781250000,2,0.5355911255,,,
19.5937500000,2,0.5906295776,,,
19.6093750000,2,0.5095900893,,,
19.6250000000,2,0.3016357124,,,
19.6406250000,2,0.0292968806,,,
19.6562500000,2,-0.2056427002,,,
19.6718750000,2,-0.3283385932,,,
19.6875000000,2,-0.2767333984,,,
19.7031250000,2,-0.0722122192,,,
19.7187500000,2,0.2040328979,,,
19.7343750000,2,0.4282455146,,,
19.7500000000,2,0.4801253974,,,
19.7656250000,2,0.2988052070,,,
19.7812500000,2,-0.0848693773,,,
19.7968750000,2,-0.5290985107,,,
19.8125000000,2,-0.8649901748,,,
19.8281250000,2,-0.9657440186,,,
19.8437500000,2,-0.8076096177,,,
19.8593750000,2,-0.4968262017,,,
19.8750000000,2,-0.1784134060,,,
19.8906250000,2,0.0178756695,,,
19.9062500000,2,0.0454864502,,,
19.9218750000,2,-0.0627517700,,,
19.9375000000,2,-0.2236557007,,,
19.9531250000,2,-0.3555450141,,,
19.9687500000,2,-0.4096984863,,,
19.9843750000,2,-0.3929825127,,,
20.0000000000,2,-0.3392409980,,,
20.0156250000,2,-0.2649841011,,,
20.0312500000,2,-0.1839293987,,,
20.0468750000,2,-0.1015700996,,,
20.0625000000,2,-0.0320587195,,,
20.0781250000,2,-0.0116577102,,,
20.0937500000,2,-0.0567779504,,,
20.1093750000,2,-0.1093903035,,,
20.1250000000,2,-0.0857467726,,,
20.1406250000,2,0.0801925734,,,
20.1562500000,2,0.4065017998,,,
20.1718750000,2,0.7766190171,,,
20.1875000000,2,1.0381239653,,,
20.2031250000,2,1.0571589470,,,
20.2187500000,2,0.8142241836,,,
20.2343750000,2,0.4023284912,,,
20.2500000000,2,-0.0084686279,,,
20.2656250000,2,-0.2768630981,,,
20.2812500000,2,-0.3460083008,,,
20.2968750000,2,-0.2375106961,,,
20.3125000000,2,-0.0225219708,,,
20.3281250000,2,0.2530212104,,,
20.3437500000,2,0.5633239746,,,
20.3593750000,2,0.8862305284,,,
20.3750000000,2,1.1656719446,,,
20.3906250000,2,1.3101040125,,,
20.4062500000,2,1.2757949829,,,
20.4218750000,2,1.0605159998,,,
20.4375000000,2,0.7623596191,,,
20.4531250000,2,0.5020751953,,,
20.4687500000,2,0.3846206963,,,
20.4843750000,2,0.4613418877,,,
20.5000000000,2,0.7149733901,,,
20.5156250000,2,1.0625690222,,,
20.5312500000,2,1.3949359655,,,
20.5468750000,2,1.6162869930,,,
20.5625000000,2,1.6506199837,,,
20.5781250000,2,1.4727250338,,,
20.5937500000,2,1.0929869413,,,
20.6093750000,2,0.5933532715,,,
20.6250000000,2,0.0779418871,,,
20.6406250000,2,-0.3431167901,,,
20.6562500000,2,-0.5854874253,,,
20.6718750000,2,-0.6562271118,,,
20.6875000000,2,-0.5853043199,,,
20.7031250000,2,-0.4567107856,,,
20.7187500000,2,-0.3496704102,,,
20.7343750000,2,-0.3441543877,,,
20.7500000000,2,-0.4635238945,,,
20.7656250000,2,-0.6899414063,,,
20.7812500000,2,-0.9824600220,,,
20.7968750000,2,-1.2649149895,,,
20.8125000000,2,-1.4872130156,,,
20.8281250000,2,-1.5984339714,,,
20.8437500000,2,-1.6156009436,,,
20.8593750000,2,-1.5671540499,,,
20.8750000000,2,-1.4802930355,,,
20.8906250000,2,-1.3815380335,,,
20.9062500000,2,-1.2343519926,,,
20.9218750000,2,-0.9890136719,,,
20.9375000000,2,-0.6023712158,,,
20.9531250000,2,-0.1017913967,,,
20.9687500000,2,0.4001465142,,,
20.9843750000,2,0.7172089219,,,
21.0000000000,2,0.7053452134,,,
21.0156250000,2,0.3142929077,,,
21.0312500000,2,-0.3703765869,,,
21.0468750000,2,-1.1419830322,,,
21.0625000000,2,-1.7733989954,,,
21.0781250000,2,-2.1049189568,,,
21.0937500000,2,-2.0761029720,,,
21.1093750000,2,-1.7051620483,,,
21.1250000000,2,-1.0985640287,,,
21.1406250000,2,-0.3923873901,,,
21.1562500000,2,0.2720108032,,,
21.1718750000,2,0.7659912109,,,
21.1875000000,2,1.0212939978,,,
21.2031250000,2,1.0297319889,,,
21.2187500000,2,0.8622130752,,,
21.2343750000,2,0.6333466172,,,
21.2500000000,2,0.4507522881,,,
21.2656250000,2,0.3727797866,,,
21.2812500000,2,0.3923645020,,,
21.2968750000,2,0.4443817139,,,
21.3125000000,2,0.4824599922,,,
21.3281250000,2,0.4999083877,,,
21.3437500000,2,0.5278549194,,,
21.3593750000,2,0.5859528184,,,
21.3750000000,2,0.6657562256,,,
21.3906250000,2,0.7092971802,,,
21.4062500000,2,0.6405410767,,,
21.4218750000,2,0.4340896904,,,
21.4375000000,2,0.1208038032,,,
21.4531250000,2,-0.2187805027,,,
21.4687500000,2,-0.4666137993,,,
21.4843750000,2,-0.5375366211,,,
21.5000000000,2,-0.4202880859,,,
21.5156250000,2,-0.1708374023,,,
21.5312500000,2,0.0897369385,,,
21.5468750000,2,0.2539902031,,,
21.5625000000,2,0.2874068916,,,
21.5781250000,2,0.2042846978,,,
21.5937500000,2,0.0546493493,,,
21.6093750000,2,-0.1166229025,,,
21.6250000000,2,-0.3011017144,,,
21.6406250000,2,-0.4967803955,,,
21.6562500000,2,-0.7230147719,,,
21.6718750000,2,-0.9827194214,,,
21.6875000000,2,-1.2351909876,,,
21.7031250000,2,-1.4309619665,,,
21.7187500000,2,-1.5242919922,,,
21.7343750000,2,-1.4860689640,,,
21.7500000000,2,-1.3152309656,,,
21.7656250000,2,-1.0515669584,,,
21.7812500000,2,-0.7205582261,,,
21.7968750000,2,-0.3781127930,,,
21.8125000000,2,-0.0769195631,,,
21.8281250000,2,0.1412810981,,,
21.8437500000,2,0.2482375950,,,
21.8593750000,2,0.2685852051,,,
21.8750000000,2,0.2621994019,,,
21.8906250000,2,0.3115310967,,,
21.9062500000,2,0.4234467149,,,
21.9218750000,2,0.5798187256,,,
21.9375000000,2,0.7083969116,,,
21.9531250000,2,0.7238082886,,,
21.9687500000,2,0.6024550796,,,
21.9843750000,2,0.3892517090,,,
22.0000000000,2,0.1637801975,,,
22.0156250000,2,0.0179901104,,,
22.0312500000,2,-0.0338745117,,,
22.0468750000,2,-0.0571289100,,,
22.0625000000,2,-0.1313094944,,,
22.0781250000,2,-0.3170700073,,,
22.0937500000,2,-0.6027297974,,,
22.1093750000,2,-0.8767852783,,,
22.1250000000,2,-1.0168000460,,,
22.1406250000,2,-0.9245911241,,,
22.1562500000,2,-0.5750122070,,,
22.1718750000,2,-0.0300064106,,,
22.1875000000,2,0.5952301025,,,
22.2031250000,2,1.1642069817,,,
22.2187500000,2,1.5475310087,,,
22.2343750000,2,1.6652070284,,,
22.2500000000,2,1.5150909424,,,
22.2656250000,2,1.1521530151,,,
22.2812500000,2,0.6900330186,,,
22.2968750000,2,0.2498856038,,,
22.3125000000,2,-0.1090546027,,,
22.3281250000,2,-0.3876189888,,,
22.3437500000,2,-0.6461563110,,,
22.3593750000,2,-0.9173278809,,,
22.3750000000,2,-1.1893459558,,,
22.3906250000,2,-1.3547060490,,,
22.4062500000,2,-1.3205339909,,,
22.4218750000,2,-1.0434650183,,,
22.4375000000,2,-0.5815277100,,,
22.4531250000,2,-0.0679321289,,,
22.4687500000,2,0.3415069878,,,
22.4843750000,2,0.5680922866,,,
22.5000000000,2,0.6191483140,,,
22.5156250000,2,0.5816802979,,,
22.5312500000,2,0.5522078872,,,
22.5468750000,2,0.5948181152,,,
22.5625000000,2,0.7364501953,,,
22.5781250000,2,0.9823303223,,,
22.5937500000,2,1.2923200130,,,
22.6093750000,2,1.6078109741,,,
22.6250000000,2,1.8505860567,,,
22.6406250000,2,1.9161380529,,,
22.6562500000,2,1.7663880587,,,
22.6718750000,2,1.4485239983,,,
22.6875000000,2,1.0903320313,,,
22.7031250000,2,0.8350371718,,,
22.7187500000,2,0.7760314941,,,
22.7343750000,2,0.8606339097,,,
22.7500000000,2,0.9549484253,,,
22.7656250000,2,0.9013519287,,,
22.7812500000,2,0.6290131211,,,
22.7968750000,2,0.1959609985,,,
22.8125000000,2,-0.2418975979,,,
22.8281250000,2,-0.5233458877,,,
22.8437500000,2,-0.6062775254,,,
22.8593750000,2,-0.5340651870,,,
22.8750000000,2,-0.4325026870,,,
22.8906250000,2,-0.3943099976,,,
22.9062500000,2,-0.4493027031,,,
22.9218750000,2,-0.5643234253,,,
22.9375000000,2,-0.7141417861,,,
22.9531250000,2,-0.8875808716,,,
22.9687500000,2,-1.1114499569,,,
22.9843750000,2,-1.4061130285,,,
23.0000000000,2,-1.7407150269,,,
23.0156250000,2,-2.0225141048,,,
23.0312500000,2,-2.1208500862,,,
23.0468750000,2,-1.9504849911,,,
23.0625000000,2,-1.4999469519,,,
23.0781250000,2,-0.8674468994,,,
23.0937500000,2,-0.2027664036,,,
23.1093750000,2,0.3686904907,,,
23.1250000000,2,0.7610855103,,,
23.1406250000,2,0.9562149048,,,
23.1562500000,2,1.0015029907,,,
23.1718750000,2,0.9689254761,,,
23.1875000000,2,0.8987274170,,,
23.2031250000,2,0.7677764893,,,
23.2187500000,2,0.5152359009,,,
23.2343750000,2,0.0930099487,,,
23.2500000000,2,-0.4615707099,,,
23.2656250000,2,-1.0316469669,,,
23.2812500000,2,-1.4007639885,,,
23.2968750000,2,-1.3985370398,,,
23.3125000000,2,-0.9716873169,,,
23.3281250000,2,-0.2340317070,,,
23.3437500000,2,0.5752335191,,,
23.3593750000,2,1.2195739746,,,
23.3750000000,2,1.5658650398,,,
23.3906250000,2,1.6398090124,,,
23.4062500000,2,1.5727690458,,,
23.4218750000,2,1.5241320133,,,
23.4375000000,2,1.5663069487,,,
23.4531250000,2,1.6728210449,,,
23.4687500000,2,1.7554320097,,,
23.4843750000,2,1.7246929407,,,
23.5000000000,2,1.5347210169,,,
23.5156250000,2,1.1905750036,,,
23.5312500000,2,0.7368927002,,,
23.5468750000,2,0.1968535930,,,
23.5625000000,2,-0.3668976128,,,
23.5781250000,2,-0.8999022841,,,
23.5937500000,2,-1.3402860165,,,
23.6093750000,2,-1.6048510075,,,
23.6250000000,2,-1.6540369987,,,
23.6406250000,2,-1.5008159876,,,
23.6562500000,2,-1.2049410343,,,
23.6718750000,2,-0.8690186143,,,
23.6875000000,2,-0.6021422744,,,
23.7031250000,2,-0.4693984985,,,
23.7187500000,2,-0.5109481812,,,
23.7343750000,2,-0.7176589966,,,
23.7500000000,2,-1.0242999792,,,
23.7656250000,2,-1.3469469547,,,
23.7812500000,2,-1.5725170374,,,
23.7968750000,2,-1.6063840389,,,
23.8125000000,2,-1.4164279699,,,
23.8281250000,2,-1.0713200569,,,
23.8437500000,2,-0.6917343140,,,
23.8593750000,2,-0.4264526069,,,
23.8750000000,2,-0.3308182061,,,
23.8906250000,2,-0.3527373970,,,
23.9062500000,2,-0.3325805962,,,
23.9218750000,2,-0.0976104736,,,
23.9375000000,2,0.4524993896,,,
23.9531250000,2,1.2473449707,,,
23.9687500000,2,2.0801849365,,,
23.9843750000,2,2.6978380680,,,
24.0000000000,3,2.8957750797,,,
24.0156250000,3,2.6391448975,,,
24.0312500000,3,2.0605010986,,,
24.0468750000,3,1.3524780273,,,
24.0625000000,3,0.6808242798,,,
24.0781250000,3,0.1097870022,,,
24.0937500000,3,-0.3886795044,,,
24.1093750000,3,-0.8636168838,,,
24.1250000000,3,-1.2743910551,,,
24.1406250000,3,-1.5412060022,,,
24.1562500000,3,-1.5546720028,,,
24.1718750000,3,-1.3099900484,,,
24.1875000000,3,-0.9484406114,,,
24.2031250000,3,-0.6982802749,,,
24.2187500000,3,-0.7326201797,,,
24.2343750000,3,-1.0488890409,,,
24.2500000000,3,-1.4360430241,,,
24.2656250000,3,-1.5814820528,,,
24.2812500000,3,-1.2804490328,,,
24.2968750000,3,-0.5272827148,,,
24.3125000000,3,0.4593276978,,,
24.3281250000,3,1.3728710413,,,
24.3437500000,3,1.9647450447,,,
24.3593750000,3,2.1389310360,,,
24.3750000000,3,1.9515379667,,,
24.3906250000,3,1.5103379488,,,
24.4062500000,3,0.9100112915,,,
24.4218750000,3,0.1975326985,,,
24.4375000000,3,-0.5636597276,,,
24.4531250000,3,-1.2786409855,,,
24.4687500000,3,-1.8120419979,,,
24.4843750000,3,-2.0382459164,,,
24.5000000000,3,-1.9256520271,,,
24.5156250000,3,-1.5640560389,,,
24.5312500000,3,-1.1119840145,,,
24.5468750000,3,-0.7029265761,,,
24.5625000000,3,-0.3984299004,,,
24.5781250000,3,-0.1847915947,,,
24.5937500000,3,0.0247192401,,,
24.6093750000,3,0.2700653076,,,
24.6250000000,3,0.5537108779,,,
24.6406250000,3,0.8331450820,,,
24.6562500000,3,1.0740510225,,,
24.6718750000,3,1.2463680506,,,
24.6875000000,3,1.3583370447,,,
24.7031250000,3,1.4006270170,,,
24.7187500000,3,1.3325580359,,,
24.7343750000,3,1.1164699793,,,
24.7500000000,3,0.7458190918,,,
24.7656250000,3,0.2730712891,,,
24.7812500000,3,-0.1955413967,,,
24.7968750000,3,-0.5519104004,,,
24.8125000000,3,-0.7376633286,,,
24.8281250000,3,-0.7381516099,,,
24.8437500000,3,-0.5902022719,,,
24.8593750000,3,-0.3628616035,,,
24.8750000000,3,-0.1214523017,,,
24.8906250000,3,0.0746307373,,,
24.9062500000,3,0.1475906074,,,
24.9218750000,3,0.0679016113,,,
24.9375000000,3,-0.1501540989,,,
24.9531250000,3,-0.4388656914,,,
24.9687500000,3,-0.6871262193,,,
24.9843750000,3,-0.8115692139,,,
25.0000000000,3,-0.7834166884,,,
25.0156250000,3,-0.6524581909,,,
25.0312500000,3,-0.5048676133,,,
25.0468750000,3,-0.4349747002,,,
25.0625000000,3,-0.4642181098,,,
25.0781250000,3,-0.5969238281,,,
25.0937500000,3,-0.7998427749,,,
25.1093750000,3,-1.0178149939,,,
25.1250000000,3,-1.2021100521,,,
25.1406250000,3,-1.2803729773,,,
25.1562500000,3,-1.1489180326,,,
25.1718750000,3,-0.7503128052,,,
25.1875000000,3,-0.1016312018,,,
25.2031250000,3,0.6836853027,,,
25.2187500000,3,1.4190900326,,,
25.2343750000,3,1.9317859411,,,
25.2500000000,3,2.1305389404,,,
25.2656250000,3,2.0245289803,,,
25.2812500000,3,1.7161870003,,,
25.2968750000,3,1.3245160580,,,
25.3125000000,3,0.9140396118,,,
25.3281250000,3,0.4918518066,,,
25.3437500000,3,0.0364761390,,,
25.3593750000,3,-0.4587936103,,,
25.3750000000,3,-0.9562377930,,,
25.3906250000,3,-1.3541870117,,,
25.4062500000,3,-1.5897140503,,,
25.4218750000,3,-1.6206669807,,,
25.4375000000,3,-1.4818420410,,,
25.4531250000,3,-1.2559429407,,,
25.4687500000,3,-1.0068739653,,,
25.4843750000,3,-0.7607421875,,,
25.5000000000,3,-0.4966660142,,,
25.5156250000,3,-0.1823502034,,,
25.5312500000,3,0.2213135064,,,
25.5468750000,3,0.6744155884,,,
25.5625000000,3,1.1004790068,,,
25.5781250000,3,1.3853529692,,,
25.5937500000,3,1.4382929802,,,
25.6093750000,3,1.2645030022,,,
25.6250000000,3,0.9514771104,,,
25.6406250000,3,0.6079940796,,,
25.6562500000,3,0.3436278999,,,
25.6718750000,3,0.2185059041,,,
25.6875000000,3,0.2281723022,,,
25.7031250000,3,0.3480148017,,,
25.7187500000,3,0.5479735732,,,
25.7343750000,3,0.7939528823,,,
25.7500000000,3,1.0533679724,,,
25.7656250000,3,1.2889790535,,,
25.7812500000,3,1.4837880135,,,
25.7968750000,3,1.6335829496,,,
25.8125000000,3,1.7372740507,,,
25.8281250000,3,1.7635730505,,,
25.8437500000,3,1.6639939547,,,
25.8593750000,3,1.3803559542,,,
25.8750000000,3,0.8971558213,,,
25.8906250000,3,0.2798080146,,,
25.9062500000,3,-0.3465805054,,,
25.9218750000,3,-0.8007584214,,,
25.9375000000,3,-0.9640961289,,,
25.9531250000,3,-0.8369445801,,,
25.9687500000,3,-0.5498961806,,,
25.9843750000,3,-0.2767792046,,,
26.0000000000,3,-0.1322555989,,,
26.0156250000,3,-0.1401596069,,,
26.0312500000,3,-0.2220764011,,,
26.0468750000,3,-0.2586669922,,,
26.0625000000,3,-0.1572646946,,,
26.0781250000,3,0.1059264988,,,
26.0937500000,3,0.4782485962,,,
26.1093750000,3,0.8635634780,,,
26.1250000000,3,1.1515500546,,,
26.1406250000,3,1.2392580509,,,
26.1562500000,3,1.0641560555,,,
26.1718750000,3,0.6256331801,,,
26.1875000000,3,0.0218963604,,,
26.2031250000,3,-0.5950698853,,,
26.2187500000,3,-1.0897749662,,,
26.2343750000,3,-1.3866200447,,,
26.2500000000,3,-1.5157849789,,,
26.2656250000,3,-1.5928959846,,,
26.2812500000,3,-1.7080990076,,,
26.2968750000,3,-1.8661119938,,,
26.3125000000,3,-2.0020220280,,,
26.3281250000,3,-1.9987870455,,,
26.3437500000,3,-1.7791290283,,,
26.3593750000,3,-1.3858569860,,,
26.3750000000,3,-0.8759078979,,,
26.3906250000,3,-0.3418503106,,,
26.4062500000,3,0.1413345039,,,
26.4218750000,3,0.5329741836,,,
26.4375000000,3,0.8071289063,,,
26.4531250000,3,0.9461746216,,,
26.4687500000,3,0.9441605210,,,
26.4843750000,3,0.8193969727,,,
26.5000000000,3,0.6077651978,,,
26.5156250000,3,0.3727188110,,,
26.5312500000,3,0.1680222005,,,
26.5468750000,3,-0.0076293950,,,
26.5625000000,3,-0.1498108059,,,
26.5781250000,3,-0.2600632012,,,
26.5937500000,3,-0.3286896050,,,
26.6093750000,3,-0.3065871894,,,
26.6250000000,3,-0.1648330986,,,
26.6406250000,3,0.1069869995,,,
26.6562500000,3,0.5050734878,,,
26.6718750000,3,0.9583892822,,,
26.6875000000,3,1.3715059757,,,
26.7031250000,3,1.6492840052,,,
26.7187500000,3,1.6768800020,,,
26.7343750000,3,1.3999249935,,,
26.7500000000,3,0.8495255113,,,
26.7656250000,3,0.1204453036,,,
26.7812500000,3,-0.6439362168,,,
26.7968750000,3,-1.2597960234,,,
26.8125000000,3,-1.6323089600,,,
26.8281250000,3,-1.7410130501,,,
26.8437500000,3,-1.6266939640,,,
26.8593750000,3,-1.4076310396,,,
26.8750000000,3,-1.1670529842,,,
26.8906250000,3,-0.9521865845,,,
26.9062500000,3,-0.7475357056,,,
26.9218750000,3,-0.5041809082,,,
26.9375000000,3,-0.1684035957,,,
26.9531250000,3,0.2462310940,,,
26.9687500000,3,0.6436768174,,,
26.9843750000,3,0.9067534804,,,
27.0000000000,3,0.9337540269,,,
27.0156250000,3,0.7216110229,,,
27.0312500000,3,0.3801726997,,,
27.0468750000,3,0.0367965698,,,
27.0625000000,3,-0.2026672065,,,
27.0781250000,3,-0.3192901909,,,
27.0937500000,3,-0.3685837090,,,
27.1093750000,3,-0.4181213081,,,
27.1250000000,3,-0.4708327949,,,
27.1406250000,3,-0.4844818115,,,
27.1562500000,3,-0.3794173896,,,
27.1718750000,3,-0.1465988010,,,
27.1875000000,3,0.1526947021,,,
27.2031250000,3,0.4122619927,,,
27.2187500000,3,0.5074080825,,,
27.2343750000,3,0.3868789971,,,
27.2500000000,3,0.0953903198,,,
27.2656250000,3,-0.2425307930,,,
27.2812500000,3,-0.5144119263,,,
27.2968750000,3,-0.6109313965,,,
27.3125000000,3,-0.4959563911,,,
27.3281250000,3,-0.1824875027,,,
27.3437500000,3,0.2772903144,,,
27.3593750000,3,0.7681503296,,,
27.3750000000,3,1.1676640511,,,
27.3906250000,3,1.3720860481,,,
27.4062500000,3,1.3449549675,,,
27.4218750000,3,1.0830609798,,,
27.4375000000,3,0.6375731826,,,
27.4531250000,3,0.0935668871,,,
27.4687500000,3,-0.4562683105,,,
27.4843750000,3,-0.9147109985,,,
27.5000000000,3,-1.1934280396,,,
27.5156250000,3,-1.2451629639,,,
27.5312500000,3,-1.0725860596,,,
27.5468750000,3,-0.7425842285,,,
27.5625000000,3,-0.3863449097,,,
27.5781250000,3,-0.1096649021,,,
27.5937500000,3,0.0318450890,,,
27.6093750000,3,0.0398330688,,,
27.6250000000,3,-0.0102539100,,,
27.6406250000,3,-0.0503845215,,,
27.6562500000,3,-0.0144576998,,,
27.6718750000,3,0.0990219116,,,
27.6875000000,3,0.2365951985,,,
27.7031250000,3,0.3113555908,,,
27.7187500000,3,0.2455368042,,,
27.7343750000,3,0.0205764808,,,
27.7500000000,3,-0.3229674995,,,
27.7656250000,3,-0.6730803847,,,
27.7812500000,3,-0.9294738770,,,
27.7968750000,3,-1.0160059929,,,
27.8125000000,3,-0.9388732910,,,
27.8281250000,3,-0.7465438843,,,
27.8437500000,3,-0.4986724854,,,
27.8593750000,3,-0.2330169976,,,
27.8750000000,3,0.0291214008,,,
27.8906250000,3,0.2649612129,,,
27.9062500000,3,0.4431610107,,,
27.9218750000,3,0.5177459717,,,
27.9375000000,3,0.4785461128,,,
27.9531250000,3,0.3622589111,,,
27.9687500000,3,0.2710494995,,,
27.9843750000,3,0.2970657051,,,
28.0000000000,3,0.4607315063,,,
28.0156250000,3,0.7025908828,,,
28.0312500000,3,0.8830261230,,,
28.0468750000,3,0.9011611938,,,
28.0625000000,3,0.7170410156,,,
28.0781250000,3,0.3800278008,,,
28.0937500000,3,0.0027542110,,,
28.1093750000,3,-0.3065795898,,,
28.1250000000,3,-0.4490813911,,,
28.1406250000,3,-0.3961791992,,,
28.1562500000,3,-0.1378632039,,,
28.1718750000,3,0.2497559041,,,
28.1875000000,3,0.6527634263,,,
28.2031250000,3,0.9316483140,,,
28.2187500000,3,1.0007480383,,,
28.2343750000,3,0.8582305908,,,
28.2500000000,3,0.6035156250,,,
28.2656250000,3,0.3680037856,,,
28.2812500000,3,0.1938782036,,,
28.2968750000,3,0.0377121009,,,
28.3125000000,3,-0.2171936035,,,
28.3281250000,3,-0.6309890747,,,
28.3437500000,3,-1.1424640417,,,
28.3593750000,3,-1.5338059664,,,
28.3750000000,3,-1.6091309786,,,
28.3906250000,3,-1.2608489990,,,
28.4062500000,3,-0.5755996704,,,
28.4218750000,3,0.2126235962,,,
28.4375000000,3,0.8580626845,,,
28.4531250000,3,1.1963579655,,,
28.4687500000,3,1.2313159704,,,
28.4843750000,3,1.0769419670,,,
28.5000000000,3,0.8604965210,,,
28.5156250000,3,0.6615067124,,,
28.5312500000,3,0.5021286011,,,
28.5468750000,3,0.3667603135,,,
28.5625000000,3,0.2384414971,,,
28.5781250000,3,0.1120453030,,,
28.5937500000,3,-0.0080032349,,,
28.6093750000,3,-0.1050414965,,,
28.6250000000,3,-0.1589736938,,,
28.6406250000,3,-0.1637877971,,,
28.6562500000,3,-0.1116027981,,,
28.6718750000,3,-0.0225067101,,,
28.6875000000,3,0.0631332397,,,
28.7031250000,3,0.0872650072,,,
28.7187500000,3,0.0329894982,,,
28.7343750000,3,-0.0914382935,,,
28.7500000000,3,-0.2287521064,,,
28.7656250000,3,-0.3069305122,,,
28.7812500000,3,-0.2756882012,,,
28.7968750000,3,-0.1341629028,,,
28.8125000000,3,0.0787887573,,,
28.8281250000,3,0.2863998115,,,
28.8437500000,3,0.4121322930,,,
28.8593750000,3,0.4127655029,,,
28.8750000000,3,0.2555694878,,,
28.8906250000,3,-0.0696258470,,,
28.9062500000,3,-0.5424193740,,,
28.9218750000,3,-1.0952379704,,,
28.9375000000,3,-1.6353839636,,,
28.9531250000,3,-2.0370330811,,,
28.9687500000,3,-2.2095339298,,,
28.9843750000,3,-2.1215970516,,,
29.0000000000,3,-1.8149950504,,,
29.0156250000,3,-1.3838729858,,,
29.0312500000,3,-0.9279099107,,,
29.0468750000,3,-0.5012053847,,,
29.0625000000,3,-0.1333618015,,,
29.0781250000,3,0.1708603054,,,
29.0937500000,3,0.3833999932,,,
29.1093750000,3,0.4686127007,,,
29.1250000000,3,0.4058228135,,,
29.1406250000,3,0.2234039009,,,
29.1562500000,3,0.0079803467,,,
29.1718750000,3,-0.1381911933,,,
29.1875000000,3,-0.1457747966,,,
29.2031250000,3,-0.0475845300,,,
29.2187500000,3,0.0513610803,,,
29.2343750000,3,0.0583343506,,,
29.2500000000,3,-0.0454482995,,,
29.2656250000,3,-0.1859207004,,,
29.2812500000,3,-0.2193222046,,,
29.2968750000,3,-0.0444641113,,,
29.3125000000,3,0.3524245918,,,
29.3281250000,3,0.8607482910,,,
29.3437500000,3,1.3295899630,,,
29.3593750000,3,1.6095199585,,,
29.3750000000,3,1.6602940559,,,
29.3906250000,3,1.5246349573,,,
29.4062500000,3,1.3070299625,,,
29.4218750000,3,1.1175379753,,,
29.4375000000,3,0.9912871718,,,
29.4531250000,3,0.9129257202,,,
29.4687500000,3,0.8075714111,,,
29.4843750000,3,0.5936049819,,,
29.5000000000,3,0.2294311970,,,
29.5156250000,3,-0.2546615899,,,
29.5312500000,3,-0.7769699097,,,
29.5468750000,3,-1.2116930485,,,
29.5625000000,3,-1.4798970222,,,
29.5781250000,3,-1.5490490198,,,
29.5937500000,3,-1.4544219971,,,
29.6093750000,3,-1.2552340031,,,
29.6250000000,3,-1.0091860294,,,
29.6406250000,3,-0.7300568223,,,
29.6562500000,3,-0.4159393013,,,
29.6718750000,3,-0.0611572303,,,
29.6875000000,3,0.2939301133,,,
29.7031250000,3,0.5709075928,,,
29.7187500000,3,0.6752777100,,,
29.7343750000,3,0.5414047241,,,
29.7500000000,3,0.1950225979,,,
29.7656250000,3,-0.2642135918,,,
29.7812500000,3,-0.6989899278,,,
29.7968750000,3,-0.9911118150,,,
29.8125000000,3,-1.0941770077,,,
29.8281250000,3,-1.0421830416,,,
29.8437500000,3,-0.8923645020,,,
29.8593750000,3,-0.7156143188,,,
29.8750000000,3,-0.5296707153,,,
29.8906250000,3,-0.3300322890,,,
29.9062500000,3,-0.0729064867,,,
29.9218750000,3,0.2629471123,,,
29.9375000000,3,0.6770629883,,,
29.9531250000,3,1.1423259974,,,
29.9687500000,3,1.6279749870,,,
29.9843750000,3,2.0776751041,,,
30.0000000000,3,2.4179229736,,,
30.0156250000,3,2.5691599846,,,
30.0312500000,3,2.4375000000,,,
30.0468750000,3,2.0274119377,,,
30.0625000000,3,1.4089360237,,,
30.0781250000,3,0.7373198867,,,
30.0937500000,3,0.1616286933,,,
30.1093750000,3,-0.2083968967,,,
30.1250000000,3,-0.3664093018,,,
30.1406250000,3,-0.3791046143,,,
30.1562500000,3,-0.3089066148,,,
30.1718750000,3,-0.1976699978,,,
30.1875000000,3,-0.0383224487,,,
30.2031250000,3,0.1910095066,,,
30.2187500000,3,0.4898453057,,,
30.2343750000,3,0.7996826172,,,
30.2500000000,3,1.0359879732,,,
30.2656250000,3,1.1274030209,,,
30.2812500000,3,1.0285869837,,,
30.2968750000,3,0.7495040894,,,
30.3125000000,3,0.3428345025,,,
30.3281250000,3,-0.1213378981,,,
30.3437500000,3,-0.5622329712,,,
30.3593750000,3,-0.9022141099,,,
30.3750000000,3,-1.1099929810,,,
30.3906250000,3,-1.1991579533,,,
30.4062500000,3,-1.2191159725,,,
30.4218750000,3,-1.2535929680,,,
30.4375000000,3,-1.3447339535,,,
30.4531250000,3,-1.4891510010,,,
30.4687500000,3,-1.6209490299,,,
30.4843750000,3,-1.6598130465,,,
30.5000000000,3,-1.5342479944,,,
30.5156250000,3,-1.2270580530,,,
30.5312500000,3,-0.8078461289,,,
30.5468750000,3,-0.3934173882,,,
30.5625000000,3,-0.1082457975,,,
30.5781250000,3,-0.0005645752,,,
30.5937500000,3,-0.0212554894,,,
30.6093750000,3,-0.0496444702,,,
30.6250000000,3,0.0373458900,,,
30.6406250000,3,0.2732467949,,,
30.6562500000,3,0.5728682876,,,
30.6718750000,3,0.7715302110,,,
30.6875000000,3,0.7203826904,,,
30.7031250000,3,0.3954162896,,,
30.7187500000,3,-0.0790939331,,,
30.7343750000,3,-0.4897232056,,,
30.7500000000,3,-0.6383743286,,,
30.7656250000,3,-0.4751052856,,,
30.7812500000,3,-0.0994033813,,,
30.7968750000,3,0.3269042969,,,
30.8125000000,3,0.6763839722,,,
30.8281250000,3,0.9383010864,,,
30.8437500000,3,1.1972270012,,,
30.8593750000,3,1.5333709717,,,
30.8750000000,3,1.9260560274,,,
30.8906250000,3,2.2448201180,,,
30.9062500000,3,2.3075330257,,,
30.9218750000,3,2.0098190308,,,
30.9375000000,3,1.4113620520,,,
30.9531250000,3,0.6922760010,,,
30.9687500000,3,0.0834884569,,,
30.9843750000,3,-0.2967757881,,,
31.0000000000,3,-0.4662627876,,,
31.0156250000,3,-0.5577239990,,,
31.0312500000,3,-0.7115250230,,,
31.0468750000,3,-0.9717025757,,,
31.0625000000,3,-1.2707600594,,,
31.0781250000,3,-1.4950640202,,,
31.0937500000,3,-1.5579609871,,,
31.1093750000,3,-1.4552149773,,,
31.1250000000,3,-1.2707289457,,,
31.1406250000,3,-1.0667040348,,,
31.1562500000,3,-0.8742218018,,,
31.1718750000,3,-0.6601334214,,,
31.1875000000,3,-0.4004744887,,,
31.2031250000,3,-0.1002655029,,,
31.2187500000,3,0.1946640015,,,
31.2343750000,3,0.4216156006,,,
31.2500000000,3,0.5866013169,,,
31.2656250000,3,0.7213439941,,,
31.2812500000,3,0.8439865112,,,
31.2968750000,3,0.9217147827,,,
31.3125000000,3,0.8745269775,,,
31.3281250000,3,0.6088181138,,,
31.3437500000,3,0.1256714016,,,
31.3593750000,3,-0.4859695137,,,
31.3750000000,3,-1.0754239559,,,
31.3906250000,3,-1.4967730045,,,
31.4062500000,3,-1.6869130135,,,
31.4218750000,3,-1.6637729406,,,
31.4375000000,3,-1.4689480066,,,
31.4531250000,3,-1.1505659819,,,
31.4687500000,3,-0.7180175781,,,
31.4843750000,3,-0.1960677952,,,
31.5000000000,3,0.3486861885,,,
31.5156250000,3,0.8456801772,,,
31.5312500000,3,1.2293319702,,,
31.5468750000,3,1.4594880342,,,
31.5625000000,3,1.5489200354,,,
31.5781250000,3,1.4980700016,,,
31.5937500000,3,1.3024369478,,,
31.6093750000,3,0.9451674819,,,
31.6250000000,3,0.4338684082,,,
31.6406250000,3,-0.1674880981,,,
31.6562500000,3,-0.7312088013,,,
31.6718750000,3,-1.1144709587,,,
31.6875000000,3,-1.2454680204,,,
31.7031250000,3,-1.1385190487,,,
31.7187500000,3,-0.9204711914,,,
31.7343750000,3,-0.7245941162,,,
31.7500000000,3,-0.6383361816,,,
31.7656250000,3,-0.6538848877,,,
31.7812500000,3,-0.6732025146,,,
31.7968750000,3,-0.6062468886,,,
31.8125000000,3,-0.4064177871,,,
31.8281250000,3,-0.1182631999,,,
31.8437500000,3,0.1653594971,,,
31.8593750000,3,0.3597182930,,,
31.8750000000,3,0.4286270142,,,
31.8906250000,3,0.3924789131,,,
31.9062500000,3,0.3126372993,,,
31.9218750000,3,0.2434691936,,,
31.9375000000,3,0.2233047038,,,
31.9531250000,3,0.2561034858,,,
31.9687500000,3,0.3209609985,,,
31.9843750000,3,0.4181595147,,,
32.0000000000,4,0.5372924805,,,
32.0156250000,4,0.6767730713,,,
32.0312500000,4,0.8368834853,,,
32.0468750000,4,0.9978026748,,,
32.0625000000,4,1.1438900232,,,
32.0781250000,4,1.2387540340,,,
32.0937500000,4,1.2844389677,,,
32.1093750000,4,1.2581020594,,,
32.1250000000,4,1.1837999821,,,
32.1406250000,4,1.0602190495,,,
32.1562500000,4,0.8799744248,,,
32.1718750000,4,0.6190872192,,,
32.1875000000,4,0.2538146973,,,
32.2031250000,4,-0.1959763020,,,
32.2187500000,4,-0.6632155776,,,
32.2343750000,4,-1.0498349667,,,
32.2500000000,4,-1.2786710262,,,
32.2656250000,4,-1.3217539787,,,
32.2812500000,4,-1.2193599939,,,
32.2968750000,4,-1.0479129553,,,
32.3125000000,4,-0.8541641235,,,
32.3281250000,4,-0.6382675171,,,
32.3437500000,4,-0.3797760010,,,
32.3593750000,4,-0.0817337036,,,
32.3750000000,4,0.1968307048,,,
32.3906250000,4,0.3507232964,,,
32.4062500000,4,0.2806701958,,,
32.4218750000,4,-0.0186080895,,,
32.4375000000,4,-0.4427872002,,,
32.4531250000,4,-0.8016738892,,,
32.4687500000,4,-0.9242705703,,,
32.4843750000,4,-0.7513198853,,,
32.5000000000,4,-0.3710327148,,,
32.5156250000,4,0.0550613403,,,
32.5312500000,4,0.3768844903,,,
32.5468750000,4,0.5150908828,,,
32.5625000000,4,0.5125504136,,,
32.5781250000,4,0.4341124892,,,
32.5937500000,4,0.3630599976,,,
32.6093750000,4,0.3154678047,,,
32.6250000000,4,0.2703323066,,,
32.6406250000,4,0.1891327053,,,
32.6562500000,4,0.1010818034,,,
32.6718750000,4,0.0856323168,,,
32.6875000000,4,0.2216186970,,,
32.7031250000,4,0.5230559707,,,
32.7187500000,4,0.8694304824,,,
32.7343750000,4,1.0468750000,,,
32.7500000000,4,0.8718413711,,,
32.7656250000,4,0.2921294868,,,
32.7812500000,4,-0.5364608765,,,
32.7968750000,4,-1.3277970552,,,
32.8125000000,4,-1.7840579748,,,
32.8281250000,4,-1.7708050013,,,
32.8437500000,4,-1.3601529598,,,
32.8593750000,4,-0.8009719849,,,
32.8750000000,4,-0.3857879937,,,
32.8906250000,4,-0.2657851875,,,
32.9062500000,4,-0.4244537055,,,
32.9218750000,4,-0.7050551772,,,
32.9375000000,4,-0.9240875244,,,
32.9531250000,4,-0.9963989258,,,
32.9687500000,4,-0.9719238281,,,
32.9843750000,4,-0.9138565063,,,
33.0000000000,4,-0.8697052002,,,
33.0156250000,4,-0.8037415147,,,
33.0312500000,4,-0.6110991836,,,
33.0468750000,4,-0.2273406982,,,
33.0625000000,4,0.3291625977,,,
33.0781250000,4,0.9335402846,,,
33.0937500000,4,1.4050519466,,,
33.1093750000,4,1.6005940437,,,
33.1250000000,4,1.5011520386,,,
33.1406250000,4,1.1775050163,,,
33.1562500000,4,0.7597197890,,,
33.1718750000,4,0.3799667060,,,
33.1875000000,4,0.0826263428,,,
33.2031250000,4,-0.1220550984,,,
33.2187500000,4,-0.2639083862,,,
33.2343750000,4,-0.3768157959,,,
33.2500000000,4,-0.4449005127,,,
33.2656250000,4,-0.4406966865,,,
33.2812500000,4,-0.3333969116,,,
33.2968750000,4,-0.1293181926,,,
33.3125000000,4,0.1392975003,,,
33.3281250000,4,0.4446564019,,,
33.3437500000,4,0.7415695190,,,
33.3593750000,4,0.9996643066,,,
33.3750000000,4,1.1918330193,,,
33.3906250000,4,1.2651900053,,,
33.4062500000,4,1.2078249454,,,
33.4218750000,4,1.0085530281,,,
33.4375000000,4,0.7065886855,,,
33.4531250000,4,0.3586502075,,,
33.4687500000,4,0.0093154907,,,
33.4843750000,4,-0.2952727973,,,
33.5000000000,4,-0.5426635742,,,
33.5156250000,4,-0.7243195176,,,
33.5312500000,4,-0.8517531753,,,
33.5468750000,4,-0.9067382813,,,
33.5625000000,4,-0.8753203750,,,
33.5781250000,4,-0.7535781860,,,
33.5937500000,4,-0.5692520142,,,
33.6093750000,4,-0.4045563042,,,
33.6250000000,4,-0.3522872925,,,
33.6406250000,4,-0.4787597954,,,
33.6562500000,4,-0.7770156860,,,
33.6718750000,4,-1.1449049711,,,
33.6875000000,4,-1.4216459990,,,
33.7031250000,4,-1.4464869499,,,
33.7187500000,4,-1.1413799524,,,
33.7343750000,4,-0.5694351196,,,
33.7500000000,4,0.0901718065,,,
33.7656250000,4,0.6210479736,,,
33.7812500000,4,0.8689345717,,,
33.7968750000,4,0.8138809204,,,
33.8125000000,4,0.5502014160,,,
33.8281250000,4,0.2296143025,,,
33.8437500000,4,-0.0065612788,,,
33.8593750000,4,-0.1022872999,,,
33.8750000000,4,-0.0454635583,,,
33.8906250000,4,0.1248932034,,,
33.9062500000,4,0.3531188965,,,
33.9218750000,4,0.5673676133,,,
33.9375000000,4,0.6943054199,,,
33.9531250000,4,0.6830139160,,,
33.9687500000,4,0.5164794922,,,
33.9843750000,4,0.2509613037,,,
34.0000000000,4,-0.0155715896,,,
34.0156250000,4,-0.1689835042,,,
34.0312500000,4,-0.1493224949,,,
34.0468750000,4,0.0381851196,,,
34.0625000000,4,0.3290328979,,,
34.0781250000,4,0.6198883057,,,
34.0937500000,4,0.8378220201,,,
34.1093750000,4,0.9431763291,,,
34.1250000000,4,0.9399185181,,,
34.1406250000,4,0.8587493896,,,
34.1562500000,4,0.7257918715,,,
34.1718750000,4,0.5643311143,,,
34.1875000000,4,0.4017257988,,,
34.2031250000,4,0.2622832954,,,
34.2187500000,4,0.1664581001,,,
34.2343750000,4,0.1115645990,,,
34.2500000000,4,0.0570144691,,,
34.2656250000,4,-0.0337829590,,,
34.2812500000,4,-0.1616363972,,,
34.2968750000,4,-0.3001480103,,,
34.3125000000,4,-0.3720932007,,,
34.3281250000,4,-0.3220367134,,,
34.3437500000,4,-0.1072082967,,,
34.3593750000,4,0.2388686985,,,
34.3750000000,4,0.6255950928,,,
34.3906250000,4,0.9299545288,,,
34.4062500000,4,1.0248110294,,,
34.4218750000,4,0.8600463867,,,
34.4375000000,4,0.4597320855,,,
34.4531250000,4,-0.0931625366,,,
34.4687500000,4,-0.6586685181,,,
34.4843750000,4,-1.0815730095,,,
34.5000000000,4,-1.2521359921,,,
34.5156250000,4,-1.1097790003,,,
34.5312500000,4,-0.6864852905,,,
34.5468750000,4,-0.1022033989,,,
34.5625000000,4,0.4954909980,,,
34.5781250000,4,0.9733657837,,,
34.5937500000,4,1.2406690121,,,
34.6093750000,4,1.2705609798,,,
34.6250000000,4,1.0862580538,,,
34.6406250000,4,0.7287902832,,,
34.6562500000,4,0.2644195855,,,
34.6718750000,4,-0.2128220052,,,
34.6875000000,4,-0.6039124131,,,
34.7031250000,4,-0.8332213759,,,
34.7187500000,4,-0.8824157715,,,
34.7343750000,4,-0.7971953750,,,
34.7500000000,4,-0.6824417114,,,
34.7656250000,4,-0.6439208984,,,
34.7812500000,4,-0.7177581787,,,
34.7968750000,4,-0.8418273926,,,
34.8125000000,4,-0.8975449204,,,
34.8281250000,4,-0.7810745239,,,
34.8437500000,4,-0.4553680122,,,
34.8593750000,4,0.0126419105,,,
34.8750000000,4,0.4884949028,,,
34.8906250000,4,0.8419799805,,,
34.9062500000,4,0.9959030151,,,
34.9218750000,4,0.9582520127,,,
34.9375000000,4,0.8473892212,,,
34.9531250000,4,0.7944794297,,,
34.9687500000,4,0.8892440796,,,
34.9843750000,4,1.1225659847,,,
35.0000000000,4,1.3898320198,,,
35.0156250000,4,1.5425720215,,,
35.0312500000,4,1.4692989588,,,
35.0468750000,4,1.1434630156,,,
35.0625000000,4,0.6562271118,,,
35.0781250000,4,0.1534118950,,,
35.0937500000,4,-0.2287064046,,,
35.1093750000,4,-0.4380111992,,,
35.1250000000,4,-0.4985961914,,,
35.1406250000,4,-0.4876328111,,,
35.1562500000,4,-0.4570541084,,,
35.1718750000,4,-0.4274750054,,,
35.1875000000,4,-0.3774718940,,,
35.2031250000,4,-0.2705687881,,,
35.2187500000,4,-0.1384505928,,,
35.2343750000,4,-0.0381698608,,,
35.2500000000,4,-0.0506286584,,,
35.2656250000,4,-0.2430800945,,,
35.2812500000,4,-0.6294326782,,,
35.2968750000,4,-1.1183619499,,,
35.3125000000,4,-1.5744630098,,,
35.3281250000,4,-1.8395919800,,,
35.3437500000,4,-1.8062590361,,,
35.3593750000,4,-1.4725339413,,,
35.3750000000,4,-0.9463272095,,,
35.3906250000,4,-0.3897018135,,,
35.4062500000,4,0.0584716797,,,
35.4218750000,4,0.3091582954,,,
35.4375000000,4,0.3876189888,,,
35.4531250000,4,0.3378601074,,,
35.4687500000,4,0.2350234985,,,
35.4843750000,4,0.0946655273,,,
35.5000000000,4,-0.1022872999,,,
35.5156250000,4,-0.3794403076,,,
35.5312500000,4,-0.7150573730,,,
35.5468750000,4,-1.0437849760,,,
35.5625000000,4,-1.2733609676,,,
35.5781250000,4,-1.3326489925,,,
35.5937500000,4,-1.2423779964,,,
35.6093750000,4,-1.0632170439,,,
35.6250000000,4,-0.8990020752,,,
35.6406250000,4,-0.8012313843,,,
35.6562500000,4,-0.7210845947,,,
35.6718750000,4,-0.5177764893,,,
35.6875000000,4,-0.0729293823,,,
35.7031250000,4,0.6489487290,,,
35.7187500000,4,1.5220340490,,,
35.7343750000,4,2.2993009090,,,
35.7500000000,4,2.7420649529,,,
35.7656250000,4,2.7304079533,,,
35.7812500000,4,2.3273470402,,,
35.7968750000,4,1.7417529821,,,
35.8125000000,4,1.1948779821,,,
35.8281250000,4,0.7847290039,,,
35.8437500000,4,0.4834060967,,,
35.8593750000,4,0.1791457981,,,
35.8750000000,4,-0.2149658054,,,
35.8906250000,4,-0.6730728149,,,
35.9062500000,4,-1.0769649744,,,
35.9218750000,4,-1.2931669950,,,
35.9375000000,4,-1.2556760311,,,
35.9531250000,4,-1.0290449858,,,
35.9687500000,4,-0.7564392090,,,
35.9843750000,4,-0.5726165771,,,
36.0000000000,4,-0.5388947129,,,
36.0156250000,4,-0.6164473891,,,
36.0312500000,4,-0.7054595947,,,
36.0468750000,4,-0.7155609131,,,
36.0625000000,4,-0.6279602051,,,
36.0781250000,4,-0.4711914063,,,
36.0937500000,4,-0.3204497993,,,
36.1093750000,4,-0.2181701958,,,
36.1250000000,4,-0.1737823039,,,
36.1406250000,4,-0.1574248970,,,
36.1562500000,4,-0.1529694051,,,
36.1718750000,4,-0.1265717000,,,
36.1875000000,4,-0.0855560303,,,
36.2031250000,4,-0.0542678796,,,
36.2187500000,4,-0.0362243690,,,
36.2343750000,4,-0.0375595093,,,
36.2500000000,4,-0.0318222009,,,
36.2656250000,4,-0.0091552734,,,
36.2812500000,4,0.0351257287,,,
36.2968750000,4,0.0791854933,,,
36.3125000000,4,0.1287230998,,,
36.3281250000,4,0.2011107951,,,
36.3437500000,4,0.3447495103,,,
36.3593750000,4,0.5801314712,,,
36.3750000000,4,0.8570175171,,,
36.3906250000,4,1.0782699585,,,
36.4062500000,4,1.1015930176,,,
36.4218750000,4,0.8478698730,,,
36.4375000000,4,0.3492049873,,,
36.4531250000,4,-0.2543640137,,,
36.4687500000,4,-0.7764893174,,,
36.4843750000,4,-1.0779420137,,,
36.5000000000,4,-1.1389470100,,,
36.5156250000,4,-1.0447390079,,,
36.5312500000,4,-0.9147644043,,,
36.5468750000,4,-0.8140258789,,,
36.5625000000,4,-0.7237244248,,,
36.5781250000,4,-0.5648040771,,,
36.5937500000,4,-0.2845078111,,,
36.6093750000,4,0.1102828979,,,
36.6250000000,4,0.5464859009,,,
36.6406250000,4,0.9317626953,,,
36.6562500000,4,1.1701740026,,,
36.6718750000,4,1.2346420288,,,
36.6875000000,4,1.1184920073,,,
36.7031250000,4,0.8404616714,,,
36.7187500000,4,0.4438934028,,,
36.7343750000,4,-0.0201034509,,,
36.7500000000,4,-0.4866257012,,,
36.7656250000,4,-0.8808745742,,,
36.7812500000,4,-1.1382219791,,,
36.7968750000,4,-1.2207870483,,,
36.8125000000,4,-1.1340789795,,,
36.8281250000,4,-0.9284744263,,,
36.8437500000,4,-0.6631165147,,,
36.8593750000,4,-0.3898163140,,,
36.8750000000,4,-0.1523972005,,,
36.8906250000,4,0.0474319495,,,
36.9062500000,4,0.2294846028,,,
36.9218750000,4,0.4018554986,,,
36.9375000000,4,0.5724411011,,,
36.9531250000,4,0.7157974243,,,
36.9687500000,4,0.7748641968,,,
36.9843750000,4,0.6839293838,,,
37.0000000000,4,0.4358825982,,,
37.0156250000,4,0.0918273926,,,
37.0312500000,4,-0.2422256023,,,
37.0468750000,4,-0.4619979858,,,
37.0625000000,4,-0.5416030884,,,
37.0781250000,4,-0.5358582139,,,
37.0937500000,4,-0.5484771729,,,
37.1093750000,4,-0.6562576294,,,
37.1250000000,4,-0.8478621840,,,
37.1406250000,4,-1.0120539665,,,
37.1562500000,4,-1.0161210299,,,
37.1718750000,4,-0.7662354112,,,
37.1875000000,4,-0.2851867974,,,
37.2031250000,4,0.3055495918,,,
37.2187500000,4,0.8463973999,,,
37.2343750000,4,1.2169569731,,,
37.2500000000,4,1.3779829741,,,
37.2656250000,4,1.3606640100,,,
37.2812500000,4,1.2350620031,,,
37.2968750000,4,1.0645370483,,,
37.3125000000,4,0.9004898071,,,
37.3281250000,4,0.7602310181,,,
37.3437500000,4,0.6603928208,,,
37.3593750000,4,0.6087799072,,,
37.3750000000,4,0.6124420166,,,
37.3906250000,4,0.6808547974,,,
37.4062500000,4,0.8248444200,,,
37.4218750000,4,1.0296100378,,,
37.4375000000,4,1.2338180542,,,
37.4531250000,4,1.3493269682,,,
37.4687500000,4,1.3074189425,,,
37.4843750000,4,1.1036679745,,,
37.5000000000,4,0.8038635254,,,
37.5156250000,4,0.5249176025,,,
37.5312500000,4,0.3653258979,,,
37.5468750000,4,0.3576202095,,,
37.5625000000,4,0.4573898017,,,
37.5781250000,4,0.5827178955,,,
37.5937500000,4,0.6424407959,,,
37.6093750000,4,0.5966948867,,,
37.6250000000,4,0.4493713081,,,
37.6406250000,4,0.2182846069,,,
37.6562500000,4,-0.0854644775,,,
37.6718750000,4,-0.4472121894,,,
37.6875000000,4,-0.8271713257,,,
37.7031250000,4,-1.1506650448,,,
37.7187500000,4,-1.3029019833,,,
37.7343750000,4,-1.2156909704,,,
37.7500000000,4,-0.9021453857,,,
37.7656250000,4,-0.4826126099,,,
37.7812500000,4,-0.0996017531,,,
37.7968750000,4,0.1372375041,,,
37.8125000000,4,0.2292328030,,,
37.8281250000,4,0.2576065063,,,
37.8437500000,4,0.3060379028,,,
37.8593750000,4,0.4144820869,,,
37.8750000000,4,0.5166779160,,,
37.8906250000,4,0.5004119873,,,
37.9062500000,4,0.2806395888,,,
37.9218750000,4,-0.1447525024,,,
37.9375000000,4,-0.6896439195,,,
37.9531250000,4,-1.2201839685,,,
37.9687500000,4,-1.6560209990,,,
37.9843750000,4,-1.9819560051,,,
38.0000000000,4,-2.2236940861,,,
38.0156250000,4,-2.3858640194,,,
38.0312500000,4,-2.4155809879,,,
38.0468750000,4,-2.1997759342,,,
38.0625000000,4,-1.6628340483,,,
38.0781250000,4,-0.8311080933,,,
38.0937500000,4,0.1353531033,,,
38.1093750000,4,0.9770507813,,,
38.1250000000,4,1.4658130407,,,
38.1406250000,4,1.4958419800,,,
38.1562500000,4,1.1163710356,,,
38.1718750000,4,0.5211334229,,,
38.1875000000,4,-0.0476455688,,,
38.2031250000,4,-0.4204559028,,,
38.2187500000,4,-0.5360794067,,,
38.2343750000,4,-0.4438323975,,,
38.2500000000,4,-0.2527846992,,,
38.2656250000,4,-0.0618896484,,,
38.2812500000,4,0.0853576735,,,
38.2968750000,4,0.1811905056,,,
38.3125000000,4,0.2347564995,,,
38.3281250000,4,0.2439651042,,,
38.3437500000,4,0.1891784966,,,
38.3593750000,4,0.0602874793,,,
38.3750000000,4,-0.1140289009,,,
38.3906250000,4,-0.2786636055,,,
38.4062500000,4,-0.3604278862,,,
38.4218750000,4,-0.2954483032,,,
38.4375000000,4,-0.0709609985,,,
38.4531250000,4,0.2698441148,,,
38.4687500000,4,0.6623992920,,,
38.4843750000,4,1.0133670568,,,
38.5000000000,4,1.2460860014,,,
38.5156250000,4,1.3409880400,,,
38.5312500000,4,1.3128279448,,,
38.5468750000,4,1.2090380192,,,
38.5625000000,4,1.0984799862,,,
38.5781250000,4,1.0090709925,,,
38.5937500000,4,0.9396666884,,,
38.6093750000,4,0.8454970717,,,
38.6250000000,4,0.6605988145,,,
38.6406250000,4,0.3741149902,,,
38.6562500000,4,0.0270004291,,,
38.6718750000,4,-0.2736206055,,,
38.6875000000,4,-0.4212036133,,,
38.7031250000,4,-0.3582535088,,,
38.7187500000,4,-0.1357346028,,,
38.7343750000,4,0.1237334982,,,
38.7500000000,4,0.2622374892,,,
38.7656250000,4,0.1627579033,,,
38.7812500000,4,-0.1531067044,,,
38.7968750000,4,-0.5709381104,,,
38.8125000000,4,-0.9301300049,,,
38.8281250000,4,-1.0918049812,,,
38.8437500000,4,-1.0065310001,,,
38.8593750000,4,-0.7592468262,,,
38.8750000000,4,-0.5031204224,,,
38.8906250000,4,-0.3739089966,,,
38.9062500000,4,-0.4283829033,,,
38.9218750000,4,-0.5978698730,,,
38.9375000000,4,-0.7374495864,,,
38.9531250000,4,-0.7269058228,,,
38.9687500000,4,-0.5254821777,,,
38.9843750000,4,-0.2228469998,,,
39.0000000000,4,0.0220489502,,,
39.0156250000,4,0.0739822388,,,
39.0312500000,4,-0.0677795410,,,
39.0468750000,4,-0.3012695014,,,
39.0625000000,4,-0.4496841133,,,
39.0781250000,4,-0.3997955024,,,
39.0937500000,4,-0.1668549031,,,
39.1093750000,4,0.1052016988,,,
39.1250000000,4,0.2106475979,,,
39.1406250000,4,0.0442352295,,,
39.1562500000,4,-0.3650512993,,,
39.1718750000,4,-0.8333206177,,,
39.1875000000,4,-1.1744309664,,,
39.2031250000,4,-1.2648539543,,,
39.2187500000,4,-1.1374510527,,,
39.2343750000,4,-0.9156417847,,,
39.2500000000,4,-0.7147141099,,,
39.2656250000,4,-0.5980072021,,,
39.2812500000,4,-0.5132750869,,,
39.2968750000,4,-0.3548203111,,,
39.3125000000,4,-0.0656890869,,,
39.3281250000,4,0.3145369887,,,
39.3437500000,4,0.6844329834,,,
39.3593750000,4,0.9003067017,,,
39.3750000000,4,0.8804016113,,,
39.3906250000,4,0.6606522202,,,
39.4062500000,4,0.3609313965,,,
39.4218750000,4,0.1442108005,,,
39.4375000000,4,0.1199264973,,,
39.4531250000,4,0.2729187012,,,
39.4687500000,4,0.4931946099,,,
39.4843750000,4,0.6343688965,,,
39.5000000000,4,0.5826950073,,,
39.5156250000,4,0.3454742134,,,
39.5312500000,4,0.0659484863,,,
39.5468750000,4,-0.0978393629,,,
39.5625000000,4,-0.0400772095,,,
39.5781250000,4,0.2045059055,,,
39.5937500000,4,0.4847412109,,,
39.6093750000,4,0.6334990859,,,
39.6250000000,4,0.5750731826,,,
39.6406250000,4,0.3525620103,,,
39.6562500000,4,0.0945587233,,,
39.6718750000,4,-0.0548629798,,,
39.6875000000,4,-0.0616455115,,,
39.7031250000,4,0.0369796790,,,
39.7187500000,4,0.1456833035,,,
39.7343750000,4,0.1780090034,,,
39.7500000000,4,0.1252899021,,,
39.7656250000,4,0.0491867103,,,
39.7812500000,4,0.0306854192,,,
39.7968750000,4,0.1428679973,,,
39.8125000000,4,0.4022445977,,,
39.8281250000,4,0.7416152954,,,
39.8437500000,4,1.0814210176,,,
39.8593750000,4,1.3381650448,,,
39.8750000000,4,1.4428479671,,,
39.8906250000,4,1.3693540096,,,
39.9062500000,4,1.1261140108,,,
39.9218750000,4,0.7490692139,,,
39.9375000000,4,0.3117676079,,,
39.9531250000,4,-0.0794219971,,,
39.9687500000,4,-0.3546752930,,,
39.9843750000,4,-0.4511032104,,,
40.0000000000,5,-0.3652878106,,,
40.0156250000,5,-0.1901473999,,,
40.0312500000,5,-0.0251007099,,,
40.0468750000,5,0.0524139404,,,
40.0625000000,5,0.0240631104,,,
40.0781250000,5,-0.0472869910,,,
40.0937500000,5,-0.0591354407,,,
40.1093750000,5,-0.0006179810,,,
40.1250000000,5,0.1038054973,,,
40.1406250000,5,0.1618423015,,,
40.1562500000,5,0.0964660570,,,
40.1718750000,5,-0.0897140503,,,
40.1875000000,5,-0.3222579956,,,
40.2031250000,5,-0.5075302124,,,
40.2187500000,5,-0.5982131958,,,
40.2343750000,5,-0.5966339111,,,
40.2500000000,5,-0.5351104736,,,
40.2656250000,5,-0.4414215088,,,
40.2812500000,5,-0.3173218071,,,
40.2968750000,5,-0.1783675998,,,
40.3125000000,5,-0.0755920410,,,
40.3281250000,5,-0.1067429036,,,
40.3437500000,5,-0.3501205146,,,
40.3593750000,5,-0.8365859985,,,
40.3750000000,5,-1.4824750423,,,
40.3906250000,5,-2.0982820988,,,
40.4062500000,5,-2.4580609798,,,
40.4218750000,5,-2.3884201050,,,
40.4375000000,5,-1.8736269474,,,
40.4531250000,5,-1.0383989811,,,
40.4687500000,5,-0.1038971022,,,
40.4843750000,5,0.7048187256,,,
40.5000000000,5,1.2343219519,,,
40.5156250000,5,1.4513399601,,,
40.5312500000,5,1.4054110050,,,
40.5468750000,5,1.1889649630,,,
40.5625000000,5,0.9043427110,,,
40.5781250000,5,0.6183167100,,,
40.5937500000,5,0.3976058960,,,
40.6093750000,5,0.2480010986,,,
40.6250000000,5,0.1740494072,,,
40.6406250000,5,0.1165236980,,,
40.6562500000,5,0.0206222497,,,
40.6718750000,5,-0.1773910969,,,
40.6875000000,5,-0.4862822890,,,
40.7031250000,5,-0.8144835830,,,
40.7187500000,5,-1.0269010067,,,
40.7343750000,5,-0.9788131714,,,
40.7500000000,5,-0.6142197251,,,
40.7656250000,5,-0.0000610352,,,
40.7812500000,5,0.6782227159,,,
40.7968750000,5,1.2388459444,,,
40.8125000000,5,1.5359339714,,,
40.8281250000,5,1.5241169930,,,
40.8437500000,5,1.3010790348,,,
40.8593750000,5,0.9978485107,,,
40.8750000000,5,0.7223815918,,,
40.8906250000,5,0.5122985840,,,
40.9062500000,5,0.1533432007,,,
40.9218750000,5,-0.0331344604,,,
40.9375000000,5,-0.1672592014,,,
40.9531250000,5,-0.1990509033,,,
40.9687500000,5,-0.0902633667,,,
40.9843750000,5,0.1020812988,,,
41.0000000000,5,0.2717208862,,,
41.0156250000,5,0.3361816108,,,
41.0312500000,5,0.2773818970,,,
41.0468750000,5,0.1647949070,,,
41.0625000000,5,0.0982742310,,,
41.0781250000,5,0.1492003947,,,
41.0937500000,5,0.2775574028,,,
41.1093750000,5,0.4338988960,,,
41.1250000000,5,0.5326461792,,,
41.1406250000,5,0.5382614136,,,
41.1562500000,5,0.4688034058,,,
41.1718750000,5,0.3320389092,,,
41.1875000000,5,0.1446837932,,,
41.2031250000,5,-0.0995025635,,,
41.2187500000,5,-0.3600845039,,,
41.2343750000,5,-0.5998610854,,,
41.2500000000,5,-0.7266921997,,,
41.2656250000,5,-0.7122344971,,,
41.2812500000,5,-0.5694274902,,,
41.2968750000,5,-0.3332672119,,,
41.3125000000,5,-0.0895767212,,,
41.3281250000,5,0.1133880988,,,
41.3437500000,5,0.2479857951,,,
41.3593750000,5,0.3185653985,,,
41.3750000000,5,0.3123016059,,,
41.3906250000,5,0.2059783936,,,
41.4062500000,5,-0.0298996009,,,
41.4218750000,5,-0.4297333062,,,
41.4375000000,5,-0.9639893174,,,
41.4531250000,5,-1.5774539709,,,
41.4687500000,5,-2.1362988949,,,
41.4843750000,5,-2.4486160278,,,
41.5000000000,5,-2.3631970882,,,
41.5156250000,5,-1.8011859655,,,
41.5312500000,5,-0.8297194839,,,
41.5468750000,5,0.3374938965,,,
41.5625000000,5,1.4088749886,,,
41.5781250000,5,2.1526339054,,,
41.5937500000,5,2.4483718872,,,
41.6093750000,5,2.3367459774,,,
41.6250000000,5,1.9525990486,,,
41.6406250000,5,1.4343489408,,,
41.6562500000,5,0.9202880859,,,
41.6718750000,5,0.4757767022,,,
41.6875000000,5,0.1646575928,,,
41.7031250000,5,-0.0042266850,,,
41.7187500000,5,-0.0314178504,,,
41.7343750000,5,-0.0248718299,,,
41.7500000000,5,-0.0677108765,,,
41.7656250000,5,-0.2355728000,,,
41.7812500000,5,-0.5164260864,,,
41.7968750000,5,-0.7922515869,,,
41.8125000000,5,-0.9527893066,,,
41.8281250000,5,-0.9160994887,,,
41.8437500000,5,-0.7149658203,,,
41.8593750000,5,-0.4433974922,,,
41.8750000000,5,-0.2300034016,,,
41.8906250000,5,-0.1442413032,,,
41.9062500000,5,-0.1836777031,,,
41.9218750000,5,-0.3010711968,,,
41.9375000000,5,-0.4128876030,,,
41.9531250000,5,-0.4874343872,,,
41.9687500000,5,-0.5124434829,,,
41.9843750000,5,-0.4806900024,,,
42.0000000000,5,-0.3965911865,,,
42.0156250000,5,-0.2839812934,,,
42.0312500000,5,-0.1777648926,,,
42.0468750000,5,-0.1109694988,,,
42.0625000000,5,-0.1185074002,,,
42.0781250000,5,-0.1944046021,,,
42.0937500000,5,-0.2958754897,,,
42.1093750000,5,-0.3452148139,,,
42.1250000000,5,-0.2782363892,,,
42.1406250000,5,-0.0647201464,,,
42.1562500000,5,0.3050079048,,,
42.1718750000,5,0.7837677002,,,
42.1875000000,5,1.2794270515,,,
42.2031250000,5,1.6434329748,,,
42.2187500000,5,1.7568739653,,,
42.2343750000,5,1.5123139620,,,
42.2500000000,5,0.9269332886,,,
42.2656250000,5,0.1104506999,,,
42.2812500000,5,-0.7091522217,,,
42.2968750000,5,-1.2684329748,,,
42.3125000000,5,-1.4091490507,,,
42.3281250000,5,-1.1508029699,,,
42.3437500000,5,-0.7031173706,,,
42.3593750000,5,-0.3586730957,,,
42.3750000000,5,-0.3474654853,,,
42.3906250000,5,-0.7085723877,,,
42.4062500000,5,-1.2768249512,,,
42.4218750000,5,-1.7843170166,,,
42.4375000000,5,-1.9981310368,,,
42.4531250000,5,-1.8340450525,,,
42.4687500000,5,-1.3837590218,,,
42.4843750000,5,-0.8370056152,,,
42.5000000000,5,-0.3585663140,,,
42.5156250000,5,-0.0284500103,,,
42.5312500000,5,0.1640854031,,,
42.5468750000,5,0.2893753052,,,
42.5625000000,5,0.3963393867,,,
42.5781250000,5,0.4609375000,,,
42.5937500000,5,0.4369049072,,,
42.6093750000,5,0.3158875108,,,
42.6250000000,5,0.1262512058,,,
42.6406250000,5,-0.0291519202,,,
42.6562500000,5,-0.0302810706,,,
42.6718750000,5,0.1802292019,,,
42.6875000000,5,0.5570374131,,,
42.7031250000,5,0.9647675157,,,
42.7187500000,5,1.2437969446,,,
42.7343750000,5,1.2748949528,,,
42.7500000000,5,1.0582729578,,,
42.7656250000,5,0.6884841919,,,
42.7812500000,5,0.3173140883,,,
42.7968750000,5,0.0860137865,,,
42.8125000000,5,0.0441665612,,,
42.8281250000,5,0.1733780056,,,
42.8437500000,5,0.3966675103,,,
42.8593750000,5,0.6439589858,,,
42.8750000000,5,0.8809967041,,,
42.8906250000,5,1.1230469942,,,
42.9062500000,5,1.3911440372,,,
42.9218750000,5,1.6930539608,,,
42.9375000000,5,1.9863280058,,,
42.9531250000,5,2.1586380005,,,
42.9687500000,5,2.0628590584,,,
42.9843750000,5,1.5854190588,,,
43.0000000000,5,0.7149428725,,,
43.0156250000,5,-0.3986588120,,,
43.0312500000,5,-1.4977109432,,,
43.0468750000,5,-2.3008348942,,,
43.0625000000,5,-2.6144030094,,,
43.0781250000,5,-2.4318161011,,,
43.0937500000,5,-1.9227679968,,,
43.1093750000,5,-1.3267290592,,,
43.1250000000,5,-0.8332824707,,,
43.1406250000,5,-0.4937820137,,,
43.1562500000,5,-0.2453231961,,,
43.1718750000,5,0.0048675542,,,
43.1875000000,5,0.2728728950,,,
43.2031250000,5,0.4833832085,,,
43.2187500000,5,0.5340499878,,,
43.2343750000,5,0.3863830864,,,
43.2500000000,5,0.1243973002,,,
43.2656250000,5,-0.1044235006,,,
43.2812500000,5,-0.1815032959,,,
43.2968750000,5,-0.1056824028,,,
43.3125000000,5,-0.0184936505,,,
43.3281250000,5,-0.0895690918,,,
43.3437500000,5,-0.3985291123,,,
43.3593750000,5,-0.8692092896,,,
43.3750000000,5,-1.2941670418,,,
43.3906250000,5,-1.4420239925,,,
43.4062500000,5,-1.1796419621,,,
43.4218750000,5,-0.5695496202,,,
43.4375000000,5,0.1852263957,,,
43.4531250000,5,0.8109207153,,,
43.4687500000,5,1.1058579683,,,
43.4843750000,5,1.0391620398,,,
43.5000000000,5,0.7563704848,,,
43.5156250000,5,0.4874343872,,,
43.5312500000,5,0.4083481133,,,
43.5468750000,5,0.5447158813,,,
43.5625000000,5,0.7227858901,,,
43.5781250000,5,0.6988143921,,,
43.5937500000,5,0.3412627876,,,
43.6093750000,5,-0.2930603027,,,
43.6250000000,5,-0.9598541260,,,
43.6406250000,5,-1.3785250187,,,
43.6562500000,5,-1.4069900513,,,
43.6718750000,5,-1.1178439856,,,
43.6875000000,5,-0.7430953979,,,
43.7031250000,5,-0.4977951050,,,
43.7187500000,5,-0.4599303901,,,
43.7343750000,5,-0.5184860229,,,
43.7500000000,5,-0.4888457954,,,
43.7656250000,5,-0.2350464016,,,
43.7812500000,5,0.2393341064,,,
43.7968750000,5,0.8359832764,,,
43.8125000000,5,1.4213559628,,,
43.8281250000,5,1.8930660486,,,
43.8437500000,5,2.2052149773,,,
43.8593750000,5,2.3369600773,,,
43.8750000000,5,2.2734680176,,,
43.8906250000,5,2.0078580379,,,
43.9062500000,5,1.5748059750,,,
43.9218750000,5,1.0464709997,,,
43.9375000000,5,0.5242156982,,,
43.9531250000,5,0.0936737135,,,
43.9687500000,5,-0.2239226997,,,
43.9843750000,5,-0.4491271973,,,
44.0000000000,5,-0.6047821045,,,
44.0156250000,5,-0.6972656250,,,
44.0312500000,5,-0.7176361084,,,
44.0468750000,5,-0.6528549194,,,
44.0625000000,5,-0.4985274971,,,
44.0781250000,5,-0.2798157036,,,
44.0937500000,5,0.0009918213,,,
44.1093750000,5,0.3302155137,,,
44.1250000000,5,0.6793289185,,,
44.1406250000,5,0.9987410903,,,
44.1562500000,5,1.1913599968,,,
44.1718750000,5,1.1739879847,,,
44.1875000000,5,0.9210510254,,,
44.2031250000,5,0.4921570122,,,
44.2187500000,5,0.0050735469,,,
44.2343750000,5,-0.3937377930,,,
44.2500000000,5,-0.6426085830,,,
44.2656250000,5,-0.7468338013,,,
44.2812500000,5,-0.7657393813,,,
44.2968750000,5,-0.7665786743,,,
44.3125000000,5,-0.7709578872,,,
44.3281250000,5,-0.7448577881,,,
44.3437500000,5,-0.6435089111,,,
44.3593750000,5,-0.4601669014,,,
44.3750000000,5,-0.2247391045,,,
44.3906250000,5,0.0149993896,,,
44.4062500000,5,0.2136611938,,,
44.4218750000,5,0.3579024971,,,
44.4375000000,5,0.4388808906,,,
44.4531250000,5,0.4365845025,,,
44.4687500000,5,0.3257674873,,,
44.4843750000,5,0.0969314575,,,
44.5000000000,5,-0.2165375054,,,
44.5156250000,5,-0.5265579224,,,
44.5312500000,5,-0.7386475205,,,
44.5468750000,5,-0.7869492173,,,
44.5625000000,5,-0.6710510254,,,
44.5781250000,5,-0.4678879082,,,
44.5937500000,5,-0.2721099854,,,
44.6093750000,5,-0.1377487034,,,
44.6250000000,5,-0.0916671827,,,
44.6406250000,5,-0.0999221802,,,
44.6562500000,5,-0.1260756999,,,
44.6718750000,5,-0.1941376030,,,
44.6875000000,5,-0.3237533867,,,
44.7031250000,5,-0.5541229248,,,
44.7187500000,5,-0.8684005737,,,
44.7343750000,5,-1.2047649622,,,
44.7500000000,5,-1.4667129517,,,
44.7656250000,5,-1.5828249454,,,
44.7812500000,5,-1.5173569918,,,
44.7968750000,5,-1.2898099422,,,
44.8125000000,5,-0.9589614868,,,
44.8281250000,5,-0.5690612793,,,
44.8437500000,5,-0.1685027927,,,
44.8593750000,5,0.2167205960,,,
44.8750000000,5,0.5690842271,,,
44.8906250000,5,0.9012603760,,,
44.9062500000,5,1.2294460535,,,
44.9218750000,5,1.5640180111,,,
44.9375000000,5,1.9003980160,,,
44.9531250000,5,2.1704859734,,,
44.9687500000,5,2.2778549194,,,
44.9843750000,5,2.1226649284,,,
45.0000000000,5,1.6598739624,,,
45.0156250000,5,0.9663466811,,,
45.0312500000,5,0.2021103054,,,
45.0468750000,5,-0.4295349121,,,
45.0625000000,5,-0.7663269043,,,
45.0781250000,5,-0.7798004150,,,
45.0937500000,5,-0.5697708130,,,
45.1093750000,5,-0.3082047105,,,
45.1250000000,5,-0.1744765937,,,
45.1406250000,5,-0.2775802910,,,
45.1562500000,5,-0.5874710083,,,
45.1718750000,5,-1.0245130062,,,
45.1875000000,5,-1.4403920174,,,
45.2031250000,5,-1.7477040291,,,
45.2187500000,5,-1.8856580257,,,
45.2343750000,5,-1.8679660559,,,
45.2500000000,5,-1.7297060490,,,
45.2656250000,5,-1.5086209774,,,
45.2812500000,5,-1.2453540564,,,
45.2968750000,5,-0.9739456177,,,
45.3125000000,5,-0.7234954834,,,
45.3281250000,5,-0.5082473755,,,
45.3437500000,5,-0.3318175972,,,
45.3593750000,5,-0.1790619045,,,
45.3750000000,5,-0.0380935706,,,
45.3906250000,5,0.0860900879,,,
45.4062500000,5,0.1694945991,,,
45.4218750000,5,0.1908112019,,,
45.4375000000,5,0.1418686062,,,
45.4531250000,5,0.0484008789,,,
45.4687500000,5,-0.0421066284,,,
45.4843750000,5,-0.0868682936,,,
45.5000000000,5,-0.0854873732,,,
45.5156250000,5,-0.0588913001,,,
45.5312500000,5,-0.0234375000,,,
45.5468750000,5,-0.0013504029,,,
45.5625000000,5,0.0201950092,,,
45.5781250000,5,0.0512695313,,,
45.5937500000,5,0.0983810425,,,
45.6093750000,5,0.1596374959,,,
45.6250000000,5,0.2646636963,,,
45.6406250000,5,0.4620819092,,,
45.6562500000,5,0.7960739136,,,
45.6718750000,5,1.2518769503,,,
45.6875000000,5,1.7567670345,,,
45.7031250000,5,2.1699368954,,,
45.7187500000,5,2.3489909172,,,
45.7343750000,5,2.2477190495,,,
45.7500000000,5,1.9187010527,,,
45.7656250000,5,1.4999469519,,,
45.7812500000,5,1.1343920231,,,
45.7968750000,5,0.8707199097,,,
45.8125000000,5,0.6860352159,,,
45.8281250000,5,0.5099639893,,,
45.8437500000,5,0.3298416138,,,
45.8593750000,5,0.1812209934,,,
45.8750000000,5,0.1617126018,,,
45.8906250000,5,0.3174667060,,,
45.9062500000,5,0.5934525132,,,
45.9218750000,5,0.8817520142,,,
45.9375000000,5,1.0065159798,,,
45.9531250000,5,0.8762589097,,,
45.9687500000,5,0.5152205825,,,
45.9843750000,5,0.0542602502,,,
46.0000000000,5,-0.3422240913,,,
46.0156250000,5,-0.5788956285,,,
46.0312500000,5,-0.6350327134,,,
46.0468750000,5,-0.5695189834,,,
46.0625000000,5,-0.4466323853,,,
46.0781250000,5,-0.3207932115,,,
46.0937500000,5,-0.1973038018,,,
46.1093750000,5,-0.0881500170,,,
46.1250000000,5,-0.0110015897,,,
46.1406250000,5,0.0054779048,,,
46.1562500000,5,-0.0547180213,,,
46.1718750000,5,-0.1670074016,,,
46.1875000000,5,-0.2637481987,,,
46.2031250000,5,-0.2485198975,,,
46.2187500000,5,-0.0962295532,,,
46.2343750000,5,0.1463394016,,,
46.2500000000,5,0.3813705146,,,
46.2656250000,5,0.4859543145,,,
46.2812500000,5,0.4216156006,,,
46.2968750000,5,0.2219696045,,,
46.3125000000,5,-0.0168533307,,,
46.3281250000,5,-0.2376327962,,,
46.3437500000,5,-0.4221343994,,,
46.3593750000,5,-0.6298294067,,,
46.3750000000,5,-0.9071198106,,,
46.3906250000,5,-1.2697750330,,,
46.4062500000,5,-1.6960680485,,,
46.4218750000,5,-2.0814900398,,,
46.4375000000,5,-2.3299939632,,,
46.4531250000,5,-2.3715438843,,,
46.4687500000,5,-2.2018890381,,,
46.4843750000,5,-1.8536989689,,,
46.5000000000,5,-1.3954390287,,,
46.5156250000,5,-0.9020690918,,,
46.5312500000,5,-0.4486770928,,,
46.5468750000,5,-0.1142425984,,,
46.5625000000,5,0.0557403602,,,
46.5781250000,5,0.0563659705,,,
46.5937500000,5,-0.0845260620,,,
46.6093750000,5,-0.3349837959,,,
46.6250000000,5,-0.6126555800,,,
46.6406250000,5,-0.8429718018,,,
46.6562500000,5,-0.9391555786,,,
46.6718750000,5,-0.8394011855,,,
46.6875000000,5,-0.5385056138,,,
46.7031250000,5,-0.0655593872,,,
46.7187500000,5,0.4934540093,,,
46.7343750000,5,1.0109560490,,,
46.7500000000,5,1.3852770329,,,
46.7656250000,5,1.5241620541,,,
46.7812500000,5,1.4054410458,,,
46.7968750000,5,1.0607299805,,,
46.8125000000,5,0.5973052979,,,
46.8281250000,5,0.1655502021,,,
46.8437500000,5,-0.0867919922,,,
46.8593750000,5,-0.0998001099,,,
46.8750000000,5,0.0792312622,,,
46.8906250000,5,0.3198775947,,,
46.9062500000,5,0.4674148858,,,
46.9218750000,5,0.4443893135,,,
46.9375000000,5,0.2995071113,,,
46.9531250000,5,0.1859207004,,,
46.9687500000,5,0.2243728936,,,
46.9843750000,5,0.4418945014,,,
47.0000000000,5,0.7212677002,,,
47.0156250000,5,0.8914337158,,,
47.0312500000,5,0.8218460083,,,
47.0468750000,5,0.5168380737,,,
47.0625000000,5,0.0767593384,,,
47.0781250000,5,-0.3457489014,,,
47.0937500000,5,-0.6356124878,,,
47.1093750000,5,-0.7888565063,,,
47.1250000000,5,-0.8479462266,,,
47.1406250000,5,-0.8708419800,,,
47.1562500000,5,-0.8605347276,,,
47.1718750000,5,-0.7793654799,,,
47.1875000000,5,-0.5854340196,,,
47.2031250000,5,-0.2677155137,,,
47.2187500000,5,0.1210860983,,,
47.2343750000,5,0.4837417901,,,
47.2500000000,5,0.7285308838,,,
47.2656250000,5,0.8036422729,,,
47.2812500000,5,0.7246779799,,,
47.2968750000,5,0.5697708130,,,
47.3125000000,5,0.4334183037,,,
47.3281250000,5,0.3845291138,,,
47.3437500000,5,0.4453735054,,,
47.3593750000,5,0.5819702148,,,
47.3750000000,5,0.7126389146,,,
47.3906250000,5,0.7695540786,,,
47.4062500000,5,0.7171096802,,,
47.4218750000,5,0.5590286255,,,
47.4375000000,5,0.3159103096,,,
47.4531250000,5,0.0213089008,,,
47.4687500000,5,-0.2963181138,,,
47.4843750000,5,-0.6020203233,,,
47.5000000000,5,-0.8694763184,,,
47.5156250000,5,-1.0725480318,,,
47.5312500000,5,-1.1973880529,,,
47.5468750000,5,-1.2516939640,,,
47.5625000000,5,-1.2426069975,,,
47.5781250000,5,-1.1625139713,,,
47.5937500000,5,-0.9747542739,,,
47.6093750000,5,-0.6727448106,,,
47.6250000000,5,-0.2994613945,,,
47.6406250000,5,0.0542373694,,,
47.6562500000,5,0.2806395888,,,
47.6718750000,5,0.3303146064,,,
47.6875000000,5,0.2362747043,,,
47.7031250000,5,0.1097183004,,,
47.7187500000,5,0.0680541992,,,
47.7343750000,5,0.1870041043,,,
47.7500000000,5,0.4492034912,,,
47.7656250000,5,0.7767180800,,,
47.7812500000,5,1.0700069666,,,
47.7968750000,5,1.2816239595,,,
47.8125000000,5,1.4355319738,,,
47.8281250000,5,1.5805050135,,,
47.8437500000,5,1.7398680449,,,
47.8593750000,5,1.8715209961,,,
47.8750000000,5,1.8706209660,,,
47.8906250000,5,1.6286089420,,,
47.9062500000,5,1.0982060432,,,
47.9218750000,5,0.3647156060,,,
47.9375000000,5,-0.3847197890,,,
47.9531250000,5,-0.9204558730,,,
47.9687500000,5,-1.1010129452,,,
47.9843750000,5,-0.9199904799,,,
48.0000000000,6,-0.5351486206,,,
48.0156250000,6,-0.1647415012,,,
48.0312500000,6,0.0370178185,,,
48.0468750000,6,0.0559387207,,,
48.0625000000,6,0.0180587806,,,
48.0781250000,6,0.0550079308,,,
48.0937500000,6,0.2240753025,,,
48.1093750000,6,0.4495544136,,,
48.1250000000,6,0.6052017212,,,
48.1406250000,6,0.6134490967,,,
48.1562500000,6,0.5074614882,,,
48.1718750000,6,0.4071350098,,,
48.1875000000,6,0.3933104873,,,
48.2031250000,6,0.4503631890,,,
48.2187500000,6,0.4324645996,,,
48.2343750000,6,0.1800841987,,,
48.2500000000,6,-0.3636856079,,,
48.2656250000,6,-1.0826489925,,,
48.2812500000,6,-1.7344360352,,,
48.2968750000,6,-2.0784380436,,,
48.3125000000,6,-1.9759750366,,,
48.3281250000,6,-1.4918899536,,,
48.3437500000,6,-0.7843781114,,,
48.3593750000,6,-0.0628738403,,,
48.3750000000,6,0.5313491821,,,
48.3906250000,6,0.9575194716,,,
48.4062500000,6,1.2526860237,,,
48.4218750000,6,1.4454959631,,,
48.4375000000,6,1.5099109411,,,
48.4531250000,6,1.3803859949,,,
48.4687500000,6,0.9721527100,,,
48.4843750000,6,0.2730179131,,,
48.5000000000,6,-0.6011809707,,,
48.5156250000,6,-1.4462809563,,,
48.5312500000,6,-2.0504910946,,,
48.5468750000,6,-2.2808070183,,,
48.5625000000,6,-2.1618731022,,,
48.5781250000,6,-1.8037409782,,,
48.5937500000,6,-1.3491820097,,,
48.6093750000,6,-0.8858414292,,,
48.6250000000,6,-0.4081192017,,,
48.6406250000,6,0.1023864970,,,
48.6562500000,6,0.6276320815,,,
48.6718750000,6,1.0814440250,,,
48.6875000000,6,1.3557130098,,,
48.7031250000,6,1.4028929472,,,
48.7187500000,6,1.2570650578,,,
48.7343750000,6,1.0041120052,,,
48.7500000000,6,0.7324600220,,,
48.7656250000,6,0.4944534004,,,
48.7812500000,6,0.3127822876,,,
48.7968750000,6,0.1893005073,,,
48.8125000000,6,0.1668549031,,,
48.8281250000,6,0.2380218953,,,
48.8437500000,6,0.3677443862,,,
48.8593750000,6,0.4602890015,,,
48.8750000000,6,0.4158324897,,,
48.8906250000,6,0.1827545017,,,
48.9062500000,6,-0.1543197930,,,
48.9218750000,6,-0.4468688965,,,
48.9375000000,6,-0.5574645996,,,
48.9531250000,6,-0.4311217964,,,
48.9687500000,6,-0.1495056003,,,
48.9843750000,6,0.1540527046,,,
49.0000000000,6,0.3714599907,,,
49.0156250000,6,0.5084229112,,,
49.0312500000,6,0.6121292114,,,
49.0468750000,6,0.7577590942,,,
49.0625000000,6,0.9233779907,,,
49.0781250000,6,1.0185619593,,,
49.0937500000,6,0.9427642822,,,
49.1093750000,6,0.6430130005,,,
49.1250000000,6,0.1734160930,,,
49.1406250000,6,-0.3401260078,,,
49.1562500000,6,-0.7422866821,,,
49.1718750000,6,-0.9614409804,,,
49.1875000000,6,-0.9884796143,,,
49.2031250000,6,-0.9035568237,,,
49.2187500000,6,-0.7788619995,,,
49.2343750000,6,-0.6458740234,,,
49.2500000000,6,-0.5171356201,,,
49.2656250000,6,-0.3719482124,,,
49.2812500000,6,-0.2324066013,,,
49.2968750000,6,-0.1765213013,,,
49.3125000000,6,-0.2821502984,,,
49.3281250000,6,-0.5646973252,,,
49.3437500000,6,-0.9580535889,,,
49.3593750000,6,-1.3160020113,,,
49.3750000000,6,-1.4750900269,,,
49.3906250000,6,-1.3830029964,,,
49.4062500000,6,-1.0650019646,,,
49.4218750000,6,-0.6550139785,,,
49.4375000000,6,-0.2819671929,,,
49.4531250000,6,-0.0008392334,,,
49.4687500000,6,0.2090301961,,,
49.4843750000,6,0.4129410088,,,
49.5000000000,6,0.6375504136,,,
49.5156250000,6,0.8537445068,,,
49.5312500000,6,0.9661179185,,,
49.5468750000,6,0.9142838120,,,
49.5625000000,6,0.6940764785,,,
49.5781250000,6,0.3602752984,,,
49.5937500000,6,-0.0088043213,,,
49.6093750000,6,-0.3513641059,,,
49.6250000000,6,-0.6656876206,,,
49.6406250000,6,-0.9613494873,,,
49.6562500000,6,-1.2315670252,,,
49.6718750000,6,-1.4703140259,,,
49.6875000000,6,-1.6388700008,,,
49.7031250000,6,-1.7383879423,,,
49.7187500000,6,-1.7941279411,,,
49.7343750000,6,-1.8493649960,,,
49.7500000000,6,-1.9127810001,,,
49.7656250000,6,-1.9296799898,,,
49.7812500000,6,-1.8080830574,,,
49.7968750000,6,-1.4741129875,,,
49.8125000000,6,-0.9568787217,,,
49.8281250000,6,-0.3516769111,,,
49.8437500000,6,0.1970673054,,,
49.8593750000,6,0.5956345201,,,
49.8750000000,6,0.8404160142,,,
49.8906250000,6,1.0009989738,,,
49.9062500000,6,1.1837769747,,,
49.9218750000,6,1.4233859777,,,
49.9375000000,6,1.6905980110,,,
49.9531250000,6,1.8675539494,,,
49.9687500000,6,1.8572920561,,,
49.9843750000,6,1.6397399902,,,
50.0000000000,6,1.2828979492,,,
50.0156250000,6,0.9216995239,,,
50.0312500000,6,0.6619948745,,,
50.0468750000,6,0.5490798950,,,
50.0625000000,6,0.5492858887,,,
50.0781250000,6,0.5869370103,,,
50.0937500000,6,0.5825424194,,,
50.1093750000,6,0.5277938843,,,
50.1250000000,6,0.4683989882,,,
50.1406250000,6,0.4522247016,,,
50.1562500000,6,0.5187072754,,,
50.1718750000,6,0.6276627183,,,
50.1875000000,6,0.7109069824,,,
50.2031250000,6,0.7077559829,,,
50.2187500000,6,0.6296616197,,,
50.2343750000,6,0.5019149780,,,
50.2500000000,6,0.4058989882,,,
50.2656250000,6,0.4005202949,,,
50.2812500000,6,0.4744186103,,,
50.2968750000,6,0.5855559707,,,
50.3125000000,6,0.6489943862,,,
50.3281250000,6,0.6073607802,,,
50.3437500000,6,0.4310226142,,,
50.3593750000,6,0.1509398967,,,
50.3750000000,6,-0.2040634006,,,
50.3906250000,6,-0.5926970840,,,
50.4062500000,6,-0.9907073975,,,
50.4218750000,6,-1.3695069551,,,
50.4375000000,6,-1.6677780151,,,
50.4531250000,6,-1.8326339722,,,
50.4687500000,6,-1.8237990141,,,
50.4843750000,6,-1.6485749483,,,
50.5000000000,6,-1.3591840267,,,
50.5156250000,6,-1.0222549438,,,
50.5312500000,6,-0.6922606826,,,
50.5468750000,6,-0.4062652886,,,
50.5625000000,6,-0.1745605022,,,
50.5781250000,6,0.0173034705,,,
50.5937500000,6,0.1566544026,,,
50.6093750000,6,0.2021636963,,,
50.6250000000,6,0.1213530973,,,
50.6406250000,6,-0.1233062968,,,
50.6562500000,6,-0.4844818115,,,
50.6718750000,6,-0.8401870728,,,
50.6875000000,6,-1.0604100227,,,
50.7031250000,6,-1.0477370024,,,
50.7187500000,6,-0.7662734985,,,
50.7343750000,6,-0.2852630913,,,
50.7500000000,6,0.2928009033,,,
50.7656250000,6,0.8861846924,,,
50.7812500000,6,1.4324569702,,,
50.7968750000,6,1.9015270472,,,
50.8125000000,6,2.2869260311,,,
50.8281250000,6,2.5620799065,,,
50.8437500000,6,2.6993100643,,,
50.8593750000,6,2.6819150448,,,
50.8750000000,6,2.5256419182,,,
50.8906250000,6,2.2686309814,,,
50.9062500000,6,1.9720150232,,,
50.9218750000,6,1.6798319817,,,
50.9375000000,6,1.3999249935,,,
50.9531250000,6,1.1287920475,,,
50.9687500000,6,0.8360062242,,,
50.9843750000,6,0.4875564873,,,
51.0000000000,6,0.0559921302,,,
51.0156250000,6,-0.4599837959,,,
51.0312500000,6,-1.0159989595,,,
51.0468750000,6,-1.4952700138,,,
51.0625000000,6,-1.7610019445,,,
51.0781250000,6,-1.7069400549,,,
51.0937500000,6,-1.3339999914,,,
51.1093750000,6,-0.7734832764,,,
51.1250000000,6,-0.2289351970,,,
51.1406250000,6,0.1081466973,,,
51.1562500000,6,0.1726761013,,,
51.1718750000,6,0.0302047692,,,
51.1875000000,6,-0.1562729031,,,
51.2031250000,6,-0.2509537041,,,
51.2187500000,6,-0.2067718953,,,
51.2343750000,6,-0.0767135620,,,
51.2500000000,6,0.0496444702,,,
51.2656250000,6,0.0927505493,,,
51.2812500000,6,0.0280456506,,,
51.2968750000,6,-0.1265792996,,,
51.3125000000,6,-0.3357543945,,,
51.3281250000,6,-0.5768967271,,,
51.3437500000,6,-0.8348236084,,,
51.3593750000,6,-1.0894240141,,,
51.3750000000,6,-1.3071140051,,,
51.3906250000,6,-1.4422450066,,,
51.4062500000,6,-1.4616849422,,,
51.4218750000,6,-1.3524550200,,,
51.4375000000,6,-1.1398240328,,,
51.4531250000,6,-0.8742293715,,,
51.4687500000,6,-0.6230391860,,,
51.4843750000,6,-0.4612885118,,,
51.5000000000,6,-0.4434813857,,,
51.5156250000,6,-0.5822753906,,,
51.5312500000,6,-0.8371201158,,,
51.5468750000,6,-1.0916750431,,,
51.5625000000,6,-1.2169040442,,,
51.5781250000,6,-1.1411739588,,,
51.5937500000,6,-0.8919829726,,,
51.6093750000,6,-0.5831757188,,,
51.6250000000,6,-0.3661575019,,,
51.6406250000,6,-0.3557128906,,,
51.6562500000,6,-0.5463790894,,,
51.6718750000,6,-0.8197174072,,,
51.6875000000,6,-1.0095670223,,,
51.7031250000,6,-0.9928894043,,,
51.7187500000,6,-0.7462387085,,,
51.7343750000,6,-0.3401871026,,,
51.7500000000,6,0.1268538982,,,
51.7656250000,6,0.5640640259,,,
51.7812500000,6,0.9385300279,,,
51.7968750000,6,1.2492289543,,,
51.8125000000,6,1.4979250431,,,
51.8281250000,6,1.6740880013,,,
51.8437500000,6,1.7511060238,,,
51.8593750000,6,1.7197190523,,,
51.8750000000,6,1.6050189734,,,
51.8906250000,6,1.4713289738,,,
51.9062500000,6,1.3961869478,,,
51.9218750000,6,1.4165879488,,,
51.9375000000,6,1.4928740263,,,
51.9531250000,6,1.5132900476,,,
51.9687500000,6,1.3656389713,,,
51.9843750000,6,0.9887772202,,,
52.0000000000,6,0.4269562066,,,
52.0156250000,6,-0.1486815959,,,
52.0312500000,6,-0.5435333252,,,
52.0468750000,6,-0.6002197266,,,
52.0625000000,6,-0.2979278862,,,
52.0781250000,6,0.2453766018,,,
52.0937500000,6,0.8109893799,,,
52.1093750000,6,1.2086110115,,,
52.1250000000,6,1.3527909517,,,
52.1406250000,6,1.2645260096,,,
52.1562500000,6,1.0326000452,,,
52.1718750000,6,0.7371674180,,,
52.1875000000,6,0.4172821045,,,
52.2031250000,6,0.0752182007,,,
52.2187500000,6,-0.2834396064,,,
52.2343750000,6,-0.6285018921,,,
52.2500000000,6,-0.8757935166,,,
52.2656250000,6,-0.9471359253,,,
52.2812500000,6,-0.8182830811,,,
52.2968750000,6,-0.5268477798,,,
52.3125000000,6,-0.1903457940,,,
52.3281250000,6,0.0527343787,,,
52.3437500000,6,0.0997314528,,,
52.3593750000,6,-0.0808639526,,,
52.3750000000,6,-0.4442062080,,,
52.3906250000,6,-0.8860167861,,,
52.4062500000,6,-1.2890549898,,,
52.4218750000,6,-1.5621949434,,,
52.4375000000,6,-1.6524430513,,,
52.4531250000,6,-1.5627210140,,,
52.4687500000,6,-1.3140339851,,,
52.4843750000,6,-0.9337310791,,,
52.5000000000,6,-0.4701842964,,,
52.5156250000,6,0.0178146400,,,
52.5312500000,6,0.4377059937,,,
52.5468750000,6,0.6981812119,,,
52.5625000000,6,0.7346953750,,,
52.5781250000,6,0.5821533203,,,
52.5937500000,6,0.3475646973,,,
52.6093750000,6,0.1946486980,,,
52.6250000000,6,0.2311934978,,,
52.6406250000,6,0.4630202949,,,
52.6562500000,6,0.7782592773,,,
52.6718750000,6,1.0380250216,,,
52.6875000000,6,1.1469960213,,,
52.7031250000,6,1.0925370455,,,
52.7187500000,6,0.9462432861,,,
52.7343750000,6,0.7872924805,,,
52.7500000000,6,0.6563262939,,,
52.7656250000,6,0.5533676147,,,
52.7812500000,6,0.4453735054,,,
52.7968750000,6,0.3175964057,,,
52.8125000000,6,0.1907501072,,,
52.8281250000,6,0.0910415575,,,
52.8437500000,6,0.0246581994,,,
52.8593750000,6,-0.0355682410,,,
52.8750000000,6,-0.1510162055,,,
52.8906250000,6,-0.3639678955,,,
52.9062500000,6,-0.6611176133,,,
52.9218750000,6,-0.9985656738,,,
52.9375000000,6,-1.3093409538,,,
52.9531250000,6,-1.5293580294,,,
52.9687500000,6,-1.6244579554,,,
52.9843750000,6,-1.5828700066,,,
53.0000000000,6,-1.4199680090,,,
53.0156250000,6,-1.1550220251,,,
53.0312500000,6,-0.8687285781,,,
53.0468750000,6,-0.6351317763,,,
53.0625000000,6,-0.5234680176,,,
53.0781250000,6,-0.5596848130,,,
53.0937500000,6,-0.7188339233,,,
53.1093750000,6,-0.9194260240,,,
53.1250000000,6,-1.0571290255,,,
53.1406250000,6,-1.0152510405,,,
53.1562500000,6,-0.7598571777,,,
53.1718750000,6,-0.3290404975,,,
53.1875000000,6,0.1905746013,,,
53.2031250000,6,0.6970291138,,,
53.2187500000,6,1.1038819551,,,
53.2343750000,6,1.3954999447,,,
53.2500000000,6,1.5768359900,,,
53.2656250000,6,1.6839900017,,,
53.2812500000,6,1.7455979586,,,
53.2968750000,6,1.7481080294,,,
53.3125000000,6,1.6495740414,,,
53.3281250000,6,1.4102100134,,,
53.3437500000,6,1.0272899866,,,
53.3593750000,6,0.5451660156,,,
53.3750000000,6,0.0522689782,,,
53.3906250000,6,-0.3962326050,,,
53.4062500000,6,-0.7529144287,,,
53.4218750000,6,-1.0177379847,,,
53.4375000000,6,-1.2125469446,,,
53.4531250000,6,-1.3493880033,,,
53.4687500000,6,-1.4181209803,,,
53.4843750000,6,-1.3990479708,,,
53.5000000000,6,-1.3213880062,,,
53.5156250000,6,-1.2157590389,,,
53.5312500000,6,-1.1416779757,,,
53.5468750000,6,-1.1474000216,,,
53.5625000000,6,-1.2411270142,,,
53.5781250000,6,-1.3958820105,,,
53.5937500000,6,-1.5424799919,,,
53.6093750000,6,-1.6140819788,,,
53.6250000000,6,-1.5478440523,,,
53.6406250000,6,-1.3051830530,,,
53.6562500000,6,-0.8861312866,,,
53.6718750000,6,-0.3447571099,,,
53.6875000000,6,0.2202147990,,,
53.7031250000,6,0.7339553833,,,
53.7187500000,6,1.1136629581,,,
53.7343750000,6,1.3410340548,,,
53.7500000000,6,1.4169310331,,,
53.7656250000,6,1.3419489861,,,
53.7812500000,6,1.1186749935,,,
53.7968750000,6,0.7563170791,,,
53.8125000000,6,0.3004683852,,,
53.8281250000,6,-0.1539763957,,,
53.8437500000,6,-0.4786911011,,,
53.8593750000,6,-0.5727844238,,,
53.8750000000,6,-0.3881835938,,,
53.8906250000,6,0.0063400269,,,
53.9062500000,6,0.5014572144,,,
53.9218750000,6,0.9861220717,,,
53.9375000000,6,1.4069980383,,,
53.9531250000,6,1.7729949951,,,
53.9687500000,6,2.0846478939,,,
53.9843750000,6,2.3199999332,,,
54.0000000000,6,2.4097599983,,,
54.0156250000,6,2.2870030403,,,
54.0312500000,6,1.9558490515,,,
54.0468750000,6,1.4801709652,,,
54.0625000000,6,0.9827957153,,,
54.0781250000,6,0.5930023193,,,
54.0937500000,6,0.3848952949,,,
54.1093750000,6,0.3393172920,,,
54.1250000000,6,0.3898087144,,,
54.1406250000,6,0.4399338067,,,
54.1562500000,6,0.4074554145,,,
54.1718750000,6,0.2599639893,,,
54.1875000000,6,-0.0216979999,,,
54.2031250000,6,-0.3912658989,,,
54.2187500000,6,-0.8051987290,,,
54.2343750000,6,-1.1829609871,,,
54.2500000000,6,-1.4517209530,,,
54.2656250000,6,-1.5469360352,,,
54.2812500000,6,-1.4139100313,,,
54.2968750000,6,-1.0808030367,,,
54.3125000000,6,-0.6070557237,,,
54.3281250000,6,-0.1096953973,,,
54.3437500000,6,0.2891997993,,,
54.3593750000,6,0.5105895996,,,
54.3750000000,6,0.5345078111,,,
54.3906250000,6,0.3973082900,,,
54.4062500000,6,0.1895675957,,,
54.4218750000,6,-0.0025787349,,,
54.4375000000,6,-0.1639022976,,,
54.4531250000,6,-0.3016510010,,,
54.4687500000,6,-0.4565581977,,,
54.4843750000,6,-0.6201859117,,,
54.5000000000,6,-0.7424393296,,,
54.5156250000,6,-0.7557067871,,,
54.5312500000,6,-0.6022719741,,,
54.5468750000,6,-0.2977981865,,,
54.5625000000,6,0.0799560472,,,
54.5781250000,6,0.4420700073,,,
54.5937500000,6,0.7196350098,,,
54.6093750000,6,0.8836898804,,,
54.6250000000,6,0.9499816895,,,
54.6406250000,6,0.9227982163,,,
54.6562500000,6,0.8120421767,,,
54.6718750000,6,0.6290435791,,,
54.6875000000,6,0.3929749131,,,
54.7031250000,6,0.1324615031,,,
54.7187500000,6,-0.1203232035,,,
54.7343750000,6,-0.3453139961,,,
54.7500000000,6,-0.5490264893,,,
54.7656250000,6,-0.7345656753,,,
54.7812500000,6,-0.8839951158,,,
54.7968750000,6,-0.9488983154,,,
54.8125000000,6,-0.8752365112,,,
54.8281250000,6,-0.6403121948,,,
54.8437500000,6,-0.2944945991,,,
54.8593750000,6,0.0635986328,,,
54.8750000000,6,0.3175125122,,,
54.8906250000,6,0.3829269111,,,
54.9062500000,6,0.2684707940,,,
54.9218750000,6,0.0595245399,,,
54.9375000000,6,-0.1466293037,,,
54.9531250000,6,-0.2902145088,,,
54.9687500000,6,-0.4046401978,,,
54.9843750000,6,-0.5643538833,,,
55.0000000000,6,-0.8196105957,,,
55.0156250000,6,-1.1458439827,,,
55.0312500000,6,-1.4028090239,,,
55.0468750000,6,-1.4156570435,,,
55.0625000000,6,-1.0786590576,,,
55.0781250000,6,-0.4198074043,,,
55.0937500000,6,0.3901520073,,,
55.1093750000,6,1.1218489408,,,
55.1250000000,6,1.5804669857,,,
55.1406250000,6,1.6727219820,,,
55.1562500000,6,1.4262919426,,,
55.1718750000,6,0.9926834106,,,
55.1875000000,6,0.5615004897,,,
55.2031250000,6,0.2748565972,,,
55.2187500000,6,0.1984405965,,,
55.2343750000,6,0.3036957085,,,
55.2500000000,6,0.4689713120,,,
55.2656250000,6,0.5733566284,,,
55.2812500000,6,0.5270615220,,,
55.2968750000,6,0.3133544922,,,
55.3125000000,6,0.0013351440,,,
55.3281250000,6,-0.3111343086,,,
55.3437500000,6,-0.5585709214,,,
55.3593750000,6,-0.7044448853,,,
55.3750000000,6,-0.7553253174,,,
55.3906250000,6,-0.7228775024,,,
55.4062500000,6,-0.5918273926,,,
55.4218750000,6,-0.3393402100,,,
55.4375000000,6,0.0296325702,,,
55.4531250000,6,0.4427337945,,,
55.4687500000,6,0.7937393188,,,
55.4843750000,6,0.9798737168,,,
55.5000000000,6,0.9873275757,,,
55.5156250000,6,0.8663024902,,,
55.5312500000,6,0.7019882202,,,
55.5468750000,6,0.5576323867,,,
55.5625000000,6,0.4408417046,,,
55.5781250000,6,0.2951050103,,,
55.5937500000,6,0.0822830200,,,
55.6093750000,6,-0.1753005981,,,
55.6250000000,6,-0.4084624946,,,
55.6406250000,6,-0.5127639771,,,
55.6562500000,6,-0.4686278999,,,
55.6718750000,6,-0.3323517144,,,
55.6875000000,6,-0.2046737969,,,
55.7031250000,6,-0.1687622070,,,
55.7187500000,6,-0.2319107056,,,
55.7343750000,6,-0.3161697090,,,
55.7500000000,6,-0.3457489014,,,
55.7656250000,6,-0.2909164131,,,
55.7812500000,6,-0.1666412055,,,
55.7968750000,6,-0.0327758789,,,
55.8125000000,6,0.0757904127,,,
55.8281250000,6,0.1662521064,,,
55.8437500000,6,0.2599563897,,,
55.8593750000,6,0.3496780097,,,
55.8750000000,6,0.3822098076,,,
55.8906250000,6,0.2679367065,,,
55.9062500000,6,-0.0494003296,,,
55.9218750000,6,-0.5419998169,,,
55.9375000000,6,-1.0861049891,,,
55.9531250000,6,-1.5313869715,,,
55.9687500000,6,-1.7541660070,,,
55.9843750000,6,-1.7261580229,,,
56.0000000000,7,-1.5232850313,,,
56.0156250000,7,-1.2717440128,,,
56.0312500000,7,-1.0744550228,,,
56.0468750000,7,-0.9379044175,,,
56.0625000000,7,-0.7852172852,,,
56.0781250000,7,-0.5278090835,,,
56.0937500000,7,-0.1458130032,,,
56.1093750000,7,0.2914963067,,,
56.1250000000,7,0.6560668945,,,
