Time:64Hz,Epoch,Channel 1,Event Id,Event Date,Event Duration
0.0000000000,0,1.1695859432,,,
0.0156250000,0,0.4262390137,,,
0.0312500000,0,-0.3406372070,,,
0.0468750000,0,-1.0433650017,,,
0.0625000000,0,-1.6333010197,,,
0.0781250000,0,-2.0870358944,,,
0.0937500000,0,-2.3793950081,,,
0.1093750000,0,-2.4655759335,,,
0.1250000000,0,-2.3284609318,,,
0.1406250000,0,-2.0143129826,,,
0.1562500000,0,-1.5814210176,,,
0.1718750000,0,-1.0803220272,,,
0.1875000000,0,-0.5292053223,,,
0.2031250000,0,0.0663757324,,,
0.2187500000,0,0.6894835830,,,
0.2343750000,0,1.2698669434,,,
0.2500000000,0,1.7010799646,,,
0.2656250000,0,1.9074709415,,,
0.2812500000,0,1.8631290197,,,
0.2968750000,0,1.6098020077,,,
0.3125000000,0,1.2366939783,,,
0.3281250000,0,0.8142395020,,,
0.3437500000,0,0.3865967095,,,
0.3593750000,0,-0.0213012695,,,
0.3750000000,0,-0.3716430962,,,
0.3906250000,0,-0.6066284180,,,
0.4062500000,0,-0.6842957139,,,
0.4218750000,0,-0.6101074219,,,
0.4375000000,0,-0.4645996094,,,
0.4531250000,0,-0.3571166992,,,
0.4687500000,0,-0.3727416992,,,
0.4843750000,0,-0.4996337891,,,
0.5000000000,0,-0.6534423828,,,
0.5156250000,0,-0.7464600205,,,
0.5312500000,0,-0.7343444824,,,
0.5468750000,0,-0.6878356934,,,
0.5625000000,0,-0.7146605849,,,
0.5781250000,0,-0.9320374131,,,
0.5937500000,0,-1.3967900276,,,
0.6093750000,0,-2.0381159782,,,
0.6250000000,0,-2.6804499626,,,
0.6406250000,0,-3.1280519962,,,
0.6562500000,0,-3.2241520882,,,
0.6718750000,0,-2.9179379940,,,
0.6875000000,0,-2.2912290096,,,
0.7031250000,0,-1.4996639490,,,
0.7187500000,0,-0.7095031738,,,
0.7343750000,0,-0.0577087402,,,
0.7500000000,0,0.3813476861,,,
0.7656250000,0,0.6279296875,,,
0.7812500000,0,0.7529907227,,,
0.7968750000,0,0.8194885254,,,
0.8125000000,0,0.8878479004,,,
0.8281250000,0,0.9769592285,,,
0.8437500000,0,1.0466309786,,,
0.8593750000,0,1.0570980310,,,
0.8750000000,0,0.9856262207,,,
0.8906250000,0,0.8468322754,,,
0.9062500000,0,0.7165833116,,,
0.9218750000,0,0.6843872070,,,
0.9375000000,0,0.7791442871,,,
0.9531250000,0,0.9683837891,,,
0.9687500000,0,1.1337889433,,,
0.9843750000,0,1.1644899845,,,
1.0000000000,0,1.0652769804,,,
1.0156250000,0,0.9122313857,,,
1.0312500000,0,0.8106995225,,,
1.0468750000,0,0.8111572266,,,
1.0625000000,0,0.8561096191,,,
1.0781250000,0,0.8012390137,,,
1.0937500000,0,0.5438842773,,,
1.1093750000,0,0.1058960035,,,
1.1250000000,0,-0.3581848145,,,
1.1406250000,0,-0.6628112793,,,
1.1562500000,0,-0.7236328125,,,
1.1718750000,0,-0.5989990234,,,
1.1875000000,0,-0.4673157036,,,
1.2031250000,0,-0.4774779975,,,
1.2187500000,0,-0.6408690810,,,
1.2343750000,0,-0.8360900879,,,
1.2500000000,0,-0.8983154297,,,
1.2656250000,0,-0.7576599121,,,
1.2812500000,0,-0.4719542861,,,
1.2968750000,0,-0.2070312947,,,
1.3125000000,0,-0.1110534966,,,
1.3281250000,0,-0.2045592964,,,
1.3437500000,0,-0.3939513862,,,
1.3593750000,0,-0.5458068848,,,
1.3750000000,0,-0.5763854980,,,
1.3906250000,0,-0.5173035264,,,
1.4062500000,0,-0.4619446099,,,
1.4218750000,0,-0.4852294922,,,
1.4375000000,0,-0.5923156738,,,
1.4531250000,0,-0.6831359863,,,
1.4687500000,0,-0.6263427734,,,
1.4843750000,0,-0.3476257026,,,
1.5000000000,0,0.1528320014,,,
1.5156250000,0,0.7704163194,,,
1.5312500000,0,1.3450319767,,,
1.5468750000,0,1.7356569767,,,
1.5625000000,0,1.8840030432,,,
1.5781250000,0,1.8291020393,,,
1.5937500000,0,1.6614990234,,,
1.6093750000,0,1.4550780058,,,
1.6250000000,0,1.2265629768,,,
1.6406250000,0,0.9413146973,,,
1.6562500000,0,0.5476378798,,,
1.6718750000,0,0.0745239332,,,
1.6875000000,0,-0.3785400093,,,
1.7031250000,0,-0.6867980957,,,
1.7187500000,0,-0.7556763291,,,
1.7343750000,0,-0.6035460830,,,
1.7500000000,0,-0.3459778130,,,
1.7656250000,0,-0.1460265964,,,
1.7812500000,0,-0.0805664137,,,
1.7968750000,0,-0.1293945014,,,
1.8125000000,0,-0.1783446968,,,
1.8281250000,0,-0.1171569973,,,
1.8437500000,0,0.0776977465,,,
1.8593750000,0,0.3408508003,,,
1.8750000000,0,0.5540161133,,,
1.8906250000,0,0.6082457900,,,
1.9062500000,0,0.4937134087,,,
1.9218750000,0,0.2852172852,,,
1.9375000000,0,0.0714416504,,,
1.9531250000,0,-0.0962829590,,,
1.9687500000,0,-0.2226257026,,,
1.9843750000,0,-0.3338012993,,,
2.0000000000,0,-0.4386596978,,,
2.0156250000,0,-0.4887390137,,,
2.0312500000,0,-0.4492188096,,,
2.0468750000,0,-0.3036499023,,,
2.0625000000,0,-0.1379394978,,,
2.0781250000,0,-0.0823669434,,,
2.0937500000,0,-0.2539672852,,,
2.1093750000,0,-0.6744995117,,,
2.1250000000,0,-1.2207640409,,,
2.1406250000,0,-1.6657710075,,,
2.1562500000,0,-1.8031009436,,,
2.1718750000,0,-1.5563349724,,,
2.1875000000,0,-1.0091249943,,,
2.2031250000,0,-0.3791199028,,,
2.2187500000,0,0.1117248982,,,
2.2343750000,0,0.3387756050,,,
2.2500000000,0,0.3275145888,,,
2.2656250000,0,0.1934203953,,,
2.2812500000,0,0.0725402832,,,
2.2968750000,0,0.0461425819,,,
2.3125000000,0,0.0817565918,,,
2.3281250000,0,0.1069336012,,,
2.3437500000,0,0.0625305176,,,
2.3593750000,0,-0.0325317383,,,
2.3750000000,0,-0.0742797926,,,
2.3906250000,0,0.0387878418,,,
2.4062500000,0,0.3393859863,,,
2.4218750000,0,0.7413939834,,,
2.4375000000,0,1.1173399687,,,
2.4531250000,0,1.3123780489,,,
2.4687500000,0,1.2407840490,,,
2.4843750000,0,0.9445800781,,,
2.5000000000,0,0.5225830078,,,
2.5156250000,0,0.1292418987,,,
2.5312500000,0,-0.1288757026,,,
2.5468750000,0,-0.2117615044,,,
2.5625000000,0,-0.1629943997,,,
2.5781250000,0,-0.0371398889,,,
2.5937500000,0,0.0815734863,,,
2.6093750000,0,0.1471251994,,,
2.6250000000,0,0.1467590034,,,
2.6406250000,0,0.0864562988,,,
2.6562500000,0,-0.0081787109,,,
2.6718750000,0,-0.1118469015,,,
2.6875000000,0,-0.2108153999,,,
2.7031250000,0,-0.2963562012,,,
2.7187500000,0,-0.3659363091,,,
2.7343750000,0,-0.4030762017,,,
2.7500000000,0,-0.3891296089,,,
2.7656250000,0,-0.3067626953,,,
2.7812500000,0,-0.1710814983,,,
2.7968750000,0,-0.0097351074,,,
2.8125000000,0,0.1338806003,,,
2.8281250000,0,0.2031555027,,,
2.8437500000,0,0.1762695014,,,
2.8593750000,0,0.0455017090,,,
2.8750000000,0,-0.1762084961,,,
2.8906250000,0,-0.4546813965,,,
2.9062500000,0,-0.7206726074,,,
2.9218750000,0,-0.9432678223,,,
2.9375000000,0,-1.0753779411,,,
2.9531250000,0,-1.1080629826,,,
2.9687500000,0,-1.0566099882,,,
2.9843750000,0,-0.9274291992,,,
3.0000000000,0,-0.7271729112,,,
3.0156250000,0,-0.4623717964,,,
3.0312500000,0,-0.1543273926,,,
3.0468750000,0,0.1385193020,,,
3.0625000000,0,0.2941895127,,,
3.0781250000,0,0.2007751018,,,
3.0937500000,0,-0.1722716987,,,
3.1093750000,0,-0.7342224121,,,
3.1250000000,0,-1.2738649845,,,
3.1406250000,0,-1.5492550135,,,
3.1562500000,0,-1.4170229435,,,
3.1718750000,0,-0.9246215820,,,
3.1875000000,0,-0.2790527046,,,
3.2031250000,0,0.2576599121,,,
3.2187500000,0,0.5035706162,,,
3.2343750000,0,0.4591369927,,,
3.2500000000,0,0.2460326999,,,
3.2656250000,0,0.0462951697,,,
3.2812500000,0,-0.0106201200,,,
3.2968750000,0,0.0875549316,,,
3.3125000000,0,0.2540588081,,,
3.3281250000,0,0.3899536133,,,
3.3437500000,0,0.4228515923,,,
3.3593750000,0,0.3620299995,,,
3.3750000000,0,0.2899779975,,,
3.3906250000,0,0.2857361138,,,
3.4062500000,0,0.4025574028,,,
3.4218750000,0,0.6252136230,,,
3.4375000000,0,0.8813170791,,,
3.4531250000,0,1.0928959846,,,
3.4687500000,0,1.2052309513,,,
3.4843750000,0,1.2337650061,,,
3.5000000000,0,1.2405400276,,,
3.5156250000,0,1.3052370548,,,
3.5312500000,0,1.4416500330,,,
3.5468750000,0,1.6030579805,,,
3.5625000000,0,1.7237240076,,,
3.5781250000,0,1.7164310217,,,
3.5937500000,0,1.5665889978,,,
3.6093750000,0,1.3027950525,,,
3.6250000000,0,0.9809569716,,,
3.6406250000,0,0.6483458877,,,
3.6562500000,0,0.3406066895,,,
3.6718750000,0,0.0570983887,,,
3.6875000000,0,-0.1643981934,,,
3.7031250000,0,-0.3004455864,,,
3.7187500000,0,-0.3637999892,,,
3.7343750000,0,-0.3789978027,,,
3.7500000000,0,-0.3995667100,,,
3.7656250000,0,-0.4645690918,,,
3.7812500000,0,-0.5533142090,,,
3.7968750000,0,-0.5925902724,,,
3.8125000000,0,-0.5277100205,,,
3.8281250000,0,-0.3405457139,,,
3.8437500000,0,-0.0924987793,,,
3.8593750000,0,0.1078796014,,,
3.8750000000,0,0.1871947944,,,
3.8906250000,0,0.1325989068,,,
3.9062500000,0,-0.0001525879,,,
3.9218750000,0,-0.1188964993,,,
3.9375000000,0,-0.1535034031,,,
3.9531250000,0,-0.0923156664,,,
3.9687500000,0,0.0244140606,,,
3.9843750000,0,0.1408081055,,,
4.0000000000,0,0.2058715969,,,
4.0156250000,0,0.2138366997,,,
4.0312500000,0,0.1845397949,,,
4.0468750000,0,0.1367492974,,,
4.0625000000,0,0.0977783203,,,
4.0781250000,0,0.0380554199,,,
4.0937500000,0,-0.0948791504,,,
4.1093750000,0,-0.3414306939,,,
4.1250000000,0,-0.6797484756,,,
4.1406250000,0,-1.0151059628,,,
4.1562500000,0,-1.2100219727,,,
4.1718750000,0,-1.2005620003,,,
4.1875000000,0,-1.0083010197,,,
4.2031250000,0,-0.7536010742,,,
4.2187500000,0,-0.5774230957,,,
4.2343750000,0,-0.5631104112,,,
4.2500000000,0,-0.6636046767,,,
4.2656250000,0,-0.7725830078,,,
4.2812500000,0,-0.7722167969,,,
4.2968750000,0,-0.6233521104,,,
4.3125000000,0,-0.3913269043,,,
4.3281250000,0,-0.1765137017,,,
4.3437500000,0,-0.0548706092,,,
4.3593750000,0,-0.0180664100,,,
4.3750000000,0,0.0247497596,,,
4.3906250000,0,0.1531676948,,,
4.4062500000,0,0.3901366889,,,
4.4218750000,0,0.6638793945,,,
4.4375000000,0,0.8849486709,,,
4.4531250000,0,0.9429625869,,,
4.4687500000,0,0.8064879775,,,
4.4843750000,0,0.5273131728,,,
4.5000000000,0,0.2033081055,,,
4.5156250000,0,-0.0375671387,,,
4.5312500000,0,-0.0953063965,,,
4.5468750000,0,0.0588989295,,,
4.5625000000,0,0.3925476074,,,
4.5781250000,0,0.8229979873,,,
4.5937500000,0,1.2446899414,,,
4.6093750000,0,1.5821230412,,,
4.6250000000,0,1.7912900448,,,
4.6406250000,0,1.8470460176,,,
4.6562500000,0,1.7318420410,,,
4.6718750000,0,1.4433590174,,,
4.6875000000,0,0.9786376953,,,
4.7031250000,0,0.3575438857,,,
4.7187500000,0,-0.3535766900,,,
4.7343750000,0,-1.0813900232,,,
4.7500000000,0,-1.7130739689,,,
4.7656250000,0,-2.1631770134,,,
4.7812500000,0,-2.3711550236,,,
4.7968750000,0,-2.3280029297,,,
4.8125000000,0,-2.0882260799,,,
4.8281250000,0,-1.7312320471,,,
4.8437500000,0,-1.3733220100,,,
4.8593750000,0,-1.1156920195,,,
4.8750000000,0,-1.0042419434,,,
4.8906250000,0,-1.0160830021,,,
4.9062500000,0,-1.0746769905,,,
4.9218750000,0,-1.0740360022,,,
4.9375000000,0,-0.9159240723,,,
4.9531250000,0,-0.5844727159,,,
4.9687500000,0,-0.1238097996,,,
4.9843750000,0,0.3611755073,,,
5.0000000000,0,0.7638245225,,,
5.0156250000,0,1.0148930550,,,
5.0312500000,0,1.0910639763,,,
5.0468750000,0,1.0225219727,,,
5.0625000000,0,0.8825377822,,,
5.0781250000,0,0.7433472276,,,
5.0937500000,0,0.6325377822,,,
5.1093750000,0,0.5484008789,,,
5.1250000000,0,0.4385986030,,,
5.1406250000,0,0.2598572075,,,
5.1562500000,0,0.0011596680,,,
5.1718750000,0,-0.3056029975,,,
5.1875000000,0,-0.5937500000,,,
5.2031250000,0,-0.7825316787,,,
5.2187500000,0,-0.8098145127,,,
5.2343750000,0,-0.6824951172,,,
5.2500000000,0,-0.4411925972,,,
5.2656250000,0,-0.1803894043,,,
5.2812500000,0,0.0096435547,,,
5.2968750000,0,0.0710143968,,,
5.3125000000,0,0.0018005370,,,
5.3281250000,0,-0.1471862942,,,
5.3437500000,0,-0.3085938096,,,
5.3593750000,0,-0.4257813096,,,
5.3750000000,0,-0.4750365913,,,
5.3906250000,0,-0.4449462891,,,
5.4062500000,0,-0.3696899116,,,
5.4218750000,0,-0.2549743950,,,
5.4375000000,0,-0.1122436970,,,
5.4531250000,0,0.0433349609,,,
5.4687500000,0,0.1973571926,,,
5.4843750000,0,0.3479919136,,,
5.5000000000,0,0.5054321289,,,
5.5156250000,0,0.7003784180,,,
5.5312500000,0,0.9544982910,,,
5.5468750000,0,1.2412110567,,,
5.5625000000,0,1.5168459415,,,
5.5781250000,0,1.6956180334,,,
5.5937500000,0,1.7019959688,,,
5.6093750000,0,1.5144649744,,,
5.6250000000,0,1.1676030159,,,
5.6406250000,0,0.7115784287,,,
5.6562500000,0,0.2088928074,,,
5.6718750000,0,-0.3125304878,,,
5.6875000000,0,-0.8440551758,,,
5.7031250000,0,-1.3128050566,,,
5.7187500000,0,-1.6146240234,,,
5.7343750000,0,-1.6569210291,,,
5.7500000000,0,-1.4082340002,,,
5.7656250000,0,-0.9366455078,,,
5.7812500000,0,-0.3766174018,,,
5.7968750000,0,0.1318664998,,,
5.8125000000,0,0.5135192871,,,
5.8281250000,0,0.7796936035,,,
5.8437500000,0,0.9467163086,,,
5.8593750000,0,1.0075989962,,,
5.8750000000,0,0.9296569824,,,
5.8906250000,0,0.6824340820,,,
5.9062500000,0,0.2959290147,,,
5.9218750000,0,-0.0886230469,,,
5.9375000000,0,-0.3220520020,,,
5.9531250000,0,-0.2937316895,,,
5.9687500000,0,-0.0585632287,,,
5.9843750000,0,0.1975402981,,,
6.0000000000,0,0.2803040147,,,
6.0156250000,0,0.0707397535,,,
6.0312500000,0,-0.3501892090,,,
6.0468750000,0,-0.8212584853,,,
6.0625000000,0,-1.1384890079,,,
6.0781250000,0,-1.2208859921,,,
6.0937500000,0,-1.1291500330,,,
6.1093750000,0,-0.9836425781,,,
6.1250000000,0,-0.8964539170,,,
6.1406250000,0,-0.8985900879,,,
6.1562500000,0,-0.9573668838,,,
6.1718750000,0,-1.0138850212,,,
6.1875000000,0,-1.0674439669,,,
6.2031250000,0,-1.1521300077,,,
6.2187500000,0,-1.2820130587,,,
6.2343750000,0,-1.4168089628,,,
6.2500000000,0,-1.4437259436,,,
6.2656250000,0,-1.2698359489,,,
6.2812500000,0,-0.8634948730,,,
6.2968750000,0,-0.3166503906,,,
6.3125000000,0,0.2180480957,,,
6.3281250000,0,0.6412354112,,,
6.3437500000,0,0.9339904785,,,
6.3593750000,0,1.1647640467,,,
6.3750000000,0,1.4277039766,,,
6.3906250000,0,1.7635190487,,,
6.4062500000,0,2.0874021053,,,
6.4218750000,0,2.2905271053,,,
6.4375000000,0,2.2618100643,,,
6.4531250000,0,1.9978940487,,,
6.4687500000,0,1.5988459587,,,
6.4843750000,0,1.2042850256,,,
6.5000000000,0,0.9378356934,,,
6.5156250000,0,0.8102111816,,,
6.5312500000,0,0.7748107910,,,
6.5468750000,0,0.6892395020,,,
6.5625000000,0,0.4771729112,,,
6.5781250000,0,0.1731262058,,,
6.5937500000,0,-0.1228943020,,,
6.6093750000,0,-0.2448424995,,,
6.6250000000,0,-0.1257019043,,,
6.6406250000,0,0.1951903999,,,
6.6562500000,0,0.5338439941,,,
6.6718750000,0,0.6962891221,,,
6.6875000000,0,0.5550842285,,,
6.7031250000,0,0.1056213006,,,
6.7187500000,0,-0.5348510742,,,
6.7343750000,0,-1.2339479923,,,
6.7500000000,0,-1.8562619686,,,
6.7656250000,0,-2.3178410530,,,
6.7812500000,0,-2.5528559685,,,
6.7968750000,0,-2.5480959415,,,
6.8125000000,0,-2.3208620548,,,
6.8281250000,0,-1.9697569609,,,
6.8437500000,0,-1.6142270565,,,
6.8593750000,0,-1.3809510469,,,
6.8750000000,0,-1.3369749784,,,
6.8906250000,0,-1.4324339628,,,
6.9062500000,0,-1.5567929745,,,
6.9218750000,0,-1.5766600370,,,
6.9375000000,0,-1.4416500330,,,
6.9531250000,0,-1.1428829432,,,
6.9687500000,0,-0.7672119141,,,
6.9843750000,0,-0.3712157905,,,
7.0000000000,0,0.0039062500,,,
7.0156250000,0,0.3467406929,,,
7.0312500000,0,0.6896666884,,,
7.0468750000,0,1.0421450138,,,
7.0625000000,0,1.4057619572,,,
7.0781250000,0,1.7271120548,,,
7.0937500000,0,1.9408260584,,,
7.1093750000,0,1.9778749943,,,
7.1250000000,0,1.8046879768,,,
7.1406250000,0,1.4815059900,,,
7.1562500000,0,1.1186219454,,,
7.1718750000,0,0.8327636719,,,
7.1875000000,0,0.6976624131,,,
7.2031250000,0,0.7225952148,,,
7.2187500000,0,0.8740233779,,,
7.2343750000,0,1.0978089571,,,
7.2500000000,0,1.3547669649,,,
7.2656250000,0,1.6229859591,,,
7.2812500000,0,1.9014279842,,,
7.2968750000,0,2.1267399788,,,
7.3125000000,0,2.2615358829,,,
7.3281250000,0,2.2380681038,,,
7.3437500000,0,2.0437009335,,,
7.3593750000,0,1.7081300020,,,
7.3750000000,0,1.2814940214,,,
7.3906250000,0,0.7928162217,,,
7.4062500000,0,0.2604979873,,,
7.4218750000,0,-0.2944031060,,,
7.4375000000,0,-0.8568419814,,,
7.4531250000,0,-1.3257750273,,,
7.4687500000,0,-1.6181950569,,,
7.4843750000,0,-1.6444699764,,,
7.5000000000,0,-1.3980100155,,,
7.5156250000,0,-0.9457703233,,,
7.5312500000,0,-0.4278258979,,,
7.5468750000,0,-0.0169677697,,,
7.5625000000,0,0.1699828953,,,
7.5781250000,0,0.0870666504,,,
7.5937500000,0,-0.1893616021,,,
7.6093750000,0,-0.4744873047,,,
7.6250000000,0,-0.5831909180,,,
7.6406250000,0,-0.3973388970,,,
7.6562500000,0,0.0698242188,,,
7.6718750000,0,0.6526489258,,,
7.6875000000,0,1.1182559729,,,
7.7031250000,0,1.2699279785,,,
7.7187500000,0,1.0318599939,,,
7.7343750000,0,0.4849854112,,,
7.7500000000,0,-0.2075805962,,,
7.7656250000,0,-0.8593140244,,,
7.7812500000,0,-1.3408199549,,,
7.7968750000,0,-1.6385500431,,,
7.8125000000,0,-1.7740780115,,,
7.8281250000,0,-1.8010859489,,,
7.8437500000,0,-1.7672729492,,,
7.8593750000,0,-1.6850589514,,,
7.8750000000,0,-1.5372920036,,,
7.8906250000,0,-1.3028260469,,,
7.9062500000,0,-0.9908142090,,,
7.9218750000,0,-0.6453856826,,,
7.9375000000,0,-0.3329772949,,,
7.9531250000,0,-0.1100464016,,,
7.9687500000,0,0.0317687988,,,
7.9843750000,0,0.1258545071,,,
8.0000000000,1,0.2409362942,,,
8.0156250000,1,0.4105224907,,,
8.0312500000,1,0.6159058213,,,
8.0468750000,1,0.7834473252,,,
8.0625000000,1,0.8336182237,,,
8.0781250000,1,0.7683715820,,,
8.0937500000,1,0.6425170898,,,
8.1093750000,1,0.5818176270,,,
8.1250000000,1,0.6773375869,,,
8.1406250000,1,0.9622498155,,,
8.1562500000,1,1.3880000114,,,
8.1718750000,1,1.8476259708,,,
8.1875000000,1,2.2289431095,,,
8.2031250000,1,2.4388120174,,,
8.2187500000,1,2.4140009880,,,
8.2343750000,1,2.1275939941,,,
8.2500000000,1,1.5953669548,,,
8.2656250000,1,0.9034423828,,,
8.2812500000,1,0.1491394043,,,
8.2968750000,1,-0.5871276855,,,
8.3125000000,1,-1.2743530273,,,
8.3281250000,1,-1.9099730253,,,
8.3437500000,1,-2.4942929745,,,
8.3593750000,1,-2.9905700684,,,
8.3750000000,1,-3.3377990723,,,
8.3906250000,1,-3.4512629509,,,
8.4062500000,1,-3.3058779240,,,
8.4218750000,1,-2.9457089901,,,
8.4375000000,1,-2.4641718864,,,
8.4531250000,1,-1.9716490507,,,
8.4687500000,1,-1.4911500216,,,
8.4843750000,1,-1.0212399960,,,
8.5000000000,1,-0.5383911133,,,
8.5156250000,1,-0.0684814528,,,
8.5312500000,1,0.3186646104,,,
8.5468750000,1,0.5483093262,,,
8.5625000000,1,0.5942382813,,,
8.5781250000,1,0.5121459961,,,
8.5937500000,1,0.4055480957,,,
8.6093750000,1,0.3853454888,,,
8.6250000000,1,0.4978942871,,,
8.6406250000,1,0.7160949707,,,
8.6562500000,1,0.9755858779,,,
8.6718750000,1,1.1701660156,,,
8.6875000000,1,1.2283630371,,,
8.7031250000,1,1.1265560389,,,
8.7187500000,1,0.8962401748,,,
8.7343750000,1,0.6330565810,,,
8.7500000000,1,0.4468994141,,,
8.7656250000,1,0.4470215142,,,
8.7812500000,1,0.6573485732,,,
8.7968750000,1,1.0162960291,,,
8.8125000000,1,1.3941349983,,,
8.8281250000,1,1.6473690271,,,
8.8437500000,1,1.6586610079,,,
8.8593750000,1,1.4088439941,,,
8.8750000000,1,0.9305419922,,,
8.8906250000,1,0.3093566895,,,
8.9062500000,1,-0.3599242866,,,
8.9218750000,1,-0.9826049805,,,
8.9375000000,1,-1.4848940372,,,
8.9531250000,1,-1.8017580509,,,
8.9687500000,1,-1.8738709688,,,
8.9843750000,1,-1.6729129553,,,
9.0000000000,1,-1.2283329964,,,
9.0156250000,1,-0.6131591797,,,
9.0312500000,1,0.0649108887,,,
9.0468750000,1,0.6664733887,,,
9.0625000000,1,1.0667109489,,,
9.0781250000,1,1.1955569983,,,
9.0937500000,1,1.0394289494,,,
9.1093750000,1,0.6546021104,,,
9.1250000000,1,0.1668090969,,,
9.1406250000,1,-0.2991637886,,,
9.1562500000,1,-0.6217650771,,,
9.1718750000,1,-0.7600708008,,,
9.1875000000,1,-0.7225341797,,,
9.2031250000,1,-0.5807189941,,,
9.2187500000,1,-0.4125365913,,,
9.2343750000,1,-0.2832947075,,,
9.2500000000,1,-0.2191772014,,,
9.2656250000,1,-0.2042846978,,,
9.2812500000,1,-0.2203063965,,,
9.2968750000,1,-0.2536315918,,,
9.3125000000,1,-0.3303528130,,,
9.3281250000,1,-0.4744873047,,,
9.3437500000,1,-0.7060852051,,,
9.3593750000,1,-0.9977111816,,,
9.3750000000,1,-1.2913819551,,,
9.3906250000,1,-1.5109250546,,,
9.4062500000,1,-1.6237180233,,,
9.4218750000,1,-1.6410520077,,,
9.4375000000,1,-1.6083680391,,,
9.4531250000,1,-1.5727230310,,,
9.4687500000,1,-1.5471500158,,,
9.4843750000,1,-1.4865720272,,,
9.5000000000,1,-1.3498539925,,,
9.5156250000,1,-1.1066590548,,,
9.5312500000,1,-0.7723999023,,,
9.5468750000,1,-0.4145202935,,,
9.5625000000,1,-0.1148682013,,,
9.5781250000,1,0.0858459473,,,
9.5937500000,1,0.1944884956,,,
9.6093750000,1,0.2466430962,,,
9.6250000000,1,0.2828369141,,,
9.6406250000,1,0.3297424018,,,
9.6562500000,1,0.4006958008,,,
9.6718750000,1,0.4982909858,,,
9.6875000000,1,0.6193541884,,,
9.7031250000,1,0.7406005859,,,
9.7187500000,1,0.8338623047,,,
9.7343750000,1,0.8576354980,,,
9.7500000000,1,0.7729187012,,,
9.7656250000,1,0.5843201280,,,
9.7812500000,1,0.3338317871,,,
9.7968750000,1,0.0898437500,,,
9.8125000000,1,-0.0797729492,,,
9.8281250000,1,-0.1340637058,,,
9.8437500000,1,-0.0744628906,,,
9.8593750000,1,0.0905761719,,,
9.8750000000,1,0.3033142090,,,
9.8906250000,1,0.5119628906,,,
9.9062500000,1,0.6642456055,,,
9.9218750000,1,0.7095336914,,,
9.9375000000,1,0.6268311143,,,
9.9531250000,1,0.4335327148,,,
9.9687500000,1,0.1906127930,,,
9.9843750000,1,-0.0228576697,,,
10.0000000000,1,-0.1450500041,,,
10.0156250000,1,-0.1778564006,,,
10.0312500000,1,-0.1621703953,,,
10.0468750000,1,-0.1660155952,,,
10.0625000000,1,-0.2492675930,,,
10.0781250000,1,-0.3939513862,,,
10.0937500000,1,-0.5131530762,,,
10.1093750000,1,-0.4923400879,,,
10.1250000000,1,-0.2590942085,,,
10.1406250000,1,0.1986389011,,,
10.1562500000,1,0.7796326280,,,
10.1718750000,1,1.3575739861,,,
10.1875000000,1,1.8053890467,,,
10.2031250000,1,2.0384221077,,,
10.2187500000,1,2.0363769531,,,
10.2343750000,1,1.8494260311,,,
10.2500000000,1,1.5180360079,,,
10.2656250000,1,1.0756839514,,,
10.2812500000,1,0.5310974121,,,
10.2968750000,1,-0.1118163988,,,
10.3125000000,1,-0.8023682237,,,
10.3281250000,1,-1.4382630587,,,
10.3437500000,1,-1.9171140194,,,
10.3593750000,1,-2.1358339787,,,
10.3750000000,1,-2.0675959587,,,
10.3906250000,1,-1.7414250374,,,
10.4062500000,1,-1.2362060547,,,
10.4218750000,1,-0.6494445801,,,
10.4375000000,1,-0.0647583008,,,
10.4531250000,1,0.4324341118,,,
10.4687500000,1,0.7828978896,,,
10.4843750000,1,0.9208679199,,,
10.5000000000,1,0.8207396865,,,
10.5156250000,1,0.5142517090,,,
10.5312500000,1,0.1002807990,,,
10.5468750000,1,-0.2759093940,,,
10.5625000000,1,-0.4912415147,,,
10.5781250000,1,-0.5317687988,,,
10.5937500000,1,-0.4582520127,,,
10.6093750000,1,-0.3854979873,,,
10.6250000000,1,-0.4160766900,,,
10.6406250000,1,-0.5450134277,,,
10.6562500000,1,-0.6792907715,,,
10.6718750000,1,-0.6796569824,,,
10.6875000000,1,-0.4423218071,,,
10.7031250000,1,0.0227355994,,,
10.7187500000,1,0.5866699219,,,
10.7343750000,1,1.0748599768,,,
10.7500000000,1,1.3576049805,,,
10.7656250000,1,1.4358220100,,,
10.7812500000,1,1.4288940430,,,
10.7968750000,1,1.4891970158,,,
10.8125000000,1,1.6749570370,,,
10.8281250000,1,1.9633480310,,,
10.8437500000,1,2.2203669548,,,
10.8593750000,1,2.3140261173,,,
10.8750000000,1,2.1666870117,,,
10.8906250000,1,1.8152769804,,,
10.9062500000,1,1.3481140137,,,
10.9218750000,1,0.8959044814,,,
10.9375000000,1,0.5517578125,,,
10.9531250000,1,0.3425903022,,,
10.9687500000,1,0.2772217095,,,
10.9843750000,1,0.3148499131,,,
11.0000000000,1,0.3804320991,,,
11.0156250000,1,0.3847655952,,,
11.0312500000,1,0.2548218071,,,
11.0468750000,1,-0.0525817908,,,
11.0625000000,1,-0.4592590034,,,
11.0781250000,1,-0.8497009277,,,
11.0937500000,1,-1.0870670080,,,
11.1093750000,1,-1.0950009823,,,
11.1250000000,1,-0.9012145996,,,
11.1406250000,1,-0.5961608887,,,
11.1562500000,1,-0.2926940918,,,
11.1718750000,1,-0.0680236816,,,
11.1875000000,1,0.0427246094,,,
11.2031250000,1,0.0234375000,,,
11.2187500000,1,-0.1276244968,,,
11.2343750000,1,-0.3987427056,,,
11.2500000000,1,-0.7604675293,,,
11.2656250000,1,-1.1621090174,,,
11.2812500000,1,-1.5021669865,,,
11.2968750000,1,-1.6770319939,,,
11.3125000000,1,-1.6259460449,,,
11.3281250000,1,-1.3488459587,,,
11.3437500000,1,-0.8961182237,,,
11.3593750000,1,-0.3715820014,,,
11.3750000000,1,0.1011658013,,,
11.3906250000,1,0.4125976861,,,
11.4062500000,1,0.4973450005,,,
11.4218750000,1,0.3622131050,,,
11.4375000000,1,0.1054992974,,,
11.4531250000,1,-0.1254272014,,,
11.4687500000,1,-0.1881103963,,,
11.4843750000,1,-0.0075683589,,,
11.5000000000,1,0.3728027046,,,
11.5156250000,1,0.8388062119,,,
11.5312500000,1,1.2500920296,,,
11.5468750000,1,1.5123900175,,,
11.5625000000,1,1.6041560173,,,
11.5781250000,1,1.5802609921,,,
11.5937500000,1,1.5248409510,,,
11.6093750000,1,1.5130000114,,,
11.6250000000,1,1.5624690056,,,
11.6406250000,1,1.6451719999,,,
11.6562500000,1,1.7039179802,,,
11.6718750000,1,1.6738280058,,,
11.6875000000,1,1.5171810389,,,
11.7031250000,1,1.2225650549,,,
11.7187500000,1,0.7991638184,,,
11.7343750000,1,0.3012999892,,,
11.7500000000,1,-0.1940001994,,,
11.7656250000,1,-0.6127625108,,,
11.7812500000,1,-0.8606566787,,,
11.7968750000,1,-0.9111937881,,,
11.8125000000,1,-0.7642211914,,,
11.8281250000,1,-0.5014038086,,,
11.8437500000,1,-0.2454833984,,,
11.8593750000,1,-0.1246642992,,,
11.8750000000,1,-0.1955260932,,,
11.8906250000,1,-0.4483948052,,,
11.9062500000,1,-0.7473449707,,,
11.9218750000,1,-0.9386292100,,,
11.9375000000,1,-0.9175415039,,,
11.9531250000,1,-0.6891785264,,,
11.9687500000,1,-0.3832091987,,,
11.9843750000,1,-0.1539306939,,,
12.0000000000,1,-0.0881958008,,,
12.0156250000,1,-0.1249694973,,,
12.0312500000,1,-0.1446228027,,,
12.0468750000,1,-0.0264892597,,,
12.0625000000,1,0.2111815959,,,
12.0781250000,1,0.4335021973,,,
12.0937500000,1,0.4611206055,,,
12.1093750000,1,0.2630920112,,,
12.1250000000,1,-0.0395812988,,,
12.1406250000,1,-0.2077026069,,,
12.1562500000,1,-0.0375366211,,,
12.1718750000,1,0.4484862983,,,
12.1875000000,1,1.0434880257,,,
12.2031250000,1,1.4596560001,,,
12.2187500000,1,1.5016779900,,,
12.2343750000,1,1.1802059412,,,
12.2500000000,1,0.6627501845,,,
12.2656250000,1,0.1099547967,,,
12.2812500000,1,-0.3861694038,,,
12.2968750000,1,-0.8477172852,,,
12.3125000000,1,-1.3223570585,,,
12.3281250000,1,-1.7910770178,,,
12.3437500000,1,-2.1859130859,,,
12.3593750000,1,-2.4443359375,,,
12.3750000000,1,-2.5372619629,,,
12.3906250000,1,-2.5299680233,,,
12.4062500000,1,-2.4893488884,,,
12.4218750000,1,-2.4490358829,,,
12.4375000000,1,-2.3782649040,,,
12.4531250000,1,-2.2102661133,,,
12.4687500000,1,-1.8793950081,,,
12.4843750000,1,-1.3628540039,,,
12.5000000000,1,-0.6893311143,,,
12.5156250000,1,0.0864868164,,,
12.5312500000,1,0.8871459961,,,
12.5468750000,1,1.6019289494,,,
12.5625000000,1,2.0840759277,,,
12.5781250000,1,2.2416379452,,,
12.5937500000,1,2.0337519646,,,
12.6093750000,1,1.5811769962,,,
12.6250000000,1,1.0528869629,,,
12.6406250000,1,0.6206665039,,,
12.6562500000,1,0.3778075874,,,
12.6718750000,1,0.2893981934,,,
12.6875000000,1,0.2626037896,,,
12.7031250000,1,0.2163390964,,,
12.7187500000,1,0.1604918987,,,
12.7343750000,1,0.1622924954,,,
12.7500000000,1,0.2882690132,,,
12.7656250000,1,0.5093079209,,,
12.7812500000,1,0.6990966797,,,
12.7968750000,1,0.7353516221,,,
12.8125000000,1,0.5440673828,,,
12.8281250000,1,0.1962279975,,,
12.8437500000,1,-0.1460570991,,,
12.8593750000,1,-0.3063659966,,,
12.8750000000,1,-0.2074279934,,,
12.8906250000,1,0.0910034180,,,
12.9062500000,1,0.4228209853,,,
12.9218750000,1,0.6062927246,,,
12.9375000000,1,0.5553284287,,,
12.9531250000,1,0.2864379883,,,
12.9687500000,1,-0.0873718336,,,
12.9843750000,1,-0.4447937012,,,
13.0000000000,1,-0.7115784287,,,
13.0156250000,1,-0.8751220703,,,
13.0312500000,1,-0.9688109756,,,
13.0468750000,1,-1.0242919922,,,
13.0625000000,1,-1.0504460335,,,
13.0781250000,1,-1.0331120491,,,
13.0937500000,1,-0.9760742188,,,
13.1093750000,1,-0.8732299805,,,
13.1250000000,1,-0.7518311143,,,
13.1406250000,1,-0.6413574219,,,
13.1562500000,1,-0.5652465820,,,
13.1718750000,1,-0.5255432129,,,
13.1875000000,1,-0.4962157905,,,
13.2031250000,1,-0.4459533989,,,
13.2187500000,1,-0.3627625108,,,
13.2343750000,1,-0.2436829060,,,
13.2500000000,1,-0.1229552999,,,
13.2656250000,1,-0.0366516113,,,
13.2812500000,1,-0.0229186993,,,
13.2968750000,1,-0.0906982422,,,
13.3125000000,1,-0.2034302056,,,
13.3281250000,1,-0.2934570014,,,
13.3437500000,1,-0.2875976861,,,
13.3593750000,1,-0.1685485989,,,
13.3750000000,1,0.0240173303,,,
13.3906250000,1,0.1921081990,,,
13.4062500000,1,0.2434998006,,,
13.4218750000,1,0.1366576999,,,
13.4375000000,1,-0.0538940392,,,
13.4531250000,1,-0.2120971978,,,
13.4687500000,1,-0.2257079929,,,
13.4843750000,1,-0.0661926270,,,
13.5000000000,1,0.1819763035,,,
13.5156250000,1,0.3726806939,,,
13.5312500000,1,0.3885802925,,,
13.5468750000,1,0.2021179050,,,
13.5625000000,1,-0.0903930664,,,
13.5781250000,1,-0.3364258111,,,
13.5937500000,1,-0.4378052056,,,
13.6093750000,1,-0.3956908882,,,
13.6250000000,1,-0.3240967095,,,
13.6406250000,1,-0.3614197075,,,
13.6562500000,1,-0.5791625977,,,
13.6718750000,1,-0.9324036241,,,
13.6875000000,1,-1.2698669434,,,
13.7031250000,1,-1.4363399744,,,
13.7187500000,1,-1.3421629667,,,
13.7343750000,1,-1.0026860237,,,
13.7500000000,1,-0.5145568848,,,
13.7656250000,1,0.0012512211,,,
13.7812500000,1,0.5053101182,,,
13.7968750000,1,0.9786376953,,,
13.8125000000,1,1.4126280546,,,
13.8281250000,1,1.7465519905,,,
13.8437500000,1,1.8902590275,,,
13.8593750000,1,1.7632750273,,,
13.8750000000,1,1.4078060389,,,
13.8906250000,1,0.9453125000,,,
13.9062500000,1,0.5540465713,,,
13.9218750000,1,0.3441771865,,,
13.9375000000,1,0.3265075982,,,
13.9531250000,1,0.3737488091,,,
13.9687500000,1,0.3544312119,,,
13.9843750000,1,0.1944275051,,,
14.0000000000,1,-0.0505676307,,,
14.0156250000,1,-0.2564696968,,,
14.0312500000,1,-0.3011474907,,,
14.0468750000,1,-0.1460876018,,,
14.0625000000,1,0.1389770955,,,
14.0781250000,1,0.4570007026,,,
14.0937500000,1,0.7040709853,,,
14.1093750000,1,0.8418579102,,,
14.1250000000,1,0.8700562119,,,
14.1406250000,1,0.8278502822,,,
14.1562500000,1,0.7591552734,,,
14.1718750000,1,0.6571350098,,,
14.1875000000,1,0.5086060166,,,
14.2031250000,1,0.2695617974,,,
14.2187500000,1,-0.0769348070,,,
14.2343750000,1,-0.5001525879,,,
14.2500000000,1,-0.8953552246,,,
14.2656250000,1,-1.1407170296,,,
14.2812500000,1,-1.1221309900,,,
14.2968750000,1,-0.8172913194,,,
14.3125000000,1,-0.3308410943,,,
14.3281250000,1,0.1328735054,,,
14.3437500000,1,0.4001465142,,,
14.3593750000,1,0.3836669922,,,
14.3750000000,1,0.1768798977,,,
14.3906250000,1,-0.0188903809,,,
14.4062500000,1,0.0234985407,,,
14.4218750000,1,0.3857421875,,,
14.4375000000,1,1.0138239861,,,
14.4531250000,1,1.6843570471,,,
14.4687500000,1,2.1420290470,,,
14.4843750000,1,2.2098081112,,,
14.5000000000,1,1.8787839413,,,
14.5156250000,1,1.2575989962,,,
14.5312500000,1,0.5215148926,,,
14.5468750000,1,-0.1696777046,,,
14.5625000000,1,-0.7589417100,,,
14.5781250000,1,-1.2447199821,,,
14.5937500000,1,-1.6777650118,,,
14.6093750000,1,-2.0896000862,,,
14.6250000000,1,-2.4478759766,,,
14.6406250000,1,-2.6684880257,,,
14.6562500000,1,-2.6831970215,,,
14.6718750000,1,-2.4604799747,,,
14.6875000000,1,-2.0403139591,,,
14.7031250000,1,-1.5640560389,,,
14.7187500000,1,-1.1756290197,,,
14.7343750000,1,-0.9494934082,,,
14.7500000000,1,-0.8681945801,,,
14.7656250000,1,-0.8278198242,,,
14.7812500000,1,-0.7021790147,,,
14.7968750000,1,-0.4541015923,,,
14.8125000000,1,-0.1439819038,,,
14.8281250000,1,0.0895690918,,,
14.8437500000,1,0.1466369927,,,
14.8593750000,1,0.0299682599,,,
14.8750000000,1,-0.1179198995,,,
14.8906250000,1,-0.1290283054,,,
14.9062500000,1,0.0903625488,,,
14.9218750000,1,0.4945679009,,,
14.9375000000,1,0.9085999131,,,
14.9531250000,1,1.1441349983,,,
14.9687500000,1,1.1072390079,,,
14.9843750000,1,0.8712769151,,,
15.0000000000,1,0.6211243272,,,
15.0156250000,1,0.5255736709,,,
15.0312500000,1,0.6435852051,,,
15.0468750000,1,0.8978881836,,,
15.0625000000,1,1.1632690430,,,
15.0781250000,1,1.3332209587,,,
15.0937500000,1,1.3963010311,,,
15.1093750000,1,1.3867189884,,,
15.1250000000,1,1.3352359533,,,
15.1406250000,1,1.2558289766,,,
15.1562500000,1,1.0968320370,,,
15.1718750000,1,0.7960205078,,,
15.1875000000,1,0.3409729004,,,
15.2031250000,1,-0.1906432956,,,
15.2187500000,1,-0.6775817871,,,
15.2343750000,1,-0.9862365723,,,
15.2500000000,1,-1.0592039824,,,
15.2656250000,1,-0.9638367295,,,
15.2812500000,1,-0.8286437988,,,
15.2968750000,1,-0.7770081162,,,
15.3125000000,1,-0.8657227159,,,
15.3281250000,1,-1.0569150448,,,
15.3437500000,1,-1.2092590332,,,
15.3593750000,1,-1.1924439669,,,
15.3750000000,1,-0.9542847276,,,
15.3906250000,1,-0.5270385742,,,
15.4062500000,1,-0.0394287109,,,
15.4218750000,1,0.3729858100,,,
15.4375000000,1,0.6415709853,,,
15.4531250000,1,0.7814940810,,,
15.4687500000,1,0.8395996094,,,
15.4843750000,1,0.8641663194,,,
15.5000000000,1,0.8552246094,,,
15.5156250000,1,0.7865601182,,,
15.5312500000,1,0.6476135254,,,
15.5468750000,1,0.4528808892,,,
15.5625000000,1,0.2380980998,,,
15.5781250000,1,0.0276489295,,,
15.5937500000,1,-0.1692810059,,,
15.6093750000,1,-0.3545227051,,,
15.6250000000,1,-0.5232543945,,,
15.6406250000,1,-0.6347351074,,,
15.6562500000,1,-0.6184387207,,,
15.6718750000,1,-0.4133605957,,,
15.6875000000,1,-0.0067443852,,,
15.7031250000,1,0.5277100205,,,
15.7187500000,1,1.0537719727,,,
15.7343750000,1,1.4262390137,,,
15.7500000000,1,1.5720210075,,,
15.7656250000,1,1.4954830408,,,
15.7812500000,1,1.3016660213,,,
15.7968750000,1,1.1339420080,,,
15.8125000000,1,1.1160889864,,,
15.8281250000,1,1.2733759880,,,
15.8437500000,1,1.5353389978,,,
15.8593750000,1,1.7682189941,,,
15.8750000000,1,1.8369749784,,,
15.8906250000,1,1.6883850098,,,
15.9062500000,1,1.3679200411,,,
15.9218750000,1,0.9797058105,,,
15.9375000000,1,0.6260375977,,,
15.9531250000,1,0.3261719048,,,
15.9687500000,1,0.0325622596,,,
15.9843750000,1,-0.3337708116,,,
16.0000000000,2,-0.8069458008,,,
16.0156250000,2,-1.3266600370,,,
16.0312500000,2,-1.7745670080,,,
16.0468750000,2,-2.0520319939,,,
16.0625000000,2,-2.1169428825,,,
16.0781250000,2,-2.0148010254,,,
16.0937500000,2,-1.8346860409,,,
16.1093750000,2,-1.6230469942,,,
16.1250000000,2,-1.3954470158,,,
16.1406250000,2,-1.1484069824,,,
16.1562500000,2,-0.8772888184,,,
16.1718750000,2,-0.6287230849,,,
16.1875000000,2,-0.4309997857,,,
16.2031250000,2,-0.2645263970,,,
16.2187500000,2,-0.0628662109,,,
16.2343750000,2,0.2282714993,,,
16.2500000000,2,0.5941771865,,,
16.2656250000,2,0.8977050781,,,
16.2812500000,2,0.9774169922,,,
16.2968750000,2,0.7497863770,,,
16.3125000000,2,0.2840881050,,,
16.3281250000,2,-0.2095337063,,,
16.3437500000,2,-0.4944458008,,,
16.3593750000,2,-0.4634704888,,,
16.3750000000,2,-0.2100829929,,,
16.3906250000,2,0.0473632813,,,
16.4062500000,2,0.1341553032,,,
16.4218750000,2,0.0269165002,,,
16.4375000000,2,-0.0958557129,,,
16.4531250000,2,-0.0211181603,,,
16.4687500000,2,0.3656921089,,,
16.4843750000,2,0.9878234863,,,
16.5000000000,2,1.5722960234,,,
16.5156250000,2,1.8232729435,,,
16.5312500000,2,1.5731199980,,,
16.5468750000,2,0.8941345215,,,
16.5625000000,2,0.0288085900,,,
16.5781250000,2,-0.7158203125,,,
16.5937500000,2,-1.1615910530,,,
16.6093750000,2,-1.2939449549,,,
16.6250000000,2,-1.2272950411,,,
16.6406250000,2,-1.1262509823,,,
16.6562500000,2,-1.0838619471,,,
16.6718750000,2,-1.0890500546,,,
16.6875000000,2,-1.0429990292,,,
16.7031250000,2,-0.8303527832,,,
16.7187500000,2,-0.4101257026,,,
16.7343750000,2,0.1557922065,,,
16.7500000000,2,0.6898499131,,,
16.7656250000,2,1.0109859705,,,
16.7812500000,2,1.0025939941,,,
16.7968750000,2,0.6847229004,,,
16.8125000000,2,0.1866759956,,,
16.8281250000,2,-0.2953796089,,,
16.8437500000,2,-0.6175842285,,,
16.8593750000,2,-0.7069702148,,,
16.8750000000,2,-0.5923767090,,,
16.8906250000,2,-0.3775939941,,,
16.9062500000,2,-0.1497498006,,,
16.9218750000,2,0.0316467285,,,
16.9375000000,2,0.1354980022,,,
16.9531250000,2,0.1769104004,,,
16.9687500000,2,0.1522521973,,,
16.9843750000,2,0.0583801307,,,
17.0000000000,2,-0.0727233887,,,
17.0156250000,2,-0.1701660007,,,
17.0312500000,2,-0.1490478963,,,
17.0468750000,2,0.0873413086,,,
17.0625000000,2,0.5643311143,,,
17.0781250000,2,1.2027889490,,,
17.0937500000,2,1.8529360294,,,
17.1093750000,2,2.3205571175,,,
17.1250000000,2,2.4473569393,,,
17.1406250000,2,2.1938779354,,,
17.1562500000,2,1.6278380156,,,
17.1718750000,2,0.9175109863,,,
17.1875000000,2,0.2424315959,,,
17.2031250000,2,-0.2736206055,,,
17.2187500000,2,-0.6187438965,,,
17.2343750000,2,-0.8472899795,,,
17.2500000000,2,-1.0375980139,,,
17.2656250000,2,-1.2295229435,,,
17.2812500000,2,-1.3892209530,,,
17.2968750000,2,-1.4614559412,,,
17.3125000000,2,-1.4220889807,,,
17.3281250000,2,-1.2933650017,,,
17.3437500000,2,-1.1834110022,,,
17.3593750000,2,-1.1834720373,,,
17.3750000000,2,-1.3096009493,,,
17.3906250000,2,-1.4863890409,,,
17.4062500000,2,-1.5909420252,,,
17.4218750000,2,-1.4966739416,,,
17.4375000000,2,-1.1918029785,,,
17.4531250000,2,-0.7749938965,,,
17.4687500000,2,-0.3916625977,,,
17.4843750000,2,-0.1802368015,,,
17.5000000000,2,-0.1675415039,,,
17.5156250000,2,-0.2906494141,,,
17.5312500000,2,-0.4502258003,,,
17.5468750000,2,-0.5670775771,,,
17.5625000000,2,-0.5986632705,,,
17.5781250000,2,-0.5588684082,,,
17.5937500000,2,-0.4722290039,,,
17.6093750000,2,-0.3677062988,,,
17.6250000000,2,-0.2957457900,,,
17.6406250000,2,-0.2902832031,,,
17.6562500000,2,-0.4035950005,,,
17.6718750000,2,-0.6603087783,,,
17.6875000000,2,-1.0515140295,,,
17.7031250000,2,-1.4853819609,,,
17.7187500000,2,-1.8122249842,,,
17.7343750000,2,-1.8905940056,,,
17.7500000000,2,-1.6267700195,,,
17.7656250000,2,-1.0769959688,,,
17.7812500000,2,-0.3870544136,,,
17.7968750000,2,0.2406311035,,,
17.8125000000,2,0.6553649902,,,
17.8281250000,2,0.8193358779,,,
17.8437500000,2,0.8289794922,,,
17.8593750000,2,0.8354492188,,,
17.8750000000,2,0.9423217773,,,
17.8906250000,2,1.1140439510,,,
17.9062500000,2,1.1994320154,,,
17.9218750000,2,1.0312809944,,,
17.9375000000,2,0.5786743164,,,
17.9531250000,2,-0.0211486798,,,
17.9687500000,2,-0.4871216118,,,
17.9843750000,2,-0.5667725205,,,
18.0000000000,2,-0.1977843940,,,
18.0156250000,2,0.4619140923,,,
18.0312500000,2,1.0998539925,,,
18.0468750000,2,1.4267879725,,,
18.0625000000,2,1.3434139490,,,
18.0781250000,2,0.9674683213,,,
18.0937500000,2,0.5535582900,,,
18.1093750000,2,0.3298340142,,,
18.1250000000,2,0.3651123047,,,
18.1406250000,2,0.5624390244,,,
18.1562500000,2,0.7314453125,,,
18.1718750000,2,0.7370300293,,,
18.1875000000,2,0.5511779785,,,
18.2031250000,2,0.2879028022,,,
18.2187500000,2,0.0914611816,,,
18.2343750000,2,0.0500183105,,,
18.2500000000,2,0.1788634956,,,
18.2656250000,2,0.3904114068,,,
18.2812500000,2,0.5657653809,,,
18.2968750000,2,0.5913696289,,,
18.3125000000,2,0.4550780952,,,
18.3281250000,2,0.2033385932,,,
18.3437500000,2,-0.0428161584,,,
18.3593750000,2,-0.1786499023,,,
18.3750000000,2,-0.1415099949,,,
18.3906250000,2,0.0460510291,,,
18.4062500000,2,0.3143311143,,,
18.4218750000,2,0.5557250977,,,
18.4375000000,2,0.7090148926,,,
18.4531250000,2,0.7653809190,,,
18.4687500000,2,0.7792053223,,,
18.4843750000,2,0.8424987793,,,
18.5000000000,2,1.0078740120,,,
18.5156250000,2,1.2737430334,,,
18.5312500000,2,1.5645140409,,,
18.5468750000,2,1.7559809685,,,
18.5625000000,2,1.7372130156,,,
18.5781250000,2,1.4274899960,,,
18.5937500000,2,0.8388367295,,,
18.6093750000,2,0.0766601637,,,
18.6250000000,2,-0.6976928711,,,
18.6406250000,2,-1.3226619959,,,
18.6562500000,2,-1.7089539766,,,
18.6718750000,2,-1.8497010469,,,
18.6875000000,2,-1.8378599882,,,
18.7031250000,2,-1.7770390511,,,
18.7187500000,2,-1.7389219999,,,
18.7343750000,2,-1.7249150276,,,
18.7500000000,2,-1.6775510311,,,
18.7656250000,2,-1.5615539551,,,
18.7812500000,2,-1.3748780489,,,
18.7968750000,2,-1.1887819767,,,
18.8125000000,2,-1.0345150232,,,
18.8281250000,2,-0.9326782227,,,
18.8437500000,2,-0.8266295791,,,
18.8593750000,2,-0.6596680284,,,
18.8750000000,2,-0.4299927056,,,
18.8906250000,2,-0.1834105998,,,
18.9062500000,2,-0.0112609901,,,
18.9218750000,2,0.0168151893,,,
18.9375000000,2,-0.1253356934,,,
18.9531250000,2,-0.3611145020,,,
18.9687500000,2,-0.6030883789,,,
18.9843750000,2,-0.7391967773,,,
19.0000000000,2,-0.7133789063,,,
19.0156250000,2,-0.5182189941,,,
19.0312500000,2,-0.1919250041,,,
19.0468750000,2,0.2080383003,,,
19.0625000000,2,0.6453247070,,,
19.0781250000,2,1.0687869787,,,
19.0937500000,2,1.4324649572,,,
19.1093750000,2,1.6612240076,,,
19.1250000000,2,1.7093509436,,,
19.1406250000,2,1.5703129768,,,
19.1562500000,2,1.2859189510,,,
19.1718750000,2,0.9491881728,,,
19.1875000000,2,0.6607666016,,,
19.2031250000,2,0.4975281060,,,
19.2187500000,2,0.4718323052,,,
19.2343750000,2,0.5380554199,,,
19.2500000000,2,0.6237792969,,,
19.2656250000,2,0.6811829209,,,
19.2812500000,2,0.7031555176,,,
19.2968750000,2,0.7053833008,,,
19.3125000000,2,0.7203673720,,,
19.3281250000,2,0.7580261230,,,
19.3437500000,2,0.8094481826,,,
19.3593750000,2,0.8512268066,,,
19.3750000000,2,0.8399047852,,,
19.3906250000,2,0.7537230849,,,
19.4062500000,2,0.5819091797,,,
19.4218750000,2,0.3342590034,,,
19.4375000000,2,0.0103759803,,,
19.4531250000,2,-0.3703917861,,,
19.4687500000,2,-0.7966002822,,,
19.4843750000,2,-1.2081910372,,,
19.5000000000,2,-1.5356450081,,,
19.5156250000,2,-1.7160340548,,,
19.5312500000,2,-1.7275389433,,,
19.5468750000,2,-1.5918580294,,,
19.5625000000,2,-1.3737180233,,,
19.5781250000,2,-1.1530760527,,,
19.5937500000,2,-0.9739685059,,,
19.6093750000,2,-0.8399353027,,,
19.6250000000,2,-0.7261353135,,,
19.6406250000,2,-0.6096801758,,,
19.6562500000,2,-0.4937134087,,,
19.6718750000,2,-0.3748778999,,,
19.6875000000,2,-0.2564696968,,,
19.7031250000,2,-0.1031493992,,,
19.7187500000,2,0.1078796014,,,
19.7343750000,2,0.3647156060,,,
19.7500000000,2,0.6048889160,,,
19.7656250000,2,0.7432250977,,,
19.7812500000,2,0.6848449707,,,
19.7968750000,2,0.3962708116,,,
19.8125000000,2,-0.0860900879,,,
19.8281250000,2,-0.6539916992,,,
19.8437500000,2,-1.1357120275,,,
19.8593750000,2,-1.4163509607,,,
19.8750000000,2,-1.4043580294,,,
19.8906250000,2,-1.1170959473,,,
19.9062500000,2,-0.6590270996,,,
19.9218750000,2,-0.1875305027,,,
19.9375000000,2,0.1555480957,,,
19.9531250000,2,0.3056640923,,,
19.9687500000,2,0.2850646973,,,
19.9843750000,2,0.2344971001,,,
20.0000000000,2,0.2801513970,,,
20.0156250000,2,0.5386046767,,,
20.0312500000,2,0.9904479980,,,
20.0468750000,2,1.5368959904,,,
20.0625000000,2,2.0356750488,,,
20.0781250000,2,2.3605649471,,,
20.0937500000,2,2.4429020882,,,
20.1093750000,2,2.2590939999,,,
20.1250000000,2,1.8695980310,,,
20.1406250000,2,1.3521419764,,,
20.1562500000,2,0.7930297852,,,
20.1718750000,2,0.2911072075,,,
20.1875000000,2,-0.1123047024,,,
20.2031250000,2,-0.3731994927,,,
20.2187500000,2,-0.4779663086,,,
20.2343750000,2,-0.4609679878,,,
20.2500000000,2,-0.3652038872,,,
20.2656250000,2,-0.2223816067,,,
20.2812500000,2,-0.0629882813,,,
20.2968750000,2,0.1203612983,,,
20.3125000000,2,0.3560486138,,,
20.3281250000,2,0.6267700195,,,
20.3437500000,2,0.9272766113,,,
20.3593750000,2,1.1661679745,,,
20.3750000000,2,1.2472840548,,,
20.3906250000,2,1.0974429846,,,
20.4062500000,2,0.7144165039,,,
20.4218750000,2,0.1904906929,,,
20.4375000000,2,-0.3527832031,,,
20.4531250000,2,-0.7878417969,,,
20.4687500000,2,-1.0662230253,,,
20.4843750000,2,-1.1733089685,,,
20.5000000000,2,-1.1732480526,,,
20.5156250000,2,-1.1222529411,,,
20.5312500000,2,-1.0693659782,,,
20.5468750000,2,-1.0260930061,,,
20.5625000000,2,-0.9834899902,,,
20.5781250000,2,-0.9072266221,,,
20.5937500000,2,-0.7599791884,,,
20.6093750000,2,-0.5320739746,,,
20.6250000000,2,-0.2119141072,,,
20.6406250000,2,0.1562500000,,,
20.6562500000,2,0.5083922744,,,
20.6718750000,2,0.7704467773,,,
20.6875000000,2,0.8715209961,,,
20.7031250000,2,0.7767028809,,,
20.7187500000,2,0.4992980957,,,
20.7343750000,2,0.0921325684,,,
20.7500000000,2,-0.3528747857,,,
20.7656250000,2,-0.7362976074,,,
20.7812500000,2,-1.0037230253,,,
20.7968750000,2,-1.1114809513,,,
20.8125000000,2,-1.0694580078,,,
20.8281250000,2,-0.9193115234,,,
20.8437500000,2,-0.7143555284,,,
20.8593750000,2,-0.5121765137,,,
20.8750000000,2,-0.3415833116,,,
20.8906250000,2,-0.1936035007,,,
20.9062500000,2,-0.0513305701,,,
20.9218750000,2,0.1174926981,,,
20.9375000000,2,0.3291930854,,,
20.9531250000,2,0.5729675293,,,
20.9687500000,2,0.8017578125,,,
20.9843750000,2,0.9718322754,,,
21.0000000000,2,1.0799870491,,,
21.0156250000,2,1.1426700354,,,
21.0312500000,2,1.1729129553,,,
21.0468750000,2,1.1627810001,,,
21.0625000000,2,1.0590209961,,,
21.0781250000,2,0.7669373155,,,
21.0937500000,2,0.2495422065,,,
21.1093750000,2,-0.4719848931,,,
21.1250000000,2,-1.2606199980,,,
21.1406250000,2,-1.9332280159,,,
21.1562500000,2,-2.3326110840,,,
21.1718750000,2,-2.3952329159,,,
21.1875000000,2,-2.1459960938,,,
21.2031250000,2,-1.6622010469,,,
21.2187500000,2,-1.0420529842,,,
21.2343750000,2,-0.3694458008,,,
21.2500000000,2,0.2780457139,,,
21.2656250000,2,0.8269348145,,,
21.2812500000,2,1.1809079647,,,
21.2968750000,2,1.2907409668,,,
21.3125000000,2,1.1755069494,,,
21.3281250000,2,0.9288024902,,,
21.3437500000,2,0.6859436035,,,
21.3593750000,2,0.5475159287,,,
21.3750000000,2,0.5187683105,,,
21.3906250000,2,0.5237426758,,,
21.4062500000,2,0.4650574028,,,
21.4218750000,2,0.2840270996,,,
21.4375000000,2,0.0220336895,,,
21.4531250000,2,-0.1806335002,,,
21.4687500000,2,-0.2085265964,,,
21.4843750000,2,-0.0337219201,,,
21.5000000000,2,0.2640075982,,,
21.5156250000,2,0.5407410264,,,
21.5312500000,2,0.6595764160,,,
21.5468750000,2,0.6086425781,,,
21.5625000000,2,0.4900208116,,,
21.5781250000,2,0.4499207139,,,
21.5937500000,2,0.5764464736,,,
21.6093750000,2,0.8527832031,,,
21.6250000000,2,1.1434630156,,,
21.6406250000,2,1.2860410213,,,
21.6562500000,2,1.2007449865,,,
21.6718750000,2,0.8684691787,,,
21.6875000000,2,0.3596802056,,,
21.7031250000,2,-0.2189635932,,,
21.7187500000,2,-0.7912598252,,,
21.7343750000,2,-1.3020629883,,,
21.7500000000,2,-1.6953740120,,,
21.7656250000,2,-1.9265140295,,,
21.7812500000,2,-1.9673769474,,,
21.7968750000,2,-1.8377380371,,,
21.8125000000,2,-1.6155699492,,,
21.8281250000,2,-1.4043879509,,,
21.8437500000,2,-1.2911070585,,,
21.8593750000,2,-1.2714539766,,,
21.8750000000,2,-1.2832340002,,,
21.8906250000,2,-1.2301330566,,,
21.9062500000,2,-1.0468750000,,,
21.9218750000,2,-0.7337036133,,,
21.9375000000,2,-0.3351440132,,,
21.9531250000,2,0.0997619629,,,
21.9687500000,2,0.5334166884,,,
21.9843750000,2,0.9130249023,,,
22.0000000000,2,1.1734310389,,,
22.0156250000,2,1.2504880428,,,
22.0312500000,2,1.1000059843,,,
22.0468750000,2,0.7631226182,,,
22.0625000000,2,0.3437195122,,,
22.0781250000,2,0.0208129901,,,
22.0937500000,2,-0.0809326172,,,
22.1093750000,2,0.0727844164,,,
22.1250000000,2,0.3983458877,,,
22.1406250000,2,0.7367249131,,,
22.1562500000,2,0.9657288194,,,
22.1718750000,2,1.0022280216,,,
22.1875000000,2,0.8533936143,,,
22.2031250000,2,0.5703430176,,,
22.2187500000,2,0.2305603027,,,
22.2343750000,2,-0.1066284031,,,
22.2500000000,2,-0.4079895020,,,
22.2656250000,2,-0.6605529785,,,
22.2812500000,2,-0.8626403809,,,
22.2968750000,2,-1.0201719999,,,
22.3125000000,2,-1.1611939669,,,
22.3281250000,2,-1.2744139433,,,
22.3437500000,2,-1.3582149744,,,
22.3593750000,2,-1.3495789766,,,
22.3750000000,2,-1.2054749727,,,
22.3906250000,2,-0.8993530273,,,
22.4062500000,2,-0.4683228135,,,
22.4218750000,2,-0.0006408691,,,
22.4375000000,2,0.3957214057,,,
22.4531250000,2,0.6546936035,,,
22.4687500000,2,0.7671813965,,,
22.4843750000,2,0.7764893174,,,
22.5000000000,2,0.7462769151,,,
22.5156250000,2,0.7219542861,,,
22.5312500000,2,0.7178040147,,,
22.5468750000,2,0.7255554199,,,
22.5625000000,2,0.7176818848,,,
22.5781250000,2,0.6801453233,,,
22.5937500000,2,0.6068419814,,,
22.6093750000,2,0.5044556260,,,
22.6250000000,2,0.3678894043,,,
22.6406250000,2,0.1655579060,,,
22.6562500000,2,-0.1087035984,,,
22.6718750000,2,-0.4394836128,,,
22.6875000000,2,-0.7759094238,,,
22.7031250000,2,-1.0338129997,,,
22.7187500000,2,-1.1253360510,,,
22.7343750000,2,-1.0233459473,,,
22.7500000000,2,-0.7414246202,,,
22.7656250000,2,-0.3738098145,,,
22.7812500000,2,-0.0407714806,,,
22.7968750000,2,0.1742248982,,,
22.8125000000,2,0.2465209961,,,
22.8281250000,2,0.1951903999,,,
22.8437500000,2,0.0779113770,,,
22.8593750000,2,-0.0301208496,,,
22.8750000000,2,-0.0773620605,,,
22.8906250000,2,-0.0094299316,,,
22.9062500000,2,0.1838683933,,,
22.9218750000,2,0.4404602051,,,
22.9375000000,2,0.6420288086,,,
22.9531250000,2,0.6699829102,,,
22.9687500000,2,0.4295043945,,,
22.9843750000,2,-0.0338134803,,,
23.0000000000,2,-0.5533447266,,,
23.0156250000,2,-0.9404602051,,,
23.0312500000,2,-1.0428769588,,,
23.0468750000,2,-0.8618773818,,,
23.0625000000,2,-0.5350341797,,,
23.0781250000,2,-0.2265319973,,,
23.0937500000,2,-0.0505676307,,,
23.1093750000,2,-0.0196838398,,,
23.1250000000,2,-0.0411987305,,,
23.1406250000,2,-0.0251159705,,,
23.1562500000,2,0.0273437500,,,
23.1718750000,2,0.0776977465,,,
23.1875000000,2,0.0589599609,,,
23.2031250000,2,-0.0698852465,,,
23.2187500000,2,-0.2638244927,,,
23.2343750000,2,-0.4712524116,,,
23.2500000000,2,-0.6628723145,,,
23.2656250000,2,-0.8428649902,,,
23.2812500000,2,-1.0203549862,,,
23.2968750000,2,-1.1883850098,,,
23.3125000000,2,-1.2683720589,,,
23.3281250000,2,-1.1681820154,,,
23.3437500000,2,-0.8415222168,,,
23.3593750000,2,-0.3225097954,,,
23.3750000000,2,0.2940674126,,,
23.3906250000,2,0.8533325195,,,
23.4062500000,2,1.2630620003,,,
23.4218750000,2,1.4848630428,,,
23.4375000000,2,1.5563050508,,,
23.4531250000,2,1.5549010038,,,
23.4687500000,2,1.5021669865,,,
23.4843750000,2,1.4055180550,,,
23.5000000000,2,1.2435610294,,,
23.5156250000,2,0.9941406250,,,
23.5312500000,2,0.6479187012,,,
23.5468750000,2,0.2240601033,,,
23.5625000000,2,-0.2659912109,,,
23.5781250000,2,-0.7951660156,,,
23.5937500000,2,-1.3002010584,,,
23.6093750000,2,-1.7096560001,,,
23.6250000000,2,-1.9507449865,,,
23.6406250000,2,-1.9666750431,,,
23.6562500000,2,-1.7976380587,,,
23.6718750000,2,-1.5172419548,,,
23.6875000000,2,-1.1995849609,,,
23.7031250000,2,-0.8753051758,,,
23.7187500000,2,-0.5193480849,,,
23.7343750000,2,-0.0841369629,,,
23.7500000000,2,0.4576111138,,,
23.7656250000,2,1.0699160099,,,
23.7812500000,2,1.6645510197,,,
23.7968750000,2,2.1589660645,,,
23.8125000000,2,2.5082089901,,,
23.8281250000,2,2.7171940804,,,
23.8437500000,2,2.8302609921,,,
23.8593750000,2,2.8701779842,,,
23.8750000000,2,2.8546450138,,,
23.8906250000,2,2.7516479492,,,
23.9062500000,2,2.5234379768,,,
23.9218750000,2,2.1284790039,,,
23.9375000000,2,1.5812070370,,,
23.9531250000,2,0.9545593262,,,
23.9687500000,2,0.3538818061,,,
23.9843750000,2,-0.1070861965,,,
24.0000000000,3,-0.3537597954,,,
24.0156250000,3,-0.3765259087,,,
24.0312500000,3,-0.2459716946,,,
24.0468750000,3,-0.0682067871,,,
24.0625000000,3,0.0580444299,,,
24.0781250000,3,0.1098937988,,,
24.0937500000,3,0.0859375000,,,
24.1093750000,3,0.0126037598,,,
24.1250000000,3,-0.1379394978,,,
24.1406250000,3,-0.3981628120,,,
24.1562500000,3,-0.7960814834,,,
24.1718750000,3,-1.3162230253,,,
24.1875000000,3,-1.8511660099,,,
24.2031250000,3,-2.2568969727,,,
24.2187500000,3,-2.4244079590,,,
24.2343750000,3,-2.3248600960,,,
24.2500000000,3,-2.0427548885,,,
24.2656250000,3,-1.7154849768,,,
24.2812500000,3,-1.4718630314,,,
24.2968750000,3,-1.3290100098,,,
24.3125000000,3,-1.2048649788,,,
24.3281250000,3,-0.9309998155,,,
24.3437500000,3,-0.3978576958,,,
24.3593750000,3,0.3691101074,,,
24.3750000000,3,1.1983950138,,,
24.3906250000,3,1.8511049747,,,
24.4062500000,3,2.1418459415,,,
24.4218750000,3,2.0313110352,,,
24.4375000000,3,1.6501159668,,,
24.4531250000,3,1.1687320471,,,
24.4687500000,3,0.7323914170,,,
24.4843750000,3,0.3351440132,,,
24.5000000000,3,-0.1380005032,,,
24.5156250000,3,-0.7845764160,,,
24.5312500000,3,-1.6022640467,,,
24.5468750000,3,-2.4264221191,,,
24.5625000000,3,-3.0451049805,,,
24.5781250000,3,-3.2527470589,,,
24.5937500000,3,-3.0238950253,,,
24.6093750000,3,-2.4593811035,,,
24.6250000000,3,-1.7534790039,,,
24.6406250000,3,-1.0760799646,,,
24.6562500000,3,-0.5016785264,,,
24.6718750000,3,-0.0299377404,,,
24.6875000000,3,0.3926391900,,,
24.7031250000,3,0.7979735732,,,
24.7187500000,3,1.1609189510,,,
24.7343750000,3,1.4393620491,,,
24.7500000000,3,1.5923160315,,,
24.7656250000,3,1.6088869572,,,
24.7812500000,3,1.4951779842,,,
24.7968750000,3,1.3020019531,,,
24.8125000000,3,1.0531009436,,,
24.8281250000,3,0.7832335830,,,
24.8437500000,3,0.5400084853,,,
24.8593750000,3,0.3614197075,,,
24.8750000000,3,0.2613219917,,,
24.8906250000,3,0.2844542861,,,
24.9062500000,3,0.4301452935,,,
24.9218750000,3,0.6658936143,,,
24.9375000000,3,0.9102783203,,,
24.9531250000,3,1.0627440214,,,
24.9687500000,3,1.0422669649,,,
24.9843750000,3,0.8498535156,,,
25.0000000000,3,0.5533447266,,,
25.0156250000,3,0.2690734863,,,
25.0312500000,3,0.0944213867,,,
25.0468750000,3,0.0510559082,,,
25.0625000000,3,0.0554199181,,,
25.0781250000,3,-0.0075683589,,,
25.0937500000,3,-0.2158813030,,,
25.1093750000,3,-0.5678710938,,,
25.1250000000,3,-0.9637451172,,,
25.1406250000,3,-1.2505190372,,,
25.1562500000,3,-1.3345639706,,,
25.1718750000,3,-1.2325739861,,,
25.1875000000,3,-1.0194699764,,,
25.2031250000,3,-0.7777709961,,,
25.2187500000,3,-0.5164185166,,,
25.2343750000,3,-0.1645507962,,,
25.2500000000,3,0.3352355957,,,
25.2656250000,3,0.9760131836,,,
25.2812500000,3,1.6233830452,,,
25.2968750000,3,2.0914309025,,,
25.3125000000,3,2.2255859375,,,
25.3281250000,3,1.9778439999,,,
25.3437500000,3,1.4552609921,,,
25.3593750000,3,0.8750916123,,,
25.3750000000,3,0.3930054009,,,
25.3906250000,3,0.0993957520,,,
25.4062500000,3,-0.0279235803,,,
25.4218750000,3,-0.0586242713,,,
25.4375000000,3,-0.0614013709,,,
25.4531250000,3,-0.0469665490,,,
25.4687500000,3,-0.0144653302,,,
25.4843750000,3,0.0370178185,,,
25.5000000000,3,0.1141662970,,,
25.5156250000,3,0.1953735054,,,
25.5312500000,3,0.2835387886,,,
25.5468750000,3,0.3835754097,,,
25.5625000000,3,0.4908752143,,,
25.5781250000,3,0.5492858887,,,
25.5937500000,3,0.4927673042,,,
25.6093750000,3,0.2748107910,,,
25.6250000000,3,-0.1083984002,,,
25.6406250000,3,-0.5558472276,,,
25.6562500000,3,-0.9379882813,,,
25.6718750000,3,-1.1391910315,,,
25.6875000000,3,-1.1181639433,,,
25.7031250000,3,-0.9303894043,,,
25.7187500000,3,-0.6984863281,,,
25.7343750000,3,-0.4955138862,,,
25.7500000000,3,-0.3475342095,,,
25.7656250000,3,-0.2173462063,,,
25.7812500000,3,-0.0687255934,,,
25.7968750000,3,0.0728759766,,,
25.8125000000,3,0.1188353971,,,
25.8281250000,3,-0.0183715802,,,
25.8437500000,3,-0.3676452935,,,
25.8593750000,3,-0.8397216797,,,
25.8750000000,3,-1.2677919865,,,
25.8906250000,3,-1.5128779411,,,
25.9062500000,3,-1.5215450525,,,
25.9218750000,3,-1.3599239588,,,
25.9375000000,3,-1.1801760197,,,
25.9531250000,3,-1.1144410372,,,
25.9687500000,3,-1.1999210119,,,
25.9843750000,3,-1.3567810059,,,
26.0000000000,3,-1.4532469511,,,
26.0156250000,3,-1.3724060059,,,
26.0312500000,3,-1.0929260254,,,
26.0468750000,3,-0.7063292861,,,
26.0625000000,3,-0.3361510932,,,
26.0781250000,3,-0.0856628418,,,
26.0937500000,3,0.0064086909,,,
26.1093750000,3,-0.0191650409,,,
26.1250000000,3,-0.0974121094,,,
26.1406250000,3,-0.1844176948,,,
26.1562500000,3,-0.2684937119,,,
26.1718750000,3,-0.3693237007,,,
26.1875000000,3,-0.4988403022,,,
26.2031250000,3,-0.6356505752,,,
26.2187500000,3,-0.7384337783,,,
26.2343750000,3,-0.7430419922,,,
26.2500000000,3,-0.6175842285,,,
26.2656250000,3,-0.4077759087,,,
26.2812500000,3,-0.2048645020,,,
26.2968750000,3,-0.0874328613,,,
26.3125000000,3,-0.1137999967,,,
26.3281250000,3,-0.2412414998,,,
26.3437500000,3,-0.3620604873,,,
26.3593750000,3,-0.3708496094,,,
26.3750000000,3,-0.1976013035,,,
26.3906250000,3,0.1516723931,,,
26.4062500000,3,0.5740355849,,,
26.4218750000,3,0.9499207139,,,
26.4375000000,3,1.1789549589,,,
26.4531250000,3,1.2152709961,,,
26.4687500000,3,1.0638430119,,,
26.4843750000,3,0.8074340820,,,
26.5000000000,3,0.5392761230,,,
26.5156250000,3,0.3649291992,,,
26.5312500000,3,0.3476867974,,,
26.5468750000,3,0.4880371094,,,
26.5625000000,3,0.7192993164,,,
26.5781250000,3,0.9233397841,,,
26.5937500000,3,0.9952393174,,,
26.6093750000,3,0.8787230849,,,
26.6250000000,3,0.6360778809,,,
26.6406250000,3,0.3928528130,,,
26.6562500000,3,0.2879638970,,,
26.6718750000,3,0.3879700005,,,
26.6875000000,3,0.6442260742,,,
26.7031250000,3,0.9329833984,,,
26.7187500000,3,1.1037290096,,,
26.7343750000,3,1.0781860352,,,
26.7500000000,3,0.8738098145,,,
26.7656250000,3,0.5815734863,,,
26.7812500000,3,0.2964783013,,,
26.7968750000,3,0.1090392992,,,
26.8125000000,3,0.0417785607,,,
26.8281250000,3,0.0737609863,,,
26.8437500000,3,0.1705933064,,,
26.8593750000,3,0.2571716011,,,
26.8750000000,3,0.2644348145,,,
26.8906250000,3,0.1258240044,,,
26.9062500000,3,-0.1894835979,,,
26.9218750000,3,-0.6657410264,,,
26.9375000000,3,-1.2097469568,,,
26.9531250000,3,-1.6809999943,,,
26.9687500000,3,-1.9400329590,,,
26.9843750000,3,-1.8883969784,,,
27.0000000000,3,-1.5330510139,,,
27.0156250000,3,-0.9764099121,,,
27.0312500000,3,-0.3777770996,,,
27.0468750000,3,0.1094971001,,,
27.0625000000,3,0.4020080864,,,
27.0781250000,3,0.5072020888,,,
27.0937500000,3,0.4842224121,,,
27.1093750000,3,0.3979187012,,,
27.1250000000,3,0.2748413086,,,
27.1406250000,3,0.0995178223,,,
27.1562500000,3,-0.1408690959,,,
27.1718750000,3,-0.4224854112,,,
27.1875000000,3,-0.6821898818,,,
27.2031250000,3,-0.8399658203,,,
27.2187500000,3,-0.8285828233,,,
27.2343750000,3,-0.6357421875,,,
27.2500000000,3,-0.3362427056,,,
27.2656250000,3,-0.0223999005,,,
27.2812500000,3,0.1909179986,,,
27.2968750000,3,0.2733153999,,,
27.3125000000,3,0.2566832900,,,
27.3281250000,3,0.2047118992,,,
27.3437500000,3,0.1936340034,,,
27.3593750000,3,0.2362366021,,,
27.3750000000,3,0.3081665039,,,
27.3906250000,3,0.3281554878,,,
27.4062500000,3,0.2463379055,,,
27.4218750000,3,0.0788879395,,,
27.4375000000,3,-0.0863647535,,,
27.4531250000,3,-0.1479492038,,,
27.4687500000,3,-0.0777893066,,,
27.4843750000,3,0.0424499512,,,
27.5000000000,3,0.0603942908,,,
27.5156250000,3,-0.1337585002,,,
27.5312500000,3,-0.5486450195,,,
27.5468750000,3,-1.0528869629,,,
27.5625000000,3,-1.4596560001,,,
27.5781250000,3,-1.6190799475,,,
27.5937500000,3,-1.4865109921,,,
27.6093750000,3,-1.1341249943,,,
27.6250000000,3,-0.6894835830,,,
27.6406250000,3,-0.2573241889,,,
27.6562500000,3,0.1209105998,,,
27.6718750000,3,0.4722594917,,,
27.6875000000,3,0.8327636719,,,
27.7031250000,3,1.1782840490,,,
27.7187500000,3,1.4450379610,,,
27.7343750000,3,1.5622249842,,,
27.7500000000,3,1.4857480526,,,
27.7656250000,3,1.2767030001,,,
27.7812500000,3,1.0373539925,,,
27.7968750000,3,0.8604735732,,,
27.8125000000,3,0.7751160264,,,
27.8281250000,3,0.7411804199,,,
27.8437500000,3,0.6786193848,,,
27.8593750000,3,0.5377808213,,,
27.8750000000,3,0.3757323921,,,
27.8906250000,3,0.3182983100,,,
27.9062500000,3,0.4680176079,,,
27.9218750000,3,0.8440856934,,,
27.9375000000,3,1.3553470373,,,
27.9531250000,3,1.8157349825,,,
27.9687500000,3,2.0754389763,,,
27.9843750000,3,2.0832819939,,,
28.0000000000,3,1.8513489962,,,
28.0156250000,3,1.4647829533,,,
28.0312500000,3,0.9630126953,,,
28.0468750000,3,0.3302307129,,,
28.0625000000,3,-0.4438782036,,,
28.0781250000,3,-1.2800899744,,,
28.0937500000,3,-2.0107729435,,,
28.1093750000,3,-2.4124450684,,,
28.1250000000,3,-2.3297419548,,,
28.1406250000,3,-1.7821960449,,,
28.1562500000,3,-0.9718322754,,,
28.1718750000,3,-0.1625670940,,,
28.1875000000,3,0.4450378120,,,
28.2031250000,3,0.8074036241,,,
28.2187500000,3,1.0255429745,,,
28.2343750000,3,1.2375489473,,,
28.2500000000,3,1.5209959745,,,
28.2656250000,3,1.8271180391,,,
28.2812500000,3,2.0556030273,,,
28.2968750000,3,2.1022949219,,,
28.3125000000,3,1.9747010469,,,
28.3281250000,3,1.7739870548,,,
28.3437500000,3,1.6309510469,,,
28.3593750000,3,1.6010739803,,,
28.3750000000,3,1.6373900175,,,
28.3906250000,3,1.6381529570,,,
28.4062500000,3,1.5010679960,,,
28.4218750000,3,1.1673280001,,,
28.4375000000,3,0.6772460938,,,
28.4531250000,3,0.1133117974,,,
28.4687500000,3,-0.4560241997,,,
28.4843750000,3,-0.9572448730,,,
28.5000000000,3,-1.3866579533,,,
28.5156250000,3,-1.7378849983,,,
28.5312500000,3,-2.0014650822,,,
28.5468750000,3,-2.1730039120,,,
28.5625000000,3,-2.2522580624,,,
28.5781250000,3,-2.2281188965,,,
28.5937500000,3,-2.0944519043,,,
28.6093750000,3,-1.8539429903,,,
28.6250000000,3,-1.5135799646,,,
28.6406250000,3,-1.0782469511,,,
28.6562500000,3,-0.5688781738,,,
28.6718750000,3,-0.0468139611,,,
28.6875000000,3,0.3963317871,,,
28.7031250000,3,0.6813964844,,,
28.7187500000,3,0.7658081055,,,
28.7343750000,3,0.6651000977,,,
28.7500000000,3,0.4487915039,,,
28.7656250000,3,0.2127075046,,,
28.7812500000,3,0.0442504883,,,
28.7968750000,3,-0.0101013202,,,
28.8125000000,3,0.0811462402,,,
28.8281250000,3,0.2967528999,,,
28.8437500000,3,0.6136779785,,,
28.8593750000,3,0.9500731826,,,
28.8750000000,3,1.2145999670,,,
28.8906250000,3,1.3119510412,,,
28.9062500000,3,1.1862490177,,,
28.9218750000,3,0.8388367295,,,
28.9375000000,3,0.3686828911,,,
28.9531250000,3,-0.0931701735,,,
28.9687500000,3,-0.4390259087,,,
28.9843750000,3,-0.6058959961,,,
29.0000000000,3,-0.6541748047,,,
29.0156250000,3,-0.6896361709,,,
29.0312500000,3,-0.7774658203,,,
29.0468750000,3,-0.9037780762,,,
29.0625000000,3,-0.9898682237,,,
29.0781250000,3,-0.9559020996,,,
29.0937500000,3,-0.7750244141,,,
29.1093750000,3,-0.5022583008,,,
29.1250000000,3,-0.2391968071,,,
29.1406250000,3,-0.0858154297,,,
29.1562500000,3,-0.0810241699,,,
29.1718750000,3,-0.1725464016,,,
29.1875000000,3,-0.2841187119,,,
29.2031250000,3,-0.3322753906,,,
29.2187500000,3,-0.2801207900,,,
29.2343750000,3,-0.1219177023,,,
29.2500000000,3,0.0814208984,,,
29.2656250000,3,0.2656250000,,,
29.2812500000,3,0.3654479980,,,
29.2968750000,3,0.3419188857,,,
29.3125000000,3,0.1943054050,,,
29.3281250000,3,-0.0619506799,,,
29.3437500000,3,-0.3843078911,,,
29.3593750000,3,-0.7460021973,,,
29.3750000000,3,-1.1074520350,,,
29.3906250000,3,-1.4643249512,,,
29.4062500000,3,-1.7929990292,,,
29.4218750000,3,-2.0606689453,,,
29.4375000000,3,-2.2012019157,,,
29.4531250000,3,-2.1423950195,,,
29.4687500000,3,-1.8638000488,,,
29.4843750000,3,-1.3891299963,,,
29.5000000000,3,-0.8206787109,,,
29.5156250000,3,-0.2746582031,,,
29.5312500000,3,0.1604308933,,,
29.5468750000,3,0.4598388970,,,
29.5625000000,3,0.6446837783,,,
29.5781250000,3,0.7391052246,,,
29.5937500000,3,0.7550963759,,,
29.6093750000,3,0.6664124131,,,
29.6250000000,3,0.4683228135,,,
29.6406250000,3,0.2007140964,,,
29.6562500000,3,-0.0429077111,,,
29.6718750000,3,-0.1744080037,,,
29.6875000000,3,-0.1798706055,,,
29.7031250000,3,-0.1216735989,,,
29.7187500000,3,-0.1065673977,,,
29.7343750000,3,-0.1961670071,,,
29.7500000000,3,-0.3656615913,,,
29.7656250000,3,-0.4739379883,,,
29.7812500000,3,-0.3611755073,,,
29.7968750000,3,0.0489807092,,,
29.8125000000,3,0.6889343262,,,
29.8281250000,3,1.3788759708,,,
29.8437500000,3,1.9022829533,,,
29.8593750000,3,2.1104741096,,,
29.8750000000,3,2.0104370117,,,
29.8906250000,3,1.7162779570,,,
29.9062500000,3,1.3603210449,,,
29.9218750000,3,1.0210880041,,,
29.9375000000,3,0.6664124131,,,
29.9531250000,3,0.2379761040,,,
29.9687500000,3,-0.3021239936,,,
29.9843750000,3,-0.8686829209,,,
30.0000000000,3,-1.3065190315,,,
30.0156250000,3,-1.4746400118,,,
30.0312500000,3,-1.3144229650,,,
30.0468750000,3,-0.9038696289,,,
30.0625000000,3,-0.4211120903,,,
30.0781250000,3,-0.0428466797,,,
30.0937500000,3,0.1539001018,,,
30.1093750000,3,0.2071228027,,,
30.1250000000,3,0.2316284031,,,
30.1406250000,3,0.3096618950,,,
30.1562500000,3,0.4432983100,,,
30.1718750000,3,0.5786437988,,,
30.1875000000,3,0.6367493272,,,
30.2031250000,3,0.5568541884,,,
30.2187500000,3,0.3539733887,,,
30.2343750000,3,0.0837707520,,,
30.2500000000,3,-0.1819152981,,,
30.2656250000,3,-0.3905028999,,,
30.2812500000,3,-0.5065917969,,,
30.2968750000,3,-0.5301514268,,,
30.3125000000,3,-0.4619140923,,,
30.3281250000,3,-0.3186034858,,,
30.3437500000,3,-0.1337585002,,,
30.3593750000,3,0.0573425293,,,
30.3750000000,3,0.2078551948,,,
30.3906250000,3,0.2918700874,,,
30.4062500000,3,0.2751465142,,,
30.4218750000,3,0.1630554050,,,
30.4375000000,3,-0.0368652306,,,
30.4531250000,3,-0.2919616997,,,
30.4687500000,3,-0.5699768066,,,
30.4843750000,3,-0.8454895020,,,
30.5000000000,3,-1.0787960291,,,
30.5156250000,3,-1.2377929688,,,
30.5312500000,3,-1.2905269861,,,
30.5468750000,3,-1.2096860409,,,
30.5625000000,3,-0.9849854112,,,
30.5781250000,3,-0.6577758789,,,
30.5937500000,3,-0.2867125869,,,
30.6093750000,3,0.0433959998,,,
30.6250000000,3,0.2717590034,,,
30.6406250000,3,0.3949280083,,,
30.6562500000,3,0.4522705078,,,
30.6718750000,3,0.5031738281,,,
30.6875000000,3,0.5953369141,,,
30.7031250000,3,0.7060546875,,,
30.7187500000,3,0.7687072754,,,
30.7343750000,3,0.7353516221,,,
30.7500000000,3,0.6054688096,,,
30.7656250000,3,0.4398499131,,,
30.7812500000,3,0.3323974907,,,
30.7968750000,3,0.3131408989,,,
30.8125000000,3,0.3409424126,,,
30.8281250000,3,0.3386841118,,,
30.8437500000,3,0.2004394978,,,
30.8593750000,3,-0.1304320991,,,
30.8750000000,3,-0.6169127822,,,
30.8906250000,3,-1.1581729650,,,
30.9062500000,3,-1.6332700253,,,
30.9218750000,3,-1.9011230469,,,
30.9375000000,3,-1.8724670410,,,
30.9531250000,3,-1.5254520178,,,
30.9687500000,3,-0.9036865234,,,
30.9843750000,3,-0.1187134013,,,
31.0000000000,3,0.6772155762,,,
31.0156250000,3,1.3462829590,,,
31.0312500000,3,1.7806700468,,,
31.0468750000,3,1.9342349768,,,
31.0625000000,3,1.8526610136,,,
31.0781250000,3,1.5903630257,,,
31.0937500000,3,1.2216800451,,,
31.1093750000,3,0.7955626845,,,
31.1250000000,3,0.3563843071,,,
31.1406250000,3,-0.0390625000,,,
31.1562500000,3,-0.3360291123,,,
31.1718750000,3,-0.5146179199,,,
31.1875000000,3,-0.5874329209,,,
31.2031250000,3,-0.6014708877,,,
31.2187500000,3,-0.6204224229,,,
31.2343750000,3,-0.6776123047,,,
31.2500000000,3,-0.7451171875,,,
31.2656250000,3,-0.7438660264,,,
31.2812500000,3,-0.5903319716,,,
31.2968750000,3,-0.2542113960,,,
31.3125000000,3,0.2000426948,,,
31.3281250000,3,0.6625061035,,,
31.3437500000,3,1.0319520235,,,
31.3593750000,3,1.2510379553,,,
31.3750000000,3,1.3487240076,,,
31.3906250000,3,1.3708189726,,,
31.4062500000,3,1.3377690315,,,
31.4218750000,3,1.2106319666,,,
31.4375000000,3,0.9630126953,,,
31.4531250000,3,0.5785828233,,,
31.4687500000,3,0.1156311035,,,
31.4843750000,3,-0.3165588081,,,
31.5000000000,3,-0.6164246202,,,
31.5156250000,3,-0.7402039170,,,
31.5312500000,3,-0.7130432129,,,
31.5468750000,3,-0.6138610840,,,
31.5625000000,3,-0.5301818848,,,
31.5781250000,3,-0.5185852051,,,
31.5937500000,3,-0.6012268066,,,
31.6093750000,3,-0.7542114258,,,
31.6250000000,3,-0.9577636719,,,
31.6406250000,3,-1.1373289824,,,
31.6562500000,3,-1.1795959473,,,
31.6718750000,3,-0.9880371094,,,
31.6875000000,3,-0.5300598145,,,
31.7031250000,3,0.1093444973,,,
31.7187500000,3,0.7377625108,,,
31.7343750000,3,1.1127619743,,,
31.7500000000,3,1.0894470215,,,
31.7656250000,3,0.6660460830,,,
31.7812500000,3,0.0032653811,,,
31.7968750000,3,-0.6611632705,,,
31.8125000000,3,-1.1251829863,,,
31.8281250000,3,-1.3174740076,,,
31.8437500000,3,-1.2803959846,,,
31.8593750000,3,-1.1581729650,,,
31.8750000000,3,-1.0576169491,,,
31.8906250000,3,-0.9969481826,,,
31.9062500000,3,-0.8995056152,,,
31.9218750000,3,-0.7066649795,,,
31.9375000000,3,-0.3874512017,,,
31.9531250000,3,-0.0170288105,,,
31.9687500000,3,0.3084411919,,,
31.9843750000,3,0.5189208984,,,
32.0000000000,4,0.6225585938,,,
32.0156250000,4,0.6863707900,,,
32.0312500000,4,0.7575684190,,,
32.0468750000,4,0.8408203125,,,
32.0625000000,4,0.8697814941,,,
32.0781250000,4,0.7627562881,,,
32.0937500000,4,0.4868468940,,,
32.1093750000,4,0.1473388970,,,
32.1250000000,4,-0.0983886719,,,
32.1406250000,4,-0.0928344727,,,
32.1562500000,4,0.2304687947,,,
32.1718750000,4,0.7828369141,,,
32.1875000000,4,1.3542790413,,,
32.2031250000,4,1.7220460176,,,
32.2187500000,4,1.7630620003,,,
32.2343750000,4,1.4762569666,,,
32.2500000000,4,1.0047299862,,,
32.2656250000,4,0.4961853027,,,
32.2812500000,4,0.0607910194,,,
32.2968750000,4,-0.2748413086,,,
32.3125000000,4,-0.5469666123,,,
32.3281250000,4,-0.8015136719,,,
32.3437500000,4,-1.0241090059,,,
32.3593750000,4,-1.1419680119,,,
32.3750000000,4,-1.1111760139,,,
32.3906250000,4,-0.9136353135,,,
32.4062500000,4,-0.6437683105,,,
32.4218750000,4,-0.4178161919,,,
32.4375000000,4,-0.3042603135,,,
32.4531250000,4,-0.3280945122,,,
32.4687500000,4,-0.4109191895,,,
32.4843750000,4,-0.4946899116,,,
32.5000000000,4,-0.5414733887,,,
32.5156250000,4,-0.5873413086,,,
32.5312500000,4,-0.6637268066,,,
32.5468750000,4,-0.7684630752,,,
32.5625000000,4,-0.8381041884,,,
32.5781250000,4,-0.7798461914,,,
32.5937500000,4,-0.5844727159,,,
32.6093750000,4,-0.2933959961,,,
32.6250000000,4,-0.0533142090,,,
32.6406250000,4,0.0089416504,,,
32.6562500000,4,-0.1500243992,,,
32.6718750000,4,-0.4424437881,,,
32.6875000000,4,-0.7302246094,,,
32.7031250000,4,-0.8864746094,,,
32.7187500000,4,-0.8363342285,,,
32.7343750000,4,-0.6166077256,,,
32.7500000000,4,-0.2763062119,,,
32.7656250000,4,0.1281432956,,,
32.7812500000,4,0.5361632705,,,
32.7968750000,4,0.9308472276,,,
32.8125000000,4,1.3077700138,,,
32.8281250000,4,1.6620479822,,,
32.8437500000,4,1.9795529842,,,
32.8593750000,4,2.2622680664,,,
32.8750000000,4,2.4803469181,,,
32.8906250000,4,2.6551508904,,,
32.9062500000,4,2.7637629509,,,
32.9218750000,4,2.7328190804,,,
32.9375000000,4,2.4992370605,,,
32.9531250000,4,2.0228269100,,,
32.9687500000,4,1.3470460176,,,
32.9843750000,4,0.5771790147,,,
33.0000000000,4,-0.0919189528,,,
33.0156250000,4,-0.5304564834,,,
33.0312500000,4,-0.6810302734,,,
33.0468750000,4,-0.5829772949,,,
33.0625000000,4,-0.3585509956,,,
33.0781250000,4,-0.1168823019,,,
33.0937500000,4,0.0257568397,,,
33.1093750000,4,0.0200500507,,,
33.1250000000,4,-0.1404723972,,,
33.1406250000,4,-0.4252013862,,,
33.1562500000,4,-0.7929077148,,,
33.1718750000,4,-1.1513370275,,,
33.1875000000,4,-1.3840639591,,,
33.2031250000,4,-1.4244689941,,,
33.2187500000,4,-1.2300109863,,,
33.2343750000,4,-0.8849486709,,,
33.2500000000,4,-0.5427246094,,,
33.2656250000,4,-0.3330993950,,,
33.2812500000,4,-0.3181152046,,,
33.2968750000,4,-0.4714354873,,,
33.3125000000,4,-0.6719970703,,,
33.3281250000,4,-0.7811279297,,,
33.3437500000,4,-0.7391356826,,,
33.3593750000,4,-0.5526732802,,,
33.3750000000,4,-0.3115234077,,,
33.3906250000,4,-0.1149291992,,,
33.4062500000,4,0.0012817380,,,
33.4218750000,4,0.0466918908,,,
33.4375000000,4,0.0621643104,,,
33.4531250000,4,0.1054992974,,,
33.4687500000,4,0.1976623982,,,
33.4843750000,4,0.2806091011,,,
33.5000000000,4,0.2846679986,,,
33.5156250000,4,0.1305236965,,,
33.5312500000,4,-0.2010803074,,,
33.5468750000,4,-0.6467589736,,,
33.5625000000,4,-1.0827939510,,,
33.5781250000,4,-1.3742979765,,,
33.5937500000,4,-1.4142149687,,,
33.6093750000,4,-1.1720889807,,,
33.6250000000,4,-0.7318115234,,,
33.6406250000,4,-0.2310180962,,,
33.6562500000,4,0.1919860989,,,
33.6718750000,4,0.4341736138,,,
33.6875000000,4,0.4813232124,,,
33.7031250000,4,0.3739319146,,,
33.7187500000,4,0.2220764011,,,
33.7343750000,4,0.1278991997,,,
33.7500000000,4,0.1767883003,,,
33.7656250000,4,0.3775024116,,,
33.7812500000,4,0.7077941895,,,
33.7968750000,4,1.0822139978,,,
33.8125000000,4,1.4061579704,,,
33.8281250000,4,1.6122130156,,,
33.8437500000,4,1.6471250057,,,
33.8593750000,4,1.5193480253,,,
33.8750000000,4,1.2779239416,,,
33.8906250000,4,0.9827576280,,,
33.9062500000,4,0.7186279297,,,
33.9218750000,4,0.5583801270,,,
33.9375000000,4,0.5043029785,,,
33.9531250000,4,0.5056763291,,,
33.9687500000,4,0.4609375000,,,
33.9843750000,4,0.2667236030,,,
34.0000000000,4,-0.1052550972,,,
34.0156250000,4,-0.5943604112,,,
34.0312500000,4,-1.0457459688,,,
34.0468750000,4,-1.3078609705,,,
34.0625000000,4,-1.3147280216,,,
34.0781250000,4,-1.1419680119,,,
34.0937500000,4,-0.9736022949,,,
34.1093750000,4,-0.9505615234,,,
34.1250000000,4,-1.1136469841,,,
34.1406250000,4,-1.3623050451,,,
34.1562500000,4,-1.5273740292,,,
34.1718750000,4,-1.4959410429,,,
34.1875000000,4,-1.2599179745,,,
34.2031250000,4,-0.9254760742,,,
34.2187500000,4,-0.6084899902,,,
34.2343750000,4,-0.3754577935,,,
34.2500000000,4,-0.1993103027,,,
34.2656250000,4,-0.0301208496,,,
34.2812500000,4,0.1620789021,,,
34.2968750000,4,0.3711547852,,,
34.3125000000,4,0.5527039170,,,
34.3281250000,4,0.6733093262,,,
34.3437500000,4,0.7125853896,,,
34.3593750000,4,0.6864014268,,,
34.3750000000,4,0.6014708877,,,
34.3906250000,4,0.4718323052,,,
34.4062500000,4,0.2857666016,,,
34.4218750000,4,0.0758666992,,,
34.4375000000,4,-0.1241760030,,,
34.4531250000,4,-0.3013916016,,,
34.4687500000,4,-0.4781799018,,,
34.4843750000,4,-0.7161560059,,,
34.5000000000,4,-1.0259089470,,,
34.5156250000,4,-1.3703000546,,,
34.5312500000,4,-1.6075129509,,,
34.5468750000,4,-1.5813599825,,,
34.5625000000,4,-1.2090150118,,,
34.5781250000,4,-0.5494080186,,,
34.5937500000,4,0.1838379055,,,
34.6093750000,4,0.7485961914,,,
34.6250000000,4,0.9911193848,,,
34.6406250000,4,0.9407653809,,,
34.6562500000,4,0.7484436035,,,
34.6718750000,4,0.5906372070,,,
34.6875000000,4,0.5539246202,,,
34.7031250000,4,0.6145935059,,,
34.7187500000,4,0.6919556260,,,
34.7343750000,4,0.7143859863,,,
34.7500000000,4,0.6771240234,,,
34.7656250000,4,0.6242980957,,,
34.7812500000,4,0.5670775771,,,
34.7968750000,4,0.4704590142,,,
34.8125000000,4,0.2519530952,,,
34.8281250000,4,-0.1246337965,,,
34.8437500000,4,-0.6136475205,,,
34.8593750000,4,-1.0766299963,,,
34.8750000000,4,-1.3740539551,,,
34.8906250000,4,-1.4092099667,,,
34.9062500000,4,-1.1952509880,,,
34.9218750000,4,-0.8248596191,,,
34.9375000000,4,-0.3960266113,,,
34.9531250000,4,0.0156860407,,,
34.9687500000,4,0.3645020127,,,
34.9843750000,4,0.5972899795,,,
35.0000000000,4,0.6752318740,,,
35.0156250000,4,0.5540770888,,,
35.0312500000,4,0.2419127971,,,
35.0468750000,4,-0.1978455037,,,
35.0625000000,4,-0.6735839844,,,
35.0781250000,4,-1.0701290369,,,
35.0937500000,4,-1.2900999784,,,
35.1093750000,4,-1.3124389648,,,
35.1250000000,4,-1.1853029728,,,
35.1406250000,4,-1.0006409883,,,
35.1562500000,4,-0.8411560059,,,
35.1718750000,4,-0.7128906250,,,
35.1875000000,4,-0.5682982802,,,
35.2031250000,4,-0.3044128120,,,
35.2187500000,4,0.1694640964,,,
35.2343750000,4,0.8605347276,,,
35.2500000000,4,1.6539310217,,,
35.2656250000,4,2.3532409668,,,
35.2812500000,4,2.7550959587,,,
35.2968750000,4,2.7477419376,,,
35.3125000000,4,2.3480529785,,,
35.3281250000,4,1.6865229607,,,
35.3437500000,4,0.9483643174,,,
35.3593750000,4,0.3038024902,,,
35.3750000000,4,-0.1517028958,,,
35.3906250000,4,-0.4133605957,,,
35.4062500000,4,-0.5171204209,,,
35.4218750000,4,-0.5118712783,,,
35.4375000000,4,-0.4355773926,,,
35.4531250000,4,-0.2918395996,,,
35.4687500000,4,-0.0988769531,,,
35.4843750000,4,0.1384582967,,,
35.5000000000,4,0.3732300103,,,
35.5156250000,4,0.5377808213,,,
35.5312500000,4,0.5784301758,,,
35.5468750000,4,0.4780884087,,,
35.5625000000,4,0.2731933892,,,
35.5781250000,4,0.0029602051,,,
35.5937500000,4,-0.2796325982,,,
35.6093750000,4,-0.5578917861,,,
35.6250000000,4,-0.8151550293,,,
35.6406250000,4,-1.0699460506,,,
35.6562500000,4,-1.3217469454,,,
35.6718750000,4,-1.5744320154,,,
35.6875000000,4,-1.7954100370,,,
35.7031250000,4,-1.9362490177,,,
35.7187500000,4,-1.9515990019,,,
35.7343750000,4,-1.7986760139,,,
35.7500000000,4,-1.5012209415,,,
35.7656250000,4,-1.1061400175,,,
35.7812500000,4,-0.6977844238,,,
35.7968750000,4,-0.3340148926,,,
35.8125000000,4,-0.0339660607,,,
35.8281250000,4,0.2495422065,,,
35.8437500000,4,0.5856323242,,,
35.8593750000,4,1.0018310547,,,
35.8750000000,4,1.4533389807,,,
35.8906250000,4,1.8042299747,,,
35.9062500000,4,1.9049990177,,,
35.9218750000,4,1.6921689510,,,
35.9375000000,4,1.2265009880,,,
35.9531250000,4,0.6904296875,,,
35.9687500000,4,0.2886353135,,,
35.9843750000,4,0.1661376953,,,
36.0000000000,4,0.3324890137,,,
36.0156250000,4,0.6907349229,,,
36.0312500000,4,1.1035770178,,,
36.0468750000,4,1.4490360022,,,
36.0625000000,4,1.6711430550,,,
36.0781250000,4,1.7597049475,,,
36.0937500000,4,1.7303769588,,,
36.1093750000,4,1.6076970100,,,
36.1250000000,4,1.4206850529,,,
36.1406250000,4,1.1802059412,,,
36.1562500000,4,0.9301757813,,,
36.1718750000,4,0.6817321777,,,
36.1875000000,4,0.4648438096,,,
36.2031250000,4,0.2892456055,,,
36.2187500000,4,0.1406860054,,,
36.2343750000,4,0.0157775898,,,
36.2500000000,4,-0.0903015137,,,
36.2656250000,4,-0.1857299954,,,
36.2812500000,4,-0.2903747857,,,
36.2968750000,4,-0.4099731147,,,
36.3125000000,4,-0.5620421767,,,
36.3281250000,4,-0.7400817871,,,
36.3437500000,4,-0.9130554199,,,
36.3593750000,4,-1.0445859432,,,
36.3750000000,4,-1.0951230526,,,
36.3906250000,4,-1.0310360193,,,
36.4062500000,4,-0.8572388291,,,
36.4218750000,4,-0.5886229873,,,
36.4375000000,4,-0.2660827935,,,
36.4531250000,4,0.0653991699,,,
36.4687500000,4,0.3735351861,,,
36.4843750000,4,0.6304625869,,,
36.5000000000,4,0.8249511719,,,
36.5156250000,4,0.9355773926,,,
36.5312500000,4,0.9320983887,,,
36.5468750000,4,0.7814331055,,,
36.5625000000,4,0.4822083116,,,
36.5781250000,4,0.0729064867,,,
36.5937500000,4,-0.3884887993,,,
36.6093750000,4,-0.8295897841,,,
36.6250000000,4,-1.1978759766,,,
36.6406250000,4,-1.4855959415,,,
36.6562500000,4,-1.6822509766,,,
36.6718750000,4,-1.7931209803,,,
36.6875000000,4,-1.8008420467,,,
36.7031250000,4,-1.6778869629,,,
36.7187500000,4,-1.4211119413,,,
36.7343750000,4,-1.0853270292,,,
36.7500000000,4,-0.7366027832,,,
36.7656250000,4,-0.4357604980,,,
36.7812500000,4,-0.2276000977,,,
36.7968750000,4,-0.1210632026,,,
36.8125000000,4,-0.1032103971,,,
36.8281250000,4,-0.1416016072,,,
36.8437500000,4,-0.1936950982,,,
36.8593750000,4,-0.2090453953,,,
36.8750000000,4,-0.1426392049,,,
36.8906250000,4,0.0504455604,,,
36.9062500000,4,0.3801270127,,,
36.9218750000,4,0.8063353896,,,
36.9375000000,4,1.2684019804,,,
36.9531250000,4,1.6716610193,,,
36.9687500000,4,1.9734799862,,,
36.9843750000,4,2.1688230038,,,
37.0000000000,4,2.2684330940,,,
37.0156250000,4,2.2887880802,,,
37.0312500000,4,2.2149350643,,,
37.0468750000,4,2.0305790901,,,
37.0625000000,4,1.7394100428,,,
37.0781250000,4,1.3847659826,,,
37.0937500000,4,1.0479429960,,,
37.1093750000,4,0.8234863281,,,
37.1250000000,4,0.7598267198,,,
37.1406250000,4,0.8202515244,,,
37.1562500000,4,0.8949890137,,,
37.1718750000,4,0.8415222168,,,
37.1875000000,4,0.5823364258,,,
37.2031250000,4,0.1460876018,,,
37.2187500000,4,-0.3237915039,,,
37.2343750000,4,-0.6448975205,,,
37.2500000000,4,-0.6988220215,,,
37.2656250000,4,-0.4729613960,,,
37.2812500000,4,-0.0747375488,,,
37.2968750000,4,0.3248901069,,,
37.3125000000,4,0.5630797744,,,
37.3281250000,4,0.5414124131,,,
37.3437500000,4,0.2575072944,,,
37.3593750000,4,-0.2053833008,,,
37.3750000000,4,-0.7145996094,,,
37.3906250000,4,-1.1456600428,,,
37.4062500000,4,-1.3790889978,,,
37.4218750000,4,-1.3856509924,,,
37.4375000000,4,-1.2054749727,,,
37.4531250000,4,-0.9742125869,,,
37.4687500000,4,-0.8213500977,,,
37.4843750000,4,-0.8515015244,,,
37.5000000000,4,-1.0778199434,,,
37.5156250000,4,-1.4150090218,,,
37.5312500000,4,-1.7386469841,,,
37.5468750000,4,-1.9226069450,,,
37.5625000000,4,-1.9086300135,,,
37.5781250000,4,-1.7092900276,,,
37.5937500000,4,-1.4094849825,,,
37.6093750000,4,-1.0906679630,,,
37.6250000000,4,-0.8209229112,,,
37.6406250000,4,-0.6258239746,,,
37.6562500000,4,-0.5004271865,,,
37.6718750000,4,-0.4562377930,,,
37.6875000000,4,-0.5164489746,,,
37.7031250000,4,-0.6965941787,,,
37.7187500000,4,-0.9886779785,,,
37.7343750000,4,-1.3222049475,,,
37.7500000000,4,-1.5894470215,,,
37.7656250000,4,-1.6803890467,,,
37.7812500000,4,-1.5568239689,,,
37.7968750000,4,-1.2474060059,,,
37.8125000000,4,-0.8579711914,,,
37.8281250000,4,-0.4953612983,,,
37.8437500000,4,-0.2029418945,,,
37.8593750000,4,0.0367431603,,,
37.8750000000,4,0.2899169922,,,
37.8906250000,4,0.6055908203,,,
37.9062500000,4,0.9673461914,,,
37.9218750000,4,1.3002010584,,,
37.9375000000,4,1.5300899744,,,
37.9531250000,4,1.6068420410,,,
37.9687500000,4,1.5549620390,,,
37.9843750000,4,1.4433590174,,,
38.0000000000,4,1.3361510038,,,
38.0156250000,4,1.2403260469,,,
38.0312500000,4,1.1215209961,,,
38.0468750000,4,0.9256287217,,,
38.0625000000,4,0.6097412109,,,
38.0781250000,4,0.2020263970,,,
38.0937500000,4,-0.2087097019,,,
38.1093750000,4,-0.4954529107,,,
38.1250000000,4,-0.5525208116,,,
38.1406250000,4,-0.3560180962,,,
38.1562500000,4,0.0350647010,,,
38.1718750000,4,0.5095214844,,,
38.1875000000,4,0.9410095215,,,
38.2031250000,4,1.2510989904,,,
38.2187500000,4,1.3968199492,,,
38.2343750000,4,1.3910520077,,,
38.2500000000,4,1.2519530058,,,
38.2656250000,4,0.9956665039,,,
38.2812500000,4,0.6184691787,,,
38.2968750000,4,0.1258545071,,,
38.3125000000,4,-0.4579162896,,,
38.3281250000,4,-1.0527039766,,,
38.3437500000,4,-1.5282590389,,,
38.3593750000,4,-1.7645870447,,,
38.3750000000,4,-1.7054140568,,,
38.3906250000,4,-1.3743900061,,,
38.4062500000,4,-0.8751525879,,,
38.4218750000,4,-0.3801879883,,,
38.4375000000,4,-0.0137634296,,,
38.4531250000,4,0.1688538045,,,
38.4687500000,4,0.2184752971,,,
38.4843750000,4,0.2282409966,,,
38.5000000000,4,0.2726440132,,,
38.5156250000,4,0.3615112007,,,
38.5312500000,4,0.4409179986,,,
38.5468750000,4,0.4579468071,,,
38.5625000000,4,0.3816223145,,,
38.5781250000,4,0.2455749959,,,
38.5937500000,4,0.1112976000,,,
38.6093750000,4,0.0451965295,,,
38.6250000000,4,0.0635070801,,,
38.6406250000,4,0.1354064941,,,
38.6562500000,4,0.2107543945,,,
38.6718750000,4,0.2378845066,,,
38.6875000000,4,0.1887816936,,,
38.7031250000,4,0.0745239332,,,
38.7187500000,4,-0.0906982422,,,
38.7343750000,4,-0.2694092095,,,
38.7500000000,4,-0.4041137993,,,
38.7656250000,4,-0.4638977051,,,
38.7812500000,4,-0.4304504097,,,
38.7968750000,4,-0.3150939941,,,
38.8125000000,4,-0.1600037068,,,
38.8281250000,4,-0.0033569341,,,
38.8437500000,4,0.1591491997,,,
38.8593750000,4,0.3519287109,,,
38.8750000000,4,0.5943297744,,,
38.8906250000,4,0.8605042100,,,
38.9062500000,4,1.0658869743,,,
38.9218750000,4,1.0876460075,,,
38.9375000000,4,0.8446655273,,,
38.9531250000,4,0.3326416016,,,
38.9687500000,4,-0.3337096870,,,
38.9843750000,4,-0.9764708877,,,
39.0000000000,4,-1.4480899572,,,
39.0156250000,4,-1.6824040413,,,
39.0312500000,4,-1.7238459587,,,
39.0468750000,4,-1.6413569450,,,
39.0625000000,4,-1.4819339514,,,
39.0781250000,4,-1.2482299805,,,
39.0937500000,4,-0.9278870225,,,
39.1093750000,4,-0.5539550781,,,
39.1250000000,4,-0.1928710938,,,
39.1406250000,4,0.0612182617,,,
39.1562500000,4,0.1851195991,,,
39.1718750000,4,0.2294006050,,,
39.1875000000,4,0.2913818061,,,
39.2031250000,4,0.4565734863,,,
39.2187500000,4,0.7214354873,,,
39.2343750000,4,0.9911499023,,,
39.2500000000,4,1.1428220272,,,
39.2656250000,4,1.0958249569,,,
39.2812500000,4,0.8601074219,,,
39.2968750000,4,0.5186768174,,,
39.3125000000,4,0.1860045940,,,
39.3281250000,4,-0.0730590820,,,
39.3437500000,4,-0.2403258979,,,
39.3593750000,4,-0.3635559082,,,
39.3750000000,4,-0.4927062988,,,
39.3906250000,4,-0.6536254883,,,
39.4062500000,4,-0.8400573730,,,
39.4218750000,4,-1.0018919706,,,
39.4375000000,4,-1.0883480310,,,
39.4531250000,4,-1.0655519962,,,
39.4687500000,4,-0.9381409287,,,
39.4843750000,4,-0.7532349229,,,
39.5000000000,4,-0.6041870117,,,
39.5156250000,4,-0.5746765137,,,
39.5312500000,4,-0.6882628798,,,
39.5468750000,4,-0.8725280762,,,
39.5625000000,4,-0.9782714844,,,
39.5781250000,4,-0.8883057237,,,
39.5937500000,4,-0.5146179199,,,
39.6093750000,4,0.0795593336,,,
39.6250000000,4,0.7334290147,,,
39.6406250000,4,1.2211300135,,,
39.6562500000,4,1.3487550020,,,
39.6718750000,4,1.0752559900,,,
39.6875000000,4,0.5074768066,,,
39.7031250000,4,-0.1499329060,,,
39.7187500000,4,-0.6914063096,,,
39.7343750000,4,-0.9674987793,,,
39.7500000000,4,-0.9670714736,,,
39.7656250000,4,-0.7600708008,,,
39.7812500000,4,-0.4378356934,,,
39.7968750000,4,-0.0928955078,,,
39.8125000000,4,0.2205505073,,,
39.8281250000,4,0.4580993950,,,
39.8437500000,4,0.6054077148,,,
39.8593750000,4,0.6492310166,,,
39.8750000000,4,0.6229248047,,,
39.8906250000,4,0.5924683213,,,
39.9062500000,4,0.6452025771,,,
39.9218750000,4,0.8345336914,,,
39.9375000000,4,1.1419370174,,,
39.9531250000,4,1.4746090174,,,
39.9687500000,4,1.6835329533,,,
39.9843750000,4,1.6627500057,,,
40.0000000000,5,1.3975219727,,,
40.0156250000,5,0.9682312012,,,
40.0312500000,5,0.5004271865,,,
40.0468750000,5,0.1243591011,,,
40.0625000000,5,-0.1018372029,,,
40.0781250000,5,-0.2069396973,,,
40.0937500000,5,-0.2502135932,,,
40.1093750000,5,-0.2882995903,,,
40.1250000000,5,-0.3232116997,,,
40.1406250000,5,-0.3358458877,,,
40.1562500000,5,-0.3333739936,,,
40.1718750000,5,-0.3547362983,,,
40.1875000000,5,-0.4471130073,,,
40.2031250000,5,-0.6166992188,,,
40.2187500000,5,-0.7915344238,,,
40.2343750000,5,-0.8634337783,,,
40.2500000000,5,-0.7222290039,,,
40.2656250000,5,-0.3554688096,,,
40.2812500000,5,0.1660155952,,,
40.2968750000,5,0.7152404785,,,
40.3125000000,5,1.1685789824,,,
40.3281250000,5,1.4351810217,,,
40.3437500000,5,1.4944460392,,,
40.3593750000,5,1.3516850471,,,
40.3750000000,5,1.0148619413,,,
40.3906250000,5,0.5036010742,,,
40.4062500000,5,-0.1041869968,,,
40.4218750000,5,-0.6981505752,,,
40.4375000000,5,-1.1445620060,,,
40.4531250000,5,-1.3579100370,,,
40.4687500000,5,-1.3527829647,,,
40.4843750000,5,-1.2198489904,,,
40.5000000000,5,-1.0793149471,,,
40.5156250000,5,-1.0143740177,,,
40.5312500000,5,-1.0417480469,,,
40.5468750000,5,-1.0833129883,,,
40.5625000000,5,-1.0555109978,,,
40.5781250000,5,-0.8902893066,,,
40.5937500000,5,-0.5669556260,,,
40.6093750000,5,-0.1550292969,,,
40.6250000000,5,0.2594299018,,,
40.6406250000,5,0.5755919814,,,
40.6562500000,5,0.7146301270,,,
40.6718750000,5,0.6569824219,,,
40.6875000000,5,0.4190368950,,,
40.7031250000,5,0.0629577637,,,
40.7187500000,5,-0.3015747070,,,
40.7343750000,5,-0.5676879883,,,
40.7500000000,5,-0.6557921767,,,
40.7656250000,5,-0.5538939834,,,
40.7812500000,5,-0.3298034966,,,
40.7968750000,5,-0.0767822266,,,
40.8125000000,5,0.1250610054,,,
40.8281250000,5,0.2220153958,,,
40.8437500000,5,0.2315673977,,,
40.8593750000,5,0.2223206013,,,
40.8750000000,5,0.3108215034,,,
40.8906250000,5,0.5692139268,,,
40.9062500000,5,1.0351870060,,,
40.9218750000,5,1.6424870491,,,
40.9375000000,5,2.2408139706,,,
40.9531250000,5,2.6695859432,,,
40.9687500000,5,2.7731320858,,,
40.9843750000,5,2.4904170036,,,
41.0000000000,5,1.8953249454,,,
41.0156250000,5,1.1422120333,,,
41.0312500000,5,0.4117737114,,,
41.0468750000,5,-0.1355895996,,,
41.0625000000,5,-0.4394530952,,,
41.0781250000,5,-0.5371398926,,,
41.0937500000,5,-0.4809874892,,,
41.1093750000,5,-0.3401488960,,,
41.1250000000,5,-0.1546936035,,,
41.1406250000,5,0.0625000000,,,
41.1562500000,5,0.2607727051,,,
41.1718750000,5,0.3567504883,,,
41.1875000000,5,0.2661437988,,,
41.2031250000,5,-0.0342407189,,,
41.2187500000,5,-0.4542236030,,,
41.2343750000,5,-0.7932128906,,,
41.2500000000,5,-0.8434752822,,,
41.2656250000,5,-0.4754638970,,,
41.2812500000,5,0.2560119927,,,
41.2968750000,5,1.1046140194,,,
41.3125000000,5,1.7632750273,,,
41.3281250000,5,1.9775700569,,,
41.3437500000,5,1.6601560116,,,
41.3593750000,5,0.8880004883,,,
41.3750000000,5,-0.1047974005,,,
41.3906250000,5,-1.0722659826,,,
41.4062500000,5,-1.8100279570,,,
41.4218750000,5,-2.1743469238,,,
41.4375000000,5,-2.1466979980,,,
41.4531250000,5,-1.7865300179,,,
41.4687500000,5,-1.2241519690,,,
41.4843750000,5,-0.6379088759,,,
41.5000000000,5,-0.1699523926,,,
41.5156250000,5,0.0898437500,,,
41.5312500000,5,0.1551208049,,,
41.5468750000,5,0.1033935994,,,
41.5625000000,5,0.0450134315,,,
41.5781250000,5,0.0122375498,,,
41.5937500000,5,-0.0186462402,,,
41.6093750000,5,-0.0959777832,,,
41.6250000000,5,-0.2575072944,,,
41.6406250000,5,-0.4570007026,,,
41.6562500000,5,-0.6038513184,,,
41.6718750000,5,-0.6086730957,,,
41.6875000000,5,-0.4485473931,,,
41.7031250000,5,-0.1731262058,,,
41.7187500000,5,0.1294555962,,,
41.7343750000,5,0.4134216011,,,
41.7500000000,5,0.6782836914,,,
41.7656250000,5,0.9624022841,,,
41.7812500000,5,1.2870479822,,,
41.7968750000,5,1.6061400175,,,
41.8125000000,5,1.8199460506,,,
41.8281250000,5,1.8099370003,,,
41.8437500000,5,1.5052800179,,,
41.8593750000,5,0.9202271104,,,
41.8750000000,5,0.1511840969,,,
41.8906250000,5,-0.6766052246,,,
41.9062500000,5,-1.4245300293,,,
41.9218750000,5,-1.9741209745,,,
41.9375000000,5,-2.2322390079,,,
41.9531250000,5,-2.1680910587,,,
41.9687500000,5,-1.8276059628,,,
41.9843750000,5,-1.3185420036,,,
42.0000000000,5,-0.7658690810,,,
42.0156250000,5,-0.2825928032,,,
42.0312500000,5,0.0813903809,,,
42.0468750000,5,0.3331299126,,,
42.0625000000,5,0.5057982802,,,
42.0781250000,5,0.6158751845,,,
42.0937500000,5,0.6587219238,,,
42.1093750000,5,0.6472167969,,,
42.1250000000,5,0.6210021973,,,
42.1406250000,5,0.6498718262,,,
42.1562500000,5,0.7988281250,,,
42.1718750000,5,1.0367130041,,,
42.1875000000,5,1.2485350370,,,
42.2031250000,5,1.2556760311,,,
42.2187500000,5,0.9269409180,,,
42.2343750000,5,0.2579956055,,,
42.2500000000,5,-0.5753479004,,,
42.2656250000,5,-1.3054809570,,,
42.2812500000,5,-1.7136230469,,,
42.2968750000,5,-1.6987919807,,,
42.3125000000,5,-1.3323969841,,,
42.3281250000,5,-0.7862548828,,,
42.3437500000,5,-0.2619324028,,,
42.3593750000,5,0.1262207031,,,
42.3750000000,5,0.3405151069,,,
42.3906250000,5,0.4143066108,,,
42.4062500000,5,0.4065856934,,,
42.4218750000,5,0.3674316108,,,
42.4375000000,5,0.3125304878,,,
42.4531250000,5,0.2555541992,,,
42.4687500000,5,0.1602478027,,,
42.4843750000,5,-0.0211181603,,,
42.5000000000,5,-0.3027344048,,,
42.5156250000,5,-0.6786193848,,,
42.5312500000,5,-1.1105040312,,,
42.5468750000,5,-1.4994510412,,,
42.5625000000,5,-1.7539370060,,,
42.5781250000,5,-1.8444520235,,,
42.5937500000,5,-1.7956850529,,,
42.6093750000,5,-1.6694949865,,,
42.6250000000,5,-1.5116579533,,,
42.6406250000,5,-1.3144530058,,,
42.6562500000,5,-1.0558470488,,,
42.6718750000,5,-0.7383728027,,,
42.6875000000,5,-0.4083251953,,,
42.7031250000,5,-0.1463928074,,,
42.7187500000,5,0.0032958980,,,
42.7343750000,5,0.0563354492,,,
42.7500000000,5,0.1118469015,,,
42.7656250000,5,0.2721863091,,,
42.7812500000,5,0.5676574707,,,
42.7968750000,5,0.9085999131,,,
42.8125000000,5,1.1420290470,,,
42.8281250000,5,1.1435849667,,,
42.8437500000,5,0.8822020888,,,
42.8593750000,5,0.4628295898,,,
42.8750000000,5,0.0636901930,,,
42.8906250000,5,-0.1809387058,,,
42.9062500000,5,-0.2425841987,,,
42.9218750000,5,-0.1551208049,,,
42.9375000000,5,-0.0262451209,,,
42.9531250000,5,0.0834045410,,,
42.9687500000,5,0.1676636040,,,
42.9843750000,5,0.2445679009,,,
43.0000000000,5,0.3527526855,,,
43.0156250000,5,0.5367736816,,,
43.0312500000,5,0.7971801758,,,
43.0468750000,5,1.1190190315,,,
43.0625000000,5,1.4592590332,,,
43.0781250000,5,1.7006839514,,,
43.0937500000,5,1.7104489803,,,
43.1093750000,5,1.4240720272,,,
43.1250000000,5,0.8707581162,,,
43.1406250000,5,0.2377319038,,,
43.1562500000,5,-0.2274779975,,,
43.1718750000,5,-0.3323669136,,,
43.1875000000,5,-0.0772399902,,,
43.2031250000,5,0.3357239068,,,
43.2187500000,5,0.6213378906,,,
43.2343750000,5,0.5828552246,,,
43.2500000000,5,0.2448424995,,,
43.2656250000,5,-0.1957397014,,,
43.2812500000,5,-0.4565429986,,,
43.2968750000,5,-0.3816832900,,,
43.3125000000,5,-0.0012817380,,,
43.3281250000,5,0.4815368950,,,
43.3437500000,5,0.8665161133,,,
43.3593750000,5,1.0181879997,,,
43.3750000000,5,0.9582824707,,,
43.3906250000,5,0.8293151855,,,
43.4062500000,5,0.7316284180,,,
43.4218750000,5,0.7044066787,,,
43.4375000000,5,0.6929321289,,,
43.4531250000,5,0.6008911133,,,
43.4687500000,5,0.3276062012,,,
43.4843750000,5,-0.1598511040,,,
43.5000000000,5,-0.8249511719,,,
43.5156250000,5,-1.5346369743,,,
43.5312500000,5,-2.1208798885,,,
43.5468750000,5,-2.4486689568,,,
43.5625000000,5,-2.4611210823,,,
43.5781250000,5,-2.1968989372,,,
43.5937500000,5,-1.7975460291,,,
43.6093750000,5,-1.4317020178,,,
43.6250000000,5,-1.2001039982,,,
43.6406250000,5,-1.1337280273,,,
43.6562500000,5,-1.1816409826,,,
43.6718750000,5,-1.2417600155,,,
43.6875000000,5,-1.2453919649,,,
43.7031250000,5,-1.1480410099,,,
43.7187500000,5,-0.9772644043,,,
43.7343750000,5,-0.7833251953,,,
43.7500000000,5,-0.6247559190,,,
43.7656250000,5,-0.5311279297,,,
43.7812500000,5,-0.4984436035,,,
43.7968750000,5,-0.4810180962,,,
43.8125000000,5,-0.3892211914,,,
43.8281250000,5,-0.1802368015,,,
43.8437500000,5,0.1550292969,,,
43.8593750000,5,0.5339965820,,,
43.8750000000,5,0.8422852159,,,
43.8906250000,5,0.9988707900,,,
43.9062500000,5,1.0280460119,,,
43.9218750000,5,1.0113830566,,,
43.9375000000,5,1.0394899845,,,
43.9531250000,5,1.1376340389,,,
43.9687500000,5,1.2189639807,,,
43.9843750000,5,1.1826779842,,,
44.0000000000,5,0.9613037109,,,
44.0156250000,5,0.5839232802,,,
44.0312500000,5,0.1761779934,,,
44.0468750000,5,-0.1111754999,,,
44.0625000000,5,-0.2341918945,,,
44.0781250000,5,-0.2267760932,,,
44.0937500000,5,-0.1826172024,,,
44.1093750000,5,-0.1930236965,,,
44.1250000000,5,-0.2683104873,,,
44.1406250000,5,-0.3254089057,,,
44.1562500000,5,-0.2581177056,,,
44.1718750000,5,0.0073852539,,,
44.1875000000,5,0.4551697075,,,
44.2031250000,5,0.9974365234,,,
44.2187500000,5,1.4993900061,,,
44.2343750000,5,1.8426510096,,,
44.2500000000,5,1.9460450411,,,
44.2656250000,5,1.8143919706,,,
44.2812500000,5,1.4848630428,,,
44.2968750000,5,1.0369869471,,,
44.3125000000,5,0.5534058213,,,
44.3281250000,5,0.1102600023,,,
44.3437500000,5,-0.2421875000,,,
44.3593750000,5,-0.4853515923,,,
44.3750000000,5,-0.6153563857,,,
44.3906250000,5,-0.6757813096,,,
44.4062500000,5,-0.7036437988,,,
44.4218750000,5,-0.7449036241,,,
44.4375000000,5,-0.7966613770,,,
44.4531250000,5,-0.8128051758,,,
44.4687500000,5,-0.7402039170,,,
44.4843750000,5,-0.5471801758,,,
44.5000000000,5,-0.2471923977,,,
44.5156250000,5,0.0834350586,,,
44.5312500000,5,0.3352355957,,,
44.5468750000,5,0.4246216118,,,
44.5625000000,5,0.2997437119,,,
44.5781250000,5,-0.0289611798,,,
44.5937500000,5,-0.5090026855,,,
44.6093750000,5,-1.0300600529,,,
44.6250000000,5,-1.4948430061,,,
44.6406250000,5,-1.8214110136,,,
44.6562500000,5,-1.9544980526,,,
44.6718750000,5,-1.9083559513,,,
44.6875000000,5,-1.7369079590,,,
44.7031250000,5,-1.5196529627,,,
44.7187500000,5,-1.3232729435,,,
44.7343750000,5,-1.1846009493,,,
44.7500000000,5,-1.0888669491,,,
44.7656250000,5,-0.9808959961,,,
44.7812500000,5,-0.8180236816,,,
44.7968750000,5,-0.5680236816,,,
44.8125000000,5,-0.2474976033,,,
44.8281250000,5,0.1021118015,,,
44.8437500000,5,0.4266051948,,,
44.8593750000,5,0.6902770996,,,
44.8750000000,5,0.8769835830,,,
44.8906250000,5,1.0307919979,,,
44.9062500000,5,1.2006529570,,,
44.9218750000,5,1.3964840174,,,
44.9375000000,5,1.6202089787,,,
44.9531250000,5,1.8339539766,,,
44.9687500000,5,1.9943239689,,,
44.9843750000,5,2.0751950741,,,
45.0000000000,5,2.1019289494,,,
45.0156250000,5,2.1135859489,,,
45.0312500000,5,2.1748049259,,,
45.0468750000,5,2.3020629883,,,
45.0625000000,5,2.4434509277,,,
45.0781250000,5,2.4942018986,,,
45.0937500000,5,2.3281860352,,,
45.1093750000,5,1.8869630098,,,
45.1250000000,5,1.2045899630,,,
45.1406250000,5,0.3987731934,,,
45.1562500000,5,-0.3733825982,,,
45.1718750000,5,-0.9971007705,,,
45.1875000000,5,-1.4264219999,,,
45.2031250000,5,-1.6874690056,,,
45.2187500000,5,-1.8134160042,,,
45.2343750000,5,-1.8211059570,,,
45.2500000000,5,-1.6799620390,,,
45.2656250000,5,-1.3785710335,,,
45.2812500000,5,-0.9617310166,,,
45.2968750000,5,-0.5399475098,,,
45.3125000000,5,-0.2259216011,,,
45.3281250000,5,-0.0954589769,,,
45.3437500000,5,-0.1331481934,,,
45.3593750000,5,-0.2429199070,,,
45.3750000000,5,-0.3531799018,,,
45.3906250000,5,-0.4098815918,,,
45.4062500000,5,-0.4305419922,,,
45.4218750000,5,-0.4579772949,,,
45.4375000000,5,-0.5242310166,,,
45.4531250000,5,-0.5917357802,,,
45.4687500000,5,-0.6203308105,,,
45.4843750000,5,-0.5921326280,,,
45.5000000000,5,-0.5119323730,,,
45.5156250000,5,-0.4352416992,,,
45.5312500000,5,-0.3872070014,,,
45.5468750000,5,-0.3605957031,,,
45.5625000000,5,-0.3117980957,,,
45.5781250000,5,-0.1933898926,,,
45.5937500000,5,0.0461120605,,,
45.6093750000,5,0.4042052925,,,
45.6250000000,5,0.8630371094,,,
45.6406250000,5,1.3645019531,,,
45.6562500000,5,1.8207399845,,,
45.6718750000,5,2.1253659725,,,
45.6875000000,5,2.1847839355,,,
45.7031250000,5,1.9551700354,,,
45.7187500000,5,1.4704899788,,,
45.7343750000,5,0.8405761719,,,
45.7500000000,5,0.2031860054,,,
45.7656250000,5,-0.3085327148,,,
45.7812500000,5,-0.6371459961,,,
45.7968750000,5,-0.8040465713,,,
45.8125000000,5,-0.8900145888,,,
45.8281250000,5,-0.9808654785,,,
45.8437500000,5,-1.1090389490,,,
45.8593750000,5,-1.2508540154,,,
45.8750000000,5,-1.3493649960,,,
45.8906250000,5,-1.3407590389,,,
45.9062500000,5,-1.1833189726,,,
45.9218750000,5,-0.8502501845,,,
45.9375000000,5,-0.3738098145,,,
45.9531250000,5,0.1905823052,,,
45.9687500000,5,0.7567749023,,,
45.9843750000,5,1.2204279900,,,
46.0000000000,5,1.4931950569,,,
46.0156250000,5,1.5306700468,,,
46.0312500000,5,1.3552550077,,,
46.0468750000,5,1.0660099983,,,
46.0625000000,5,0.8168640137,,,
46.0781250000,5,0.7199401855,,,
46.0937500000,5,0.7976074219,,,
46.1093750000,5,0.9566649795,,,
46.1250000000,5,1.0266419649,,,
46.1406250000,5,0.8645629883,,,
46.1562500000,5,0.4405517876,,,
46.1718750000,5,-0.1563110054,,,
46.1875000000,5,-0.7284240723,,,
46.2031250000,5,-1.0995789766,,,
46.2187500000,5,-1.1814880371,,,
46.2343750000,5,-1.0032349825,,,
46.2500000000,5,-0.6919860840,,,
46.2656250000,5,-0.4017029107,,,
46.2812500000,5,-0.2362060994,,,
46.2968750000,5,-0.2002563030,,,
46.3125000000,5,-0.2561646104,,,
46.3281250000,5,-0.3577880859,,,
46.3437500000,5,-0.4882813096,,,
46.3593750000,5,-0.6698914170,,,
46.3750000000,5,-0.9219359756,,,
46.3906250000,5,-1.2380679846,,,
46.4062500000,5,-1.5838320255,,,
46.4218750000,5,-1.9085079432,,,
46.4375000000,5,-2.1521298885,,,
46.4531250000,5,-2.2809450626,,,
46.4687500000,5,-2.2636110783,,,
46.4843750000,5,-2.0730590820,,,
46.5000000000,5,-1.6960140467,,,
46.5156250000,5,-1.1138310432,,,
46.5312500000,5,-0.3704833984,,,
46.5468750000,5,0.4073486030,,,
46.5625000000,5,1.0368039608,,,
46.5781250000,5,1.3663940430,,,
46.5937500000,5,1.3515009880,,,
46.6093750000,5,1.0933530331,,,
46.6250000000,5,0.7707213759,,,
46.6406250000,5,0.5281066895,,,
46.6562500000,5,0.4281615913,,,
46.6718750000,5,0.3849487007,,,
46.6875000000,5,0.2748413086,,,
46.7031250000,5,0.0126342801,,,
46.7187500000,5,-0.3476563096,,,
46.7343750000,5,-0.6427307129,,,
46.7500000000,5,-0.6790770888,,,
46.7656250000,5,-0.3687438965,,,
46.7812500000,5,0.2064514011,,,
46.7968750000,5,0.8537902832,,,
46.8125000000,5,1.3576970100,,,
46.8281250000,5,1.5890810490,,,
46.8437500000,5,1.5534670353,,,
46.8593750000,5,1.3485109806,,,
46.8750000000,5,1.0810240507,,,
46.8906250000,5,0.8214417100,,,
46.9062500000,5,0.5968322754,,,
46.9218750000,5,0.3760375977,,,
46.9375000000,5,0.1502075046,,,
46.9531250000,5,-0.0960388184,,,
46.9687500000,5,-0.3514099121,,,
46.9843750000,5,-0.5991516113,,,
47.0000000000,5,-0.8515319824,,,
47.0156250000,5,-1.0939029455,,,
47.0312500000,5,-1.3013000488,,,
47.0468750000,5,-1.4148859978,,,
47.0625000000,5,-1.3885190487,,,
47.0781250000,5,-1.2001039982,,,
47.0937500000,5,-0.8690795898,,,
47.1093750000,5,-0.4334106147,,,
47.1250000000,5,0.0418090783,,,
47.1406250000,5,0.4725952148,,,
47.1562500000,5,0.8115233779,,,
47.1718750000,5,1.0413509607,,,
47.1875000000,5,1.1727910042,,,
47.2031250000,5,1.2021789551,,,
47.2187500000,5,1.1082149744,,,
47.2343750000,5,0.8549500108,,,
47.2500000000,5,0.4513854980,,,
47.2656250000,5,-0.0281982403,,,
47.2812500000,5,-0.4783936143,,,
47.2968750000,5,-0.7756041884,,,
47.3125000000,5,-0.8559569716,,,
47.3281250000,5,-0.7587280273,,,
47.3437500000,5,-0.5895081162,,,
47.3593750000,5,-0.4569092095,,,
47.3750000000,5,-0.4175109863,,,
47.3906250000,5,-0.4480591118,,,
47.4062500000,5,-0.4461975098,,,
47.4218750000,5,-0.3532103896,,,
47.4375000000,5,-0.1633605957,,,
47.4531250000,5,0.0197448693,,,
47.4687500000,5,0.0522766113,,,
47.4843750000,5,-0.1414185017,,,
47.5000000000,5,-0.5337830186,,,
47.5156250000,5,-1.0053410530,,,
47.5312500000,5,-1.4225159883,,,
47.5468750000,5,-1.6996769905,,,
47.5625000000,5,-1.8678590059,,,
47.5781250000,5,-2.0130920410,,,
47.5937500000,5,-2.2163391113,,,
47.6093750000,5,-2.4687190056,,,
47.6250000000,5,-2.6394040585,,,
47.6406250000,5,-2.5508730412,,,
47.6562500000,5,-2.1092829704,,,
47.6718750000,5,-1.3547970057,,,
47.6875000000,5,-0.4789124131,,,
47.7031250000,5,0.3067932129,,,
47.7187500000,5,0.8580322266,,,
47.7343750000,5,1.1976619959,,,
47.7500000000,5,1.4524539709,,,
47.7656250000,5,1.7849730253,,,
47.7812500000,5,2.2229609489,,,
47.7968750000,5,2.6566159725,,,
47.8125000000,5,2.8896179199,,,
47.8281250000,5,2.7621769905,,,
47.8437500000,5,2.2730100155,,,
47.8593750000,5,1.5619510412,,,
47.8750000000,5,0.9029846191,,,
47.8906250000,5,0.4902648926,,,
47.9062500000,5,0.4089049995,,,
47.9218750000,5,0.5573120117,,,
47.9375000000,5,0.7583007813,,,
47.9531250000,5,0.8676146865,,,
47.9687500000,5,0.8112183213,,,
47.9843750000,5,0.6105651855,,,
48.0000000000,6,0.3318481147,,,
48.0156250000,6,0.0621948205,,,
48.0312500000,6,-0.1369933933,,,
48.0468750000,6,-0.1867675930,,,
48.0625000000,6,-0.0309143104,,,
48.0781250000,6,0.3471375108,,,
48.0937500000,6,0.9033507705,,,
48.1093750000,6,1.4944150448,,,
48.1250000000,6,1.9448549747,,,
48.1406250000,6,2.1047670841,,,
48.1562500000,6,1.9696660042,,,
48.1718750000,6,1.6449279785,,,
48.1875000000,6,1.2944639921,,,
48.2031250000,6,1.0488590002,,,
48.2187500000,6,0.9055480957,,,
48.2343750000,6,0.7994995117,,,
48.2500000000,6,0.6130371094,,,
48.2656250000,6,0.2967224121,,,
48.2812500000,6,-0.1199036017,,,
48.2968750000,6,-0.5362244248,,,
48.3125000000,6,-0.8512573242,,,
48.3281250000,6,-0.9925842285,,,
48.3437500000,6,-0.9425963759,,,
48.3593750000,6,-0.7629395127,,,
48.3750000000,6,-0.5075684190,,,
48.3906250000,6,-0.2393798977,,,
48.4062500000,6,0.0218505897,,,
48.4218750000,6,0.2627868950,,,
48.4375000000,6,0.4750061035,,,
48.4531250000,6,0.6412659287,,,
48.4687500000,6,0.7577515244,,,
48.4843750000,6,0.8147583008,,,
48.5000000000,6,0.8252562881,,,
48.5156250000,6,0.8302611709,,,
48.5312500000,6,0.8562927246,,,
48.5468750000,6,0.9356079102,,,
48.5625000000,6,1.0385440588,,,
48.5781250000,6,1.0729680061,,,
48.5937500000,6,0.9535828233,,,
48.6093750000,6,0.6122742295,,,
48.6250000000,6,0.0811462402,,,
48.6406250000,6,-0.5519409180,,,
48.6562500000,6,-1.1443179846,,,
48.6718750000,6,-1.5732419491,,,
48.6875000000,6,-1.7655940056,,,
48.7031250000,6,-1.7099000216,,,
48.7187500000,6,-1.4775389433,,,
48.7343750000,6,-1.1622309685,,,
48.7500000000,6,-0.8526000977,,,
48.7656250000,6,-0.6109008789,,,
48.7812500000,6,-0.4660950005,,,
48.7968750000,6,-0.4095763862,,,
48.8125000000,6,-0.4378052056,,,
48.8281250000,6,-0.5335083008,,,
48.8437500000,6,-0.6793212891,,,
48.8593750000,6,-0.8676757813,,,
48.8750000000,6,-1.0937500000,,,
48.8906250000,6,-1.3239749670,,,
48.9062500000,6,-1.4906619787,,,
48.9218750000,6,-1.5074160099,,,
48.9375000000,6,-1.2944339514,,,
48.9531250000,6,-0.8727722168,,,
48.9687500000,6,-0.3046264946,,,
48.9843750000,6,0.2537842095,,,
49.0000000000,6,0.6611937881,,,
49.0156250000,6,0.8314818740,,,
49.0312500000,6,0.7789000869,,,
49.0468750000,6,0.5956726074,,,
49.0625000000,6,0.4208069146,,,
49.0781250000,6,0.3190613091,,,
49.0937500000,6,0.2876282036,,,
49.1093750000,6,0.2590332031,,,
49.1250000000,6,0.1452331990,,,
49.1406250000,6,-0.0690917969,,,
49.1562500000,6,-0.3136292100,,,
49.1718750000,6,-0.4430541992,,,
49.1875000000,6,-0.3415527046,,,
49.2031250000,6,0.0286865197,,,
49.2187500000,6,0.5888671875,,,
49.2343750000,6,1.1661679745,,,
49.2500000000,6,1.5830990076,,,
49.2656250000,6,1.7314759493,,,
49.2812500000,6,1.6229549646,,,
49.2968750000,6,1.3323669434,,,
49.3125000000,6,0.9545897841,,,
49.3281250000,6,0.5430908203,,,
49.3437500000,6,0.1152343974,,,
49.3593750000,6,-0.2983398139,,,
49.3750000000,6,-0.6503295898,,,
49.3906250000,6,-0.8648682237,,,
49.4062500000,6,-0.8995360732,,,
49.4218750000,6,-0.7619323730,,,
49.4375000000,6,-0.5339050293,,,
49.4531250000,6,-0.3355712891,,,
49.4687500000,6,-0.2146605998,,,
49.4843750000,6,-0.1516418010,,,
49.5000000000,6,-0.0429687500,,,
49.5156250000,6,0.1900939941,,,
49.5312500000,6,0.5696715713,,,
49.5468750000,6,0.9736632705,,,
49.5625000000,6,1.2521059513,,,
49.5781250000,6,1.2513730526,,,
49.5937500000,6,0.8952025771,,,
49.6093750000,6,0.2265930027,,,
49.6250000000,6,-0.6193236709,,,
49.6406250000,6,-1.4631040096,,,
49.6562500000,6,-2.1589660645,,,
49.6718750000,6,-2.6069340706,,,
49.6875000000,6,-2.7974851131,,,
49.7031250000,6,-2.7592160702,,,
49.7187500000,6,-2.5630490780,,,
49.7343750000,6,-2.2650148869,,,
49.7500000000,6,-1.9174499512,,,
49.7656250000,6,-1.5726619959,,,
49.7812500000,6,-1.2589110136,,,
49.7968750000,6,-1.0032039881,,,
49.8125000000,6,-0.8005371094,,,
49.8281250000,6,-0.6103820801,,,
49.8437500000,6,-0.3879700005,,,
49.8593750000,6,-0.1128844991,,,
49.8750000000,6,0.2021179050,,,
49.8906250000,6,0.5179138184,,,
49.9062500000,6,0.7720642090,,,
49.9218750000,6,0.9549865723,,,
49.9375000000,6,1.1040949821,,,
49.9531250000,6,1.2959289551,,,
49.9687500000,6,1.6066889763,,,
49.9843750000,6,2.0451049805,,,
50.0000000000,6,2.5286870003,,,
50.0156250000,6,2.9046330452,,,
50.0312500000,6,3.0051269531,,,
50.0468750000,6,2.7342529297,,,
50.0625000000,6,2.1325380802,,,
50.0781250000,6,1.3647769690,,,
50.0937500000,6,0.6459960938,,,
50.1093750000,6,0.1298827976,,,
50.1250000000,6,-0.1503296047,,,
50.1406250000,6,-0.2772217095,,,
50.1562500000,6,-0.3784484863,,,
50.1718750000,6,-0.5343933105,,,
50.1875000000,6,-0.7611693740,,,
50.2031250000,6,-0.9760742188,,,
50.2187500000,6,-1.1065059900,,,
50.2343750000,6,-1.1474000216,,,
50.2500000000,6,-1.1535029411,,,
50.2656250000,6,-1.2007139921,,,
50.2812500000,6,-1.3150019646,,,
50.2968750000,6,-1.4648439884,,,
50.3125000000,6,-1.5895080566,,,
50.3281250000,6,-1.6557309628,,,
50.3437500000,6,-1.6632080078,,,
50.3593750000,6,-1.6366879940,,,
50.3750000000,6,-1.5899050236,,,
50.3906250000,6,-1.5026249886,,,
50.4062500000,6,-1.3256230354,,,
50.4218750000,6,-1.0462340117,,,
50.4375000000,6,-0.6817017198,,,
50.4531250000,6,-0.2943420112,,,
50.4687500000,6,0.0652770996,,,
50.4843750000,6,0.3795166016,,,
50.5000000000,6,0.6548156738,,,
50.5156250000,6,0.9049072266,,,
50.5312500000,6,1.1156009436,,,
50.5468750000,6,1.2310489416,,,
50.5625000000,6,1.2042239904,,,
50.5781250000,6,1.0293580294,,,
50.5937500000,6,0.7523192763,,,
50.6093750000,6,0.4470520020,,,
50.6250000000,6,0.1746215969,,,
50.6406250000,6,-0.0723266602,,,
50.6562500000,6,-0.3578490913,,,
50.6718750000,6,-0.7241210938,,,
50.6875000000,6,-1.1778559685,,,
50.7031250000,6,-1.6046140194,,,
50.7187500000,6,-1.8233339787,,,
50.7343750000,6,-1.6954649687,,,
50.7500000000,6,-1.1812740564,,,
50.7656250000,6,-0.4264220893,,,
50.7812500000,6,0.3104858100,,,
50.7968750000,6,0.7893372178,,,
50.8125000000,6,0.8961486816,,,
50.8281250000,6,0.6984558105,,,
50.8437500000,6,0.3780212104,,,
50.8593750000,6,0.1225890964,,,
50.8750000000,6,0.0011901860,,,
50.8906250000,6,-0.0417785607,,,
50.9062500000,6,-0.1405944973,,,
50.9218750000,6,-0.3972167969,,,
50.9375000000,6,-0.7904663086,,,
50.9531250000,6,-1.1811519861,,,
50.9687500000,6,-1.4015810490,,,
50.9843750000,6,-1.3636779785,,,
51.0000000000,6,-1.1097719669,,,
51.0156250000,6,-0.8049315810,,,
51.0312500000,6,-0.6104125977,,,
51.0468750000,6,-0.6195983887,,,
51.0625000000,6,-0.7758789063,,,
51.0781250000,6,-0.9035034180,,,
51.0937500000,6,-0.8116149902,,,
51.1093750000,6,-0.3835144043,,,
51.1250000000,6,0.3492125869,,,
51.1406250000,6,1.2096250057,,,
51.1562500000,6,1.9670410156,,,
51.1718750000,6,2.4644780159,,,
51.1875000000,6,2.6309509277,,,
51.2031250000,6,2.5411379337,,,
51.2187500000,6,2.3468630314,,,
51.2343750000,6,2.1749880314,,,
51.2500000000,6,2.0945129395,,,
51.2656250000,6,2.0929260254,,,
51.2812500000,6,2.0971980095,,,
51.2968750000,6,2.0116269588,,,
51.3125000000,6,1.7787170410,,,
51.3281250000,6,1.3763730526,,,
51.3437500000,6,0.8474426270,,,
51.3593750000,6,0.2948302925,,,
51.3750000000,6,-0.1991882026,,,
51.3906250000,6,-0.5485535264,,,
51.4062500000,6,-0.7120360732,,,
51.4218750000,6,-0.6939392090,,,
51.4375000000,6,-0.5478516221,,,
51.4531250000,6,-0.3428345025,,,
51.4687500000,6,-0.1638184041,,,
51.4843750000,6,-0.0866393968,,,
51.5000000000,6,-0.1681824028,,,
51.5156250000,6,-0.4037170112,,,
51.5312500000,6,-0.7394713759,,,
51.5468750000,6,-1.0716860294,,,
51.5625000000,6,-1.3222349882,,,
51.5781250000,6,-1.4391169548,,,
51.5937500000,6,-1.4546509981,,,
51.6093750000,6,-1.4301450253,,,
51.6250000000,6,-1.3847049475,,,
51.6406250000,6,-1.2895510197,,,
51.6562500000,6,-1.0610660315,,,
51.6718750000,6,-0.6413269043,,,
51.6875000000,6,-0.0490722694,,,
51.7031250000,6,0.5777587891,,,
51.7187500000,6,1.0466610193,,,
51.7343750000,6,1.2205810547,,,
51.7500000000,6,1.0831600428,,,
51.7656250000,6,0.7705078125,,,
51.7812500000,6,0.4838866889,,,
51.7968750000,6,0.3840332031,,,
51.8125000000,6,0.4969176948,,,
51.8281250000,6,0.7330626845,,,
51.8437500000,6,0.9519348145,,,
51.8593750000,6,1.0754389763,,,
51.8750000000,6,1.1237180233,,,
51.8906250000,6,1.1652530432,,,
51.9062500000,6,1.2479549646,,,
51.9218750000,6,1.3256230354,,,
51.9375000000,6,1.2837829590,,,
51.9531250000,6,1.0269470215,,,
51.9687500000,6,0.5518187881,,,
51.9843750000,6,-0.0000915527,,,
52.0000000000,6,-0.4256286919,,,
52.0156250000,6,-0.5657653809,,,
52.0312500000,6,-0.4217833877,,,
52.0468750000,6,-0.1224365011,,,
52.0625000000,6,0.1575012058,,,
52.0781250000,6,0.3454895020,,,
52.0937500000,6,0.4854736030,,,
52.1093750000,6,0.6730347276,,,
52.1250000000,6,0.9564514160,,,
52.1406250000,6,1.2217099667,,,
52.1562500000,6,1.2909239531,,,
52.1718750000,6,0.9855347276,,,
52.1875000000,6,0.2854003906,,,
52.2031250000,6,-0.6527404785,,,
52.2187500000,6,-1.5472719669,,,
52.2343750000,6,-2.1298220158,,,
52.2500000000,6,-2.2836000919,,,
52.2656250000,6,-2.0561220646,,,
52.2812500000,6,-1.6174930334,,,
52.2968750000,6,-1.1083070040,,,
52.3125000000,6,-0.5986328125,,,
52.3281250000,6,-0.0469360389,,,
52.3437500000,6,0.5960083008,,,
52.3593750000,6,1.3307800293,,,
52.3750000000,6,2.0494379997,,,
52.3906250000,6,2.5805969238,,,
52.4062500000,6,2.7985229492,,,
52.4218750000,6,2.6383359432,,,
52.4375000000,6,2.1708679199,,,
52.4531250000,6,1.5411070585,,,
52.4687500000,6,0.9102783203,,,
52.4843750000,6,0.3838500977,,,
52.5000000000,6,-0.0220947303,,,
52.5156250000,6,-0.3447571099,,,
52.5312500000,6,-0.6279907227,,,
52.5468750000,6,-0.8750000000,,,
52.5625000000,6,-1.0774229765,,,
52.5781250000,6,-1.1692810059,,,
52.5937500000,6,-1.1287839413,,,
52.6093750000,6,-0.9615172744,,,
52.6250000000,6,-0.6927185059,,,
52.6406250000,6,-0.3619385064,,,
52.6562500000,6,-0.0168762207,,,
52.6718750000,6,0.2789612114,,,
52.6875000000,6,0.4904784858,,,
52.7031250000,6,0.5896605849,,,
52.7187500000,6,0.5977478027,,,
52.7343750000,6,0.5866394043,,,
52.7500000000,6,0.6174926758,,,
52.7656250000,6,0.6935424805,,,
52.7812500000,6,0.7371826172,,,
52.7968750000,6,0.6559448242,,,
52.8125000000,6,0.3776854873,,,
52.8281250000,6,-0.0746765137,,,
52.8437500000,6,-0.5840148926,,,
52.8593750000,6,-0.9757996202,,,
52.8750000000,6,-1.1170959473,,,
52.8906250000,6,-1.0165710449,,,
52.9062500000,6,-0.7713623047,,,
52.9218750000,6,-0.5351563096,,,
52.9375000000,6,-0.3953857124,,,
52.9531250000,6,-0.3365173042,,,
52.9687500000,6,-0.2882080078,,,
52.9843750000,6,-0.1892089993,,,
53.0000000000,6,-0.0541076697,,,
53.0156250000,6,0.0218505897,,,
53.0312500000,6,-0.0624694787,,,
53.0468750000,6,-0.3339844048,,,
53.0625000000,6,-0.7412719727,,,
53.0781250000,6,-1.1483759880,,,
53.0937500000,6,-1.4384770393,,,
53.1093750000,6,-1.5643010139,,,
53.1250000000,6,-1.5723270178,,,
53.1406250000,6,-1.5473630428,,,
53.1562500000,6,-1.5527340174,,,
53.1718750000,6,-1.6237490177,,,
53.1875000000,6,-1.7242430449,,,
53.2031250000,6,-1.8222960234,,,
53.2187500000,6,-1.8917239904,,,
53.2343750000,6,-1.9218139648,,,
53.2500000000,6,-1.8734740019,,,
53.2656250000,6,-1.6866149902,,,
53.2812500000,6,-1.3276059628,,,
53.2968750000,6,-0.7755432129,,,
53.3125000000,6,-0.0781250000,,,
53.3281250000,6,0.6727905273,,,
53.3437500000,6,1.3593750000,,,
53.3593750000,6,1.8860470057,,,
53.3750000000,6,2.2095949650,,,
53.3906250000,6,2.3215329647,,,
53.4062500000,6,2.2659299374,,,
53.4218750000,6,2.0643010139,,,
53.4375000000,6,1.7317199707,,,
53.4531250000,6,1.2839360237,,,
53.4687500000,6,0.7516478896,,,
53.4843750000,6,0.1707458049,,,
53.5000000000,6,-0.3953247070,,,
53.5156250000,6,-0.8828430176,,,
53.5312500000,6,-1.2480159998,,,
53.5468750000,6,-1.4800419807,,,
53.5625000000,6,-1.5969239473,,,
53.5781250000,6,-1.6354060173,,,
53.5937500000,6,-1.5977779627,,,
53.6093750000,6,-1.4501949549,,,
53.6250000000,6,-1.1322020292,,,
53.6406250000,6,-0.6261292100,,,
53.6562500000,6,0.0180664100,,,
53.6718750000,6,0.6681212783,,,
53.6875000000,6,1.1633299589,,,
53.7031250000,6,1.3875119686,,,
53.7187500000,6,1.3366999626,,,
53.7343750000,6,1.0781860352,,,
53.7500000000,6,0.7293395996,,,
53.7656250000,6,0.4188232124,,,
53.7812500000,6,0.1945496053,,,
53.7968750000,6,0.0498046912,,,
53.8125000000,6,-0.0614318810,,,
53.8281250000,6,-0.1567687988,,,
53.8437500000,6,-0.2416687012,,,
53.8593750000,6,-0.3181762993,,,
53.8750000000,6,-0.3833923042,,,
53.8906250000,6,-0.4748229980,,,
53.9062500000,6,-0.6272277832,,,
53.9218750000,6,-0.8489074707,,,
53.9375000000,6,-1.1160889864,,,
53.9531250000,6,-1.3753050566,,,
53.9687500000,6,-1.5413819551,,,
53.9843750000,6,-1.5703430176,,,
54.0000000000,6,-1.4754940271,,,
54.0156250000,6,-1.3514709473,,,
54.0312500000,6,-1.3213809729,,,
54.0468750000,6,-1.4673160315,,,
54.0625000000,6,-1.7701719999,,,
54.0781250000,6,-2.0837099552,,,
54.0937500000,6,-2.2223820686,,,
54.1093750000,6,-2.0362849236,,,
54.1250000000,6,-1.5235600471,,,
54.1406250000,6,-0.8198546767,,,
54.1562500000,6,-0.1403197944,,,
54.1718750000,6,0.3281250000,,,
54.1875000000,6,0.5412902832,,,
54.2031250000,6,0.5981444716,,,
54.2187500000,6,0.6950377822,,,
54.2343750000,6,0.9696350098,,,
54.2500000000,6,1.4017030001,,,
54.2656250000,6,1.8379210234,,,
54.2812500000,6,2.1038820744,,,
54.2968750000,6,2.0897829533,,,
54.3125000000,6,1.8298649788,,,
54.3281250000,6,1.4616999626,,,
54.3437500000,6,1.1118769646,,,
54.3593750000,6,0.8370667100,,,
54.3750000000,6,0.6046447754,,,
54.3906250000,6,0.3460693061,,,
54.4062500000,6,0.0419616699,,,
54.4218750000,6,-0.2373961955,,,
54.4375000000,6,-0.3895569146,,,
54.4531250000,6,-0.3669128120,,,
54.4687500000,6,-0.1947631985,,,
54.4843750000,6,0.0138244601,,,
54.5000000000,6,0.1644591987,,,
54.5156250000,6,0.2194519043,,,
54.5312500000,6,0.2163390964,,,
54.5468750000,6,0.2370910943,,,
54.5625000000,6,0.3230591118,,,
54.5781250000,6,0.4544067085,,,
54.5937500000,6,0.5291748047,,,
54.6093750000,6,0.4767456055,,,
54.6250000000,6,0.2659912109,,,
54.6406250000,6,-0.0571289100,,,
54.6562500000,6,-0.3680419922,,,
54.6718750000,6,-0.5668029785,,,
54.6875000000,6,-0.5974121094,,,
54.7031250000,6,-0.4957886040,,,
54.7187500000,6,-0.3544616997,,,
54.7343750000,6,-0.2939453125,,,
54.7500000000,6,-0.3478699028,,,
54.7656250000,6,-0.4726563096,,,
54.7812500000,6,-0.5223082900,,,
54.7968750000,6,-0.3742370903,,,
54.8125000000,6,0.0014648440,,,
54.8281250000,6,0.5142211914,,,
54.8437500000,6,0.9754332900,,,
54.8593750000,6,1.2417910099,,,
54.8750000000,6,1.2982480526,,,
54.8906250000,6,1.2873840332,,,
54.9062500000,6,1.4090880156,,,
54.9218750000,6,1.7803959846,,,
54.9375000000,6,2.3565371037,,,
54.9531250000,6,2.9105529785,,,
54.9687500000,6,3.1789550781,,,
54.9843750000,6,2.9887700081,,,
55.0000000000,6,2.3815000057,,,
55.0156250000,6,1.5782469511,,,
55.0312500000,6,0.8696594238,,,
55.0468750000,6,0.4368286133,,,
55.0625000000,6,0.2960509956,,,
55.0781250000,6,0.3128966987,,,
55.0937500000,6,0.3386841118,,,
55.1093750000,6,0.2885132134,,,
55.1250000000,6,0.1692200005,,,
55.1406250000,6,0.0448303185,,,
55.1562500000,6,-0.0597839393,,,
55.1718750000,6,-0.1290894002,,,
55.1875000000,6,-0.1900023967,,,
55.2031250000,6,-0.2330626994,,,
55.2187500000,6,-0.1894835979,,,
55.2343750000,6,0.0053405762,,,
55.2500000000,6,0.3611755073,,,
55.2656250000,6,0.8033142090,,,
55.2812500000,6,1.1812130213,,,
55.2968750000,6,1.3321529627,,,
55.3125000000,6,1.1740419865,,,
55.3281250000,6,0.7343444824,,,
55.3437500000,6,0.1179198995,,,
55.3593750000,6,-0.5100098252,,,
55.3750000000,6,-1.0046999454,,,
55.3906250000,6,-1.2596440315,,,
55.4062500000,6,-1.2383420467,,,
55.4218750000,6,-0.9747620225,,,
55.4375000000,6,-0.5738220215,,,
55.4531250000,6,-0.1567077935,,,
55.4687500000,6,0.1783751994,,,
55.4843750000,6,0.4098815918,,,
55.5000000000,6,0.5798950195,,,
55.5156250000,6,0.7294921875,,,
55.5312500000,6,0.8733826280,,,
55.5468750000,6,0.9552001953,,,
55.5625000000,6,0.9324645996,,,
55.5781250000,6,0.7627257705,,,
55.5937500000,6,0.5035399795,,,
55.6093750000,6,0.2483215034,,,
55.6250000000,6,0.0614318810,,,
55.6406250000,6,-0.0320434608,,,
55.6562500000,6,-0.1049193963,,,
55.6718750000,6,-0.2379149944,,,
55.6875000000,6,-0.4707641900,,,
55.7031250000,6,-0.7846680284,,,
55.7187500000,6,-1.1123659611,,,
55.7343750000,6,-1.3651729822,,,
55.7500000000,6,-1.4958189726,,,
55.7656250000,6,-1.5035099983,,,
55.7812500000,6,-1.3833620548,,,
55.7968750000,6,-1.1419370174,,,
55.8125000000,6,-0.8011168838,,,
55.8281250000,6,-0.3893738091,,,
55.8437500000,6,0.0102844201,,,
55.8593750000,6,0.3040770888,,,
55.8750000000,6,0.4043883979,,,
55.8906250000,6,0.3109436035,,,
55.9062500000,6,0.0637207031,,,
55.9218750000,6,-0.2238464057,,,
55.9375000000,6,-0.4632262886,,,
55.9531250000,6,-0.6105347276,,,
55.9687500000,6,-0.6857299805,,,
55.9843750000,6,-0.7303466797,,,
56.0000000000,7,-0.7565612793,,,
56.0156250000,7,-0.7753601074,,,
56.0312500000,7,-0.7528076172,,,
56.0468750000,7,-0.6965941787,,,
56.0625000000,7,-0.6276854873,,,
56.0781250000,7,-0.5987244248,,,
56.0937500000,7,-0.6542968750,,,
56.1093750000,7,-0.7508850098,,,
56.1250000000,7,-0.8019104004,,,
56.1406250000,7,-0.6851196289,,,
56.1562500000,7,-0.3727112114,,,
56.1718750000,7,0.0836181566,,,
56.1875000000,7,0.5308532715,,,
56.2031250000,7,0.8336791992,,,
