Time:64Hz,Epoch,Channel 1,Event Id,Event Date,Event Duration
0.0000000000,0,0.2809447944,,,
0.0156250000,0,0.1812743992,,,
0.0312500000,0,0.0865478516,,,
0.0468750000,0,-0.0368652306,,,
0.0625000000,0,-0.2221069038,,,
0.0781250000,0,-0.4774779975,,,
0.0937500000,0,-0.7439575195,,,
0.1093750000,0,-0.9185181260,,,
0.1250000000,0,-0.8931273818,,,
0.1406250000,0,-0.6157836914,,,
0.1562500000,0,-0.1395263970,,,
0.1718750000,0,0.4146117866,,,
0.1875000000,0,0.8995360732,,,
0.2031250000,0,1.2195429802,,,
0.2187500000,0,1.3380739689,,,
0.2343750000,0,1.2984009981,,,
0.2500000000,0,1.1554570198,,,
0.2656250000,0,0.9565430284,,,
0.2812500000,0,0.7297974229,,,
0.2968750000,0,0.4926758111,,,
0.3125000000,0,0.2911376953,,,
0.3281250000,0,0.1668090969,,,
0.3437500000,0,0.1288451999,,,
0.3593750000,0,0.1498412937,,,
0.3750000000,0,0.1593627930,,,
0.3906250000,0,0.0977783203,,,
0.4062500000,0,-0.0512084998,,,
0.4218750000,0,-0.2440185994,,,
0.4375000000,0,-0.4005126953,,,
0.4531250000,0,-0.4708251953,,,
0.4687500000,0,-0.4453735054,,,
0.4843750000,0,-0.3733521104,,,
0.5000000000,0,-0.3225708008,,,
0.5156250000,0,-0.3492431939,,,
0.5312500000,0,-0.4649047852,,,
0.5468750000,0,-0.6632080078,,,
0.5625000000,0,-0.9081420898,,,
0.5781250000,0,-1.1778559685,,,
0.5937500000,0,-1.4265749454,,,
0.6093750000,0,-1.6157840490,,,
0.6250000000,0,-1.6970829964,,,
0.6406250000,0,-1.6394040585,,,
0.6562500000,0,-1.4554439783,,,
0.6718750000,0,-1.1766359806,,,
0.6875000000,0,-0.8604125977,,,
0.7031250000,0,-0.5470581055,,,
0.7187500000,0,-0.2883301079,,,
0.7343750000,0,-0.1267700046,,,
0.7500000000,0,-0.0979003906,,,
0.7656250000,0,-0.2060547024,,,
0.7812500000,0,-0.4047240913,,,
0.7968750000,0,-0.6098021865,,,
0.8125000000,0,-0.7176514268,,,
0.8281250000,0,-0.6630249023,,,
0.8437500000,0,-0.4742431939,,,
0.8593750000,0,-0.2705078125,,,
0.8750000000,0,-0.2049560994,,,
0.8906250000,0,-0.3866577148,,,
0.9062500000,0,-0.8110961914,,,
0.9218750000,0,-1.3206789494,,,
0.9375000000,0,-1.6700439453,,,
0.9531250000,0,-1.6289060116,,,
0.9687500000,0,-1.1141359806,,,
0.9843750000,0,-0.2279662937,,,
1.0000000000,0,0.7694091797,,,
1.0156250000,0,1.5847170353,,,
1.0312500000,0,2.0137939453,,,
1.0468750000,0,2.0396120548,,,
1.0625000000,0,1.8318480253,,,
1.0781250000,0,1.6197509766,,,
1.0937500000,0,1.5754389763,,,
1.1093750000,0,1.7019040585,,,
1.1250000000,0,1.8690190315,,,
1.1406250000,0,1.8974000216,,,
1.1562500000,0,1.6694339514,,,
1.1718750000,0,1.2116090059,,,
1.1875000000,0,0.6646729112,,,
1.2031250000,0,0.2039185017,,,
1.2187500000,0,-0.0643310472,,,
1.2343750000,0,-0.1331177056,,,
1.2500000000,0,-0.0744018629,,,
1.2656250000,0,0.0191040002,,,
1.2812500000,0,0.0911865234,,,
1.2968750000,0,0.1140137017,,,
1.3125000000,0,0.0612793006,,,
1.3281250000,0,-0.1023560017,,,
1.3437500000,0,-0.3913573921,,,
1.3593750000,0,-0.7877197266,,,
1.3750000000,0,-1.2019649744,,,
1.3906250000,0,-1.5029909611,,,
1.4062500000,0,-1.5799560547,,,
1.4218750000,0,-1.4045410156,,,
1.4375000000,0,-1.0533449650,,,
1.4531250000,0,-0.6489868164,,,
1.4687500000,0,-0.3095093071,,,
1.4843750000,0,-0.0765991211,,,
1.5000000000,0,0.0787353516,,,
1.5156250000,0,0.2352904975,,,
1.5312500000,0,0.4374389946,,,
1.5468750000,0,0.6711425781,,,
1.5625000000,0,-0.6110228896,,,
1.5781250000,0,-0.4849242866,,,
1.5937500000,0,-0.1057739034,,,
1.6093750000,0,0.4514771104,,,
1.6250000000,0,1.0337519646,,,
1.6406250000,0,1.4886469841,,,
1.6562500000,0,1.7165529728,,,
1.6718750000,0,1.6859129667,,,
1.6875000000,0,1.4169919491,,,
1.7031250000,0,0.9570313096,,,
1.7187500000,0,0.3720703125,,,
1.7343750000,0,-0.2417602986,,,
1.7500000000,0,-0.7740479112,,,
1.7656250000,0,-1.1115109921,,,
1.7812500000,0,-1.1978149414,,,
1.7968750000,0,-1.0557249784,,,
1.8125000000,0,-0.7889404297,,,
1.8281250000,0,-0.5374755859,,,
1.8437500000,0,-0.3944092095,,,
1.8593750000,0,-0.3542479873,,,
1.8750000000,0,-0.3357543945,,,
1.8906250000,0,-0.2390747070,,,
1.9062500000,0,-0.0124511700,,,
1.9218750000,0,0.3171387017,,,
1.9375000000,0,0.6797484756,,,
1.9531250000,0,0.9990233779,,,
1.9687500000,0,1.2274780273,,,
1.9843750000,0,1.3451540470,,,
2.0000000000,0,1.3514399529,,,
2.0156250000,0,1.2399899960,,,
2.0312500000,0,1.0458979607,,,
2.0468750000,0,0.8116455078,,,
2.0625000000,0,0.5903931260,,,
2.0781250000,0,0.3945922852,,,
2.0937500000,0,0.1960449070,,,
2.1093750000,0,-0.0532836914,,,
2.1250000000,0,-0.3842773139,,,
2.1406250000,0,-0.7631835938,,,
2.1562500000,0,-1.0939940214,,,
2.1718750000,0,-1.2609250546,,,
2.1875000000,0,-1.2003170252,,,
2.2031250000,0,-0.9429932237,,,
2.2187500000,0,-0.5935059190,,,
2.2343750000,0,-0.2822875977,,,
2.2500000000,0,-0.0834350586,,,
2.2656250000,0,0.0054931641,,,
2.2812500000,0,0.0560913086,,,
2.2968750000,0,0.1386719048,,,
2.3125000000,0,0.2839354873,,,
2.3281250000,0,0.4562987983,,,
2.3437500000,0,0.5783081055,,,
2.3593750000,0,0.6018065810,,,
2.3750000000,0,0.5096436143,,,
2.3906250000,0,0.3491820991,,,
2.4062500000,0,0.1995850056,,,
2.4218750000,0,0.1255493015,,,
2.4375000000,0,0.1593018025,,,
2.4531250000,0,0.2747192085,,,
2.4687500000,0,0.4148559868,,,
2.4843750000,0,0.5198975205,,,
2.5000000000,0,0.5494384766,,,
2.5156250000,0,0.4813843071,,,
2.5312500000,0,0.3151245117,,,
2.5468750000,0,0.0624389611,,,
2.5625000000,0,-0.2227173001,,,
2.5781250000,0,-0.4816283882,,,
2.5937500000,0,-0.6495360732,,,
2.6093750000,0,-0.6824340820,,,
2.6250000000,0,-0.6045532227,,,
2.6406250000,0,-0.4978027046,,,
2.6562500000,0,-0.4551391900,,,
2.6718750000,0,-0.5126342773,,,
2.6875000000,0,-0.6243286133,,,
2.7031250000,0,-0.6825562119,,,
2.7187500000,0,-0.5986937881,,,
2.7343750000,0,-0.3451538086,,,
2.7500000000,0,0.0283203106,,,
2.7656250000,0,0.4325562119,,,
2.7812500000,0,0.8125609756,,,
2.7968750000,0,1.1608279943,,,
2.8125000000,0,1.4902950525,,,
2.8281250000,0,1.7895510197,,,
2.8437500000,0,1.9813840389,,,
2.8593750000,0,1.9631350040,,,
2.8750000000,0,1.6559449434,,,
2.8906250000,0,1.0841670036,,,
2.9062500000,0,0.3888550103,,,
2.9218750000,0,-0.2279662937,,,
2.9375000000,0,-0.5876464844,,,
2.9531250000,0,-0.6279907227,,,
2.9687500000,0,-0.4006347954,,,
2.9843750000,0,-0.0354614295,,,
3.0000000000,0,0.3221436143,,,
3.0156250000,0,0.5795288086,,,
3.0312500000,0,0.6909180284,,,
3.0468750000,0,0.6413574219,,,
3.0625000000,0,0.4359130859,,,
3.0781250000,0,0.0942382813,,,
3.0937500000,0,-0.3265380859,,,
3.1093750000,0,-0.7320557237,,,
3.1250000000,0,-0.9967650771,,,
3.1406250000,0,-1.0147089958,,,
3.1562500000,0,-0.7632446289,,,
3.1718750000,0,-0.3143311143,,,
3.1875000000,0,0.1773070991,,,
3.2031250000,0,0.5513306260,,,
3.2187500000,0,0.6829224229,,,
3.2343750000,0,0.5427246094,,,
3.2500000000,0,0.1918334961,,,
3.2656250000,0,-0.2565307915,,,
3.2812500000,0,-0.6797484756,,,
3.2968750000,0,-0.9841918945,,,
3.3125000000,0,-1.1420899630,,,
3.3281250000,0,-1.1807860136,,,
3.3437500000,0,-1.1507569551,,,
3.3593750000,0,-1.1140140295,,,
3.3750000000,0,-1.1035159826,,,
3.3906250000,0,-1.1166989803,,,
3.4062500000,0,-1.1365970373,,,
3.4218750000,0,-1.1420899630,,,
3.4375000000,0,-1.1274410486,,,
3.4531250000,0,-1.1090090275,,,
3.4687500000,0,-1.0979000330,,,
3.4843750000,0,-1.0850830078,,,
3.5000000000,0,-1.0484620333,,,
3.5156250000,0,-0.9633178711,,,
3.5312500000,0,-0.8444213867,,,
3.5468750000,0,-0.7313842773,,,
3.5625000000,0,-0.6586303711,,,
3.5781250000,0,-0.6276854873,,,
3.5937500000,0,-0.5671386719,,,
3.6093750000,0,-0.3942871094,,,
3.6250000000,0,-0.0563964806,,,
3.6406250000,0,0.4258422852,,,
3.6562500000,0,0.9393311143,,,
3.6718750000,0,1.3410029411,,,
3.6875000000,0,1.5245360136,,,
3.7031250000,0,1.4854129553,,,
3.7187500000,0,1.3194580078,,,
3.7343750000,0,1.1486819983,,,
3.7500000000,0,1.0591429472,,,
3.7656250000,0,1.0521850586,,,
3.7812500000,0,1.0573730469,,,
3.7968750000,0,1.0078129768,,,
3.8125000000,0,0.8895874023,,,
3.8281250000,0,0.7556763291,,,
3.8437500000,0,0.6784667969,,,
3.8593750000,0,0.7013549805,,,
3.8750000000,0,0.7952880859,,,
3.8906250000,0,0.8743286133,,,
3.9062500000,0,0.8339843750,,,
3.9218750000,0,0.5970458984,,,
3.9375000000,0,0.1459960938,,,
3.9531250000,0,-0.4662475884,,,
3.9687500000,0,-1.1266479492,,,
3.9843750000,0,-1.7068480253,,,
4.0000000000,0,-2.0808720589,,,
4.0156250000,0,-2.1640629768,,,
4.0312500000,0,-1.9409179688,,,
4.0468750000,0,-1.4827270508,,,
4.0625000000,0,-0.9321289063,,,
4.0781250000,0,-0.4516601861,,,
4.0937500000,0,-0.1766356975,,,
4.1093750000,0,-0.1619873047,,,
4.1250000000,0,-0.3674316108,,,
4.1406250000,0,-0.6793212891,,,
4.1562500000,0,-0.9555053711,,,
4.1718750000,0,-1.0966800451,,,
4.1875000000,0,-1.0780639648,,,
4.2031250000,0,-0.9645385742,,,
4.2187500000,0,-0.8450316787,,,
4.2343750000,0,-0.7764282227,,,
4.2500000000,0,-0.7435913086,,,
4.2656250000,0,-0.6716918945,,,
4.2812500000,0,-0.4845581055,,,
4.2968750000,0,-0.1764526069,,,
4.3125000000,0,0.1893921047,,,
4.3281250000,0,0.5097045898,,,
4.3437500000,0,0.7204589844,,,
4.3593750000,0,0.8245239258,,,
4.3750000000,0,0.8570557237,,,
4.3906250000,0,0.8519896865,,,
4.4062500000,0,0.8019409180,,,
4.4218750000,0,0.6742553711,,,
4.4375000000,0,0.4592284858,,,
4.4531250000,0,0.2138061970,,,
4.4687500000,0,0.0479126014,,,
4.4843750000,0,0.0364990197,,,
4.5000000000,0,0.1804810017,,,
4.5156250000,0,0.3797607124,,,
4.5312500000,0,0.5131226182,,,
4.5468750000,0,0.5112915039,,,
4.5625000000,0,0.4210815132,,,
4.5781250000,0,0.3604736030,,,
4.5937500000,0,0.4390869141,,,
4.6093750000,0,0.6613159180,,,
4.6250000000,0,0.9339600205,,,
4.6406250000,0,1.0996090174,,,
4.6562500000,0,1.0488890409,,,
4.6718750000,0,0.7648314834,,,
4.6875000000,0,0.3469848931,,,
4.7031250000,0,-0.0622558594,,,
4.7187500000,0,-0.3350220025,,,
4.7343750000,0,-0.4060058892,,,
4.7500000000,0,-0.2880859077,,,
4.7656250000,0,-0.0596313514,,,
4.7812500000,0,0.1881714016,,,
4.7968750000,0,0.3678588867,,,
4.8125000000,0,0.4440917969,,,
4.8281250000,0,0.4088745117,,,
4.8437500000,0,0.2811889946,,,
4.8593750000,0,0.0930175781,,,
4.8750000000,0,-0.1327514946,,,
4.8906250000,0,-0.3605346978,,,
4.9062500000,0,-0.5410156250,,,
4.9218750000,0,-0.6330565810,,,
4.9375000000,0,-0.6160277724,,,
4.9531250000,0,-0.5205687881,,,
4.9687500000,0,-0.4314574897,,,
4.9843750000,0,-0.4548340142,,,
5.0000000000,0,-0.6416016221,,,
5.0156250000,0,-0.9425659180,,,
5.0312500000,0,-1.2012939453,,,
5.0468750000,0,-1.2516479492,,,
5.0625000000,0,-0.9920043945,,,
5.0781250000,0,-0.4869385064,,,
5.0937500000,0,0.0817260668,,,
5.1093750000,0,0.5117188096,,,
5.1250000000,0,0.7046508789,,,
5.1406250000,0,0.7116088867,,,
5.1562500000,0,0.6935424805,,,
5.1718750000,0,0.7954102159,,,
5.1875000000,0,1.0544430017,,,
5.2031250000,0,1.3710939884,,,
5.2187500000,0,1.5867919922,,,
5.2343750000,0,1.5776979923,,,
5.2500000000,0,1.3431400061,,,
5.2656250000,0,0.9929810166,,,
5.2812500000,0,0.6835327148,,,
5.2968750000,0,0.5091552734,,,
5.3125000000,0,0.4684447944,,,
5.3281250000,0,0.4856567085,,,
5.3437500000,0,0.4591675103,,,
5.3593750000,0,0.3402099907,,,
5.3750000000,0,0.1428833008,,,
5.3906250000,0,-0.0771484375,,,
5.4062500000,0,-0.2578125000,,,
5.4218750000,0,-0.3842773139,,,
5.4375000000,0,-0.4697265923,,,
5.4531250000,0,-0.5346068740,,,
5.4687500000,0,-0.5844116211,,,
5.4843750000,0,-0.5805664063,,,
5.5000000000,0,-0.5028076172,,,
5.5156250000,0,-0.3583374023,,,
5.5312500000,0,-0.1999512017,,,
5.5468750000,0,-0.1016234979,,,
5.5625000000,0,-0.0947875977,,,
5.5781250000,0,-0.1387328953,,,
5.5937500000,0,-0.1488036960,,,
5.6093750000,0,-0.0595092811,,,
5.6250000000,0,0.1268921047,,,
5.6406250000,0,0.3168945014,,,
5.6562500000,0,0.3911742866,,,
5.6718750000,0,0.2646484077,,,
5.6875000000,0,-0.0345458984,,,
5.7031250000,0,-0.4087524116,,,
5.7187500000,0,-0.7467041016,,,
5.7343750000,0,-0.9884033203,,,
5.7500000000,0,-1.1592409611,,,
5.7656250000,0,-1.3239749670,,,
5.7812500000,0,-1.5144040585,,,
5.7968750000,0,-1.6885379553,,,
5.8125000000,0,-1.7602540255,,,
5.8281250000,0,-1.6497189999,,,
5.8437500000,0,-1.3453370333,,,
5.8593750000,0,-0.9039307237,,,
5.8750000000,0,-0.4194945991,,,
5.8906250000,0,0.0281372108,,,
5.9062500000,0,0.4029541016,,,
5.9218750000,0,0.7046508789,,,
5.9375000000,0,0.9357299805,,,
5.9531250000,0,1.0892330408,,,
5.9687500000,0,1.1290889978,,,
5.9843750000,0,1.0455930233,,,
6.0000000000,0,0.8621826172,,,
6.0156250000,0,0.6420897841,,,
6.0312500000,0,0.4630126953,,,
6.0468750000,0,0.3746947944,,,
6.0625000000,0,0.3765869141,,,
6.0781250000,0,0.4158936143,,,
6.0937500000,0,0.4378662109,,,
6.1093750000,0,0.4019775093,,,
6.1250000000,0,0.3112182915,,,
6.1406250000,0,0.2032471001,,,
6.1562500000,0,0.1267700046,,,
6.1718750000,0,0.0988159180,,,
6.1875000000,0,0.1211548001,,,
6.2031250000,0,0.1605225056,,,
6.2187500000,0,0.1791381985,,,
6.2343750000,0,0.1516723931,,,
6.2500000000,0,0.0701904297,,,
6.2656250000,0,-0.0469360389,,,
6.2812500000,0,-0.1536255032,,,
6.2968750000,0,-0.1973267049,,,
6.3125000000,0,-0.1309814006,,,
6.3281250000,0,0.0428466797,,,
6.3437500000,0,0.2777099907,,,
6.3593750000,0,0.5167847276,,,
6.3750000000,0,0.7015991211,,,
6.3906250000,0,0.8201293945,,,
6.4062500000,0,0.8851317763,,,
6.4218750000,0,0.9168701172,,,
6.4375000000,0,0.9083251953,,,
6.4531250000,0,0.8236693740,,,
6.4687500000,0,0.6246337891,,,
6.4843750000,0,0.2952880859,,,
6.5000000000,0,-0.1254272014,,,
6.5156250000,0,-0.5582274795,,,
6.5312500000,0,-0.9018555284,,,
6.5468750000,0,-1.0772089958,,,
6.5625000000,0,-1.0377810001,,,
6.5781250000,0,-0.7924193740,,,
6.5937500000,0,-0.3837279975,,,
6.6093750000,0,0.1176758036,,,
6.6250000000,0,0.6087036133,,,
6.6406250000,0,0.9748535156,,,
6.6562500000,0,1.1201169491,,,
6.6718750000,0,1.0065920353,,,
6.6875000000,0,0.6775513291,,,
6.7031250000,0,0.2330321968,,,
6.7187500000,0,-0.2078856975,,,
6.7343750000,0,-0.5630493164,,,
6.7500000000,0,-0.8078002930,,,
6.7656250000,0,-0.9773560166,,,
6.7812500000,0,-1.1047359705,,,
6.7968750000,0,-1.2149050236,,,
6.8125000000,0,-1.2874759436,,,
6.8281250000,0,-1.2858279943,,,
6.8437500000,0,-1.1895749569,,,
6.8593750000,0,-0.9977416992,,,
6.8750000000,0,-0.7529907227,,,
6.8906250000,0,-0.5089722276,,,
6.9062500000,0,-0.3244628906,,,
6.9218750000,0,-0.2287597954,,,
6.9375000000,0,-0.1995238960,,,
6.9531250000,0,-0.1881103963,,,
6.9687500000,0,-0.1126708984,,,
6.9843750000,0,0.0949707031,,,
7.0000000000,0,0.4468384087,,,
7.0156250000,0,0.8844603896,,,
7.0312500000,0,1.2950439453,,,
7.0468750000,0,1.5460209846,,,
7.0625000000,0,1.5545649529,,,
7.0781250000,0,1.3135379553,,,
7.0937500000,0,0.8947144151,,,
7.1093750000,0,0.4188232124,,,
7.1250000000,0,0.0123290997,,,
7.1406250000,0,-0.2352904975,,,
7.1562500000,0,-0.2796630859,,,
7.1718750000,0,-0.1401367038,,,
7.1875000000,0,0.1149291992,,,
7.2031250000,0,0.3730469048,,,
7.2187500000,0,0.5075684190,,,
7.2343750000,0,0.4148559868,,,
7.2500000000,0,0.0693969727,,,
7.2656250000,0,-0.4761353135,,,
7.2812500000,0,-1.0880739689,,,
7.2968750000,0,-1.6123050451,,,
7.3125000000,0,-1.9402470589,,,
7.3281250000,0,-2.0330810547,,,
7.3437500000,0,-1.9325560331,,,
7.3593750000,0,-1.7194210291,,,
7.3750000000,0,-1.4856569767,,,
7.3906250000,0,-1.2802729607,,,
7.4062500000,0,-1.1071170568,,,
7.4218750000,0,-0.9349976182,,,
7.4375000000,0,-0.7318115234,,,
7.4531250000,0,-0.4840087891,,,
7.4687500000,0,-0.2180785984,,,
7.4843750000,0,0.0111084003,,,
7.5000000000,0,0.1307373047,,,
7.5156250000,0,0.1060791016,,,
7.5312500000,0,-0.0350341797,,,
7.5468750000,0,-0.2014770955,,,
7.5625000000,0,-0.2784424126,,,
7.5781250000,0,-0.1740722954,,,
7.5937500000,0,0.1116333008,,,
7.6093750000,0,0.4962157905,,,
7.6250000000,0,0.8516845703,,,
7.6406250000,0,1.0525510311,,,
7.6562500000,0,1.0444949865,,,
7.6718750000,0,0.8367310166,,,
7.6875000000,0,0.5062866211,,,
7.7031250000,0,0.1600951999,,,
7.7187500000,0,-0.0997924805,,,
7.7343750000,0,-0.2075195014,,,
7.7500000000,0,-0.1406250000,,,
7.7656250000,0,0.0711669922,,,
7.7812500000,0,0.3718872070,,,
7.7968750000,0,0.6900634766,,,
7.8125000000,0,0.9745482802,,,
7.8281250000,0,1.1939699650,,,
7.8437500000,0,1.3527220488,,,
7.8593750000,0,1.4776610136,,,
7.8750000000,0,1.5652470589,,,
7.8906250000,0,1.5803220272,,,
7.9062500000,0,1.4578249454,,,
7.9218750000,0,1.1667480469,,,
7.9375000000,0,0.7190551758,,,
7.9531250000,0,0.2010498047,,,
7.9687500000,0,-0.2751465142,,,
7.9843750000,0,-0.6102905273,,,
8.0000000000,1,-0.7742919922,,,
8.0156250000,1,-0.7918090820,,,
8.0312500000,1,-0.7408447266,,,
8.0468750000,1,-0.6966552734,,,
8.0625000000,1,-0.7123413086,,,
8.0781250000,1,-0.7957764268,,,
8.0937500000,1,-0.8999633789,,,
8.1093750000,1,-0.9586182237,,,
8.1250000000,1,-0.9288330078,,,
8.1406250000,1,-0.8258666992,,,
8.1562500000,1,-0.6910399795,,,
8.1718750000,1,-0.5806273818,,,
8.1875000000,1,-0.5174561143,,,
8.2031250000,1,-0.4880371094,,,
8.2187500000,1,-0.4545288086,,,
8.2343750000,1,-0.3804320991,,,
8.2500000000,1,-0.2536011040,,,
8.2656250000,1,-0.0886840820,,,
8.2812500000,1,0.0899658203,,,
8.2968750000,1,0.2532958984,,,
8.3125000000,1,0.3847655952,,,
8.3281250000,1,0.4470824897,,,
8.3437500000,1,0.3810425103,,,
8.3593750000,1,0.1356811970,,,
8.3750000000,1,-0.2932128906,,,
8.3906250000,1,-0.8081055284,,,
8.4062500000,1,-1.2323609591,,,
8.4218750000,1,-1.3873289824,,,
8.4375000000,1,-1.1771850586,,,
8.4531250000,1,-0.6433715820,,,
8.4687500000,1,0.0495605506,,,
8.4843750000,1,0.7075194716,,,
8.5000000000,1,1.1761469841,,,
8.5156250000,1,1.3925780058,,,
8.5312500000,1,1.3627929688,,,
8.5468750000,1,1.1474610567,,,
8.5625000000,1,0.8425292969,,,
8.5781250000,1,0.5346068740,,,
8.5937500000,1,0.3156127930,,,
8.6093750000,1,0.2587279975,,,
8.6250000000,1,0.3815917969,,,
8.6406250000,1,0.6333618164,,,
8.6562500000,1,0.8937988281,,,
8.6718750000,1,1.0288089514,,,
8.6875000000,1,0.9617310166,,,
8.7031250000,1,0.7138671875,,,
8.7187500000,1,0.3966063857,,,
8.7343750000,1,0.1383056939,,,
8.7500000000,1,0.0095214844,,,
8.7656250000,1,-0.0165405292,,,
8.7812500000,1,-0.0451660194,,,
8.7968750000,1,-0.1751708984,,,
8.8125000000,1,-0.4506225884,,,
8.8281250000,1,-0.8142089844,,,
8.8437500000,1,-1.1604000330,,,
8.8593750000,1,-1.3796390295,,,
8.8750000000,1,-1.4363399744,,,
8.8906250000,1,-1.3729859591,,,
8.9062500000,1,-1.2665410042,,,
8.9218750000,1,-1.1937259436,,,
8.9375000000,1,0.1657714993,,,
8.9531250000,1,0.3023681939,,,
8.9687500000,1,0.4954833984,,,
8.9843750000,1,0.6192017198,,,
9.0000000000,1,0.5836182237,,,
9.0156250000,1,0.3808594048,,,
9.0312500000,1,0.0949096680,,,
9.0468750000,1,-0.1633910984,,,
9.0625000000,1,-0.2754516900,,,
9.0781250000,1,-0.1953735054,,,
9.0937500000,1,0.0732421875,,,
9.1093750000,1,0.4636841118,,,
9.1250000000,1,0.8836669922,,,
9.1406250000,1,1.2283940315,,,
9.1562500000,1,1.4047240019,,,
9.1718750000,1,1.3488160372,,,
9.1875000000,1,1.0621340275,,,
9.2031250000,1,0.5828247070,,,
9.2187500000,1,0.0035400391,,,
9.2343750000,1,-0.5935059190,,,
9.2500000000,1,-1.1337889433,,,
9.2656250000,1,-1.5565190315,,,
9.2812500000,1,-1.8054809570,,,
9.2968750000,1,-1.8189699650,,,
9.3125000000,1,-1.5687259436,,,
9.3281250000,1,-1.0894169807,,,
9.3437500000,1,-0.5095214844,,,
9.3593750000,1,-0.0236816406,,,
9.3750000000,1,0.1820068061,,,
9.3906250000,1,0.0350341797,,,
9.4062500000,1,-0.3666991889,,,
9.4218750000,1,-0.7809448242,,,
9.4375000000,1,-0.9309691787,,,
9.4531250000,1,-0.6481323242,,,
9.4687500000,1,0.0357666016,,,
9.4843750000,1,0.8953856826,,,
9.5000000000,1,1.6228029728,,,
9.5156250000,1,1.9866329432,,,
9.5312500000,1,1.9340209961,,,
9.5468750000,1,1.6048580408,,,
9.5625000000,1,1.2357180119,,,
9.5781250000,1,1.0240479708,,,
9.5937500000,1,1.0427249670,,,
9.6093750000,1,1.2130130529,,,
9.6250000000,1,1.3889770508,,,
9.6406250000,1,1.4522709846,,,
9.6562500000,1,1.3746949434,,,
9.6718750000,1,1.2086180449,,,
9.6875000000,1,1.0195920467,,,
9.7031250000,1,0.8332520127,,,
9.7187500000,1,0.6199340820,,,
9.7343750000,1,0.3210448921,,,
9.7500000000,1,-0.0775756836,,,
9.7656250000,1,-0.5182495117,,,
9.7812500000,1,-0.8807373047,,,
9.7968750000,1,-1.0455930233,,,
9.8125000000,1,-0.9388427734,,,
9.8281250000,1,-0.6063231826,,,
9.8437500000,1,-0.1800536960,,,
9.8593750000,1,0.1828612983,,,
9.8750000000,1,0.3496704102,,,
9.8906250000,1,0.2824096978,,,
9.9062500000,1,0.0481567383,,,
9.9218750000,1,-0.2393798977,,,
9.9375000000,1,-0.4626465142,,,
9.9531250000,1,-0.5629271865,,,
9.9687500000,1,-0.5466918945,,,
9.9843750000,1,-0.4556274116,,,
10.0000000000,1,-0.3427734077,,,
10.0156250000,1,-0.2251587063,,,
10.0312500000,1,-0.1249390021,,,
10.0468750000,1,-0.0488281287,,,
10.0625000000,1,-0.0291747991,,,
10.0781250000,1,-0.1010741964,,,
10.0937500000,1,-0.2448730022,,,
10.1093750000,1,-0.4254761040,,,
10.1250000000,1,-0.5784301758,,,
10.1406250000,1,-0.6658325195,,,
10.1562500000,1,-0.6944580078,,,
10.1718750000,1,-0.7006226182,,,
10.1875000000,1,-0.7184448242,,,
10.2031250000,1,-0.7232666016,,,
10.2187500000,1,-0.6500853896,,,
10.2343750000,1,-0.4202271104,,,
10.2500000000,1,-0.0322876014,,,
10.2656250000,1,0.4320068061,,,
10.2812500000,1,0.8274536133,,,
10.2968750000,1,1.0121459961,,,
10.3125000000,1,0.9374390244,,,
10.3281250000,1,0.6332396865,,,
10.3437500000,1,0.2042846978,,,
10.3593750000,1,-0.2183227986,,,
10.3750000000,1,-0.5224608779,,,
10.3906250000,1,-0.6279907227,,,
10.4062500000,1,-0.4964599907,,,
10.4218750000,1,-0.1499633938,,,
10.4375000000,1,0.3222045898,,,
10.4531250000,1,0.7991942763,,,
10.4687500000,1,1.1630860567,,,
10.4843750000,1,1.3541259766,,,
10.5000000000,1,1.3677979708,,,
10.5156250000,1,1.2628779411,,,
10.5312500000,1,1.0866090059,,,
10.5468750000,1,0.8811646104,,,
10.5625000000,1,0.6536865234,,,
10.5781250000,1,0.3857421875,,,
10.5937500000,1,0.0998535231,,,
10.6093750000,1,-0.1712035984,,,
10.6250000000,1,-0.3788452148,,,
10.6406250000,1,-0.4913330078,,,
10.6562500000,1,-0.5020142198,,,
10.6718750000,1,-0.4338378906,,,
10.6875000000,1,-0.3403930962,,,
10.7031250000,1,-0.2872313857,,,
10.7187500000,1,-0.3405151069,,,
10.7343750000,1,-0.5321044922,,,
10.7500000000,1,-0.8463745117,,,
10.7656250000,1,-1.2036739588,,,
10.7812500000,1,-1.5078740120,,,
10.7968750000,1,-1.6688840389,,,
10.8125000000,1,-1.6564940214,,,
10.8281250000,1,-1.4935300350,,,
10.8437500000,1,-1.2481689453,,,
10.8593750000,1,-0.9770507813,,,
10.8750000000,1,-0.7321776748,,,
10.8906250000,1,-0.5418701172,,,
10.9062500000,1,-0.4159545898,,,
10.9218750000,1,-0.3359985054,,,
10.9375000000,1,-0.2743529975,,,
10.9531250000,1,-0.1799315959,,,
10.9687500000,1,-0.0229492206,,,
10.9843750000,1,0.1942138970,,,
11.0000000000,1,0.4169921875,,,
11.0156250000,1,0.5588989258,,,
11.0312500000,1,0.5294188857,,,
11.0468750000,1,0.3065186143,,,
11.0625000000,1,-0.0643310472,,,
11.0781250000,1,-0.4686278999,,,
11.0937500000,1,-0.7730712891,,,
11.1093750000,1,-0.8610839844,,,
11.1250000000,1,-0.7130736709,,,
11.1406250000,1,-0.3809813857,,,
11.1562500000,1,-0.0006713867,,,
11.1718750000,1,0.2731322944,,,
11.1875000000,1,0.3334350884,,,
11.2031250000,1,0.1655272990,,,
11.2187500000,1,-0.1306152046,,,
11.2343750000,1,-0.4207153022,,,
11.2500000000,1,-0.5834960938,,,
11.2656250000,1,-0.5587158203,,,
11.2812500000,1,-0.3850097954,,,
11.2968750000,1,-0.1409911960,,,
11.3125000000,1,0.0936889574,,,
11.3281250000,1,0.2677001953,,,
11.3437500000,1,0.3599854112,,,
11.3593750000,1,0.3939819038,,,
11.3750000000,1,0.4231567085,,,
11.3906250000,1,0.5198364258,,,
11.4062500000,1,0.7415770888,,,
11.4218750000,1,1.1048580408,,,
11.4375000000,1,1.5438230038,,,
11.4531250000,1,1.9578859806,,,
11.4687500000,1,2.2241210938,,,
11.4843750000,1,2.2748410702,,,
11.5000000000,1,2.1122438908,,,
11.5156250000,1,1.7805180550,,,
11.5312500000,1,1.3281860352,,,
11.5468750000,1,0.7708129883,,,
11.5625000000,1,0.1063842997,,,
11.5781250000,1,-0.6263427734,,,
11.5937500000,1,-1.3118900061,,,
11.6093750000,1,-1.7828979492,,,
11.6250000000,1,-1.9212650061,,,
11.6406250000,1,-1.7092900276,,,
11.6562500000,1,-1.2817380428,,,
11.6718750000,1,-0.8430786133,,,
11.6875000000,1,-0.5707396865,,,
11.7031250000,1,-0.5172728896,,,
11.7187500000,1,-0.5941162109,,,
11.7343750000,1,-0.6577147841,,,
11.7500000000,1,-0.6131591797,,,
11.7656250000,1,-0.4592896104,,,
11.7812500000,1,-0.2925415039,,,
11.7968750000,1,-0.2235106975,,,
11.8125000000,1,-0.2877196968,,,
11.8281250000,1,-0.4309692085,,,
11.8437500000,1,-0.5516967773,,,
11.8593750000,1,-0.5945435166,,,
11.8750000000,1,-0.5823364258,,,
11.8906250000,1,-0.6104125977,,,
11.9062500000,1,-0.7583007813,,,
11.9218750000,1,-1.0159909725,,,
11.9375000000,1,-1.2672729492,,,
11.9531250000,1,-1.3308110237,,,
11.9687500000,1,-1.0753170252,,,
11.9843750000,1,-0.4777832031,,,
12.0000000000,1,0.3359985054,,,
12.0156250000,1,1.1353149414,,,
12.0312500000,1,1.6912230253,,,
12.0468750000,1,1.8695069551,,,
12.0625000000,1,1.6740109921,,,
12.0781250000,1,1.2350460291,,,
12.0937500000,1,0.7390136719,,,
12.1093750000,1,0.3325805962,,,
12.1250000000,1,0.0791015625,,,
12.1406250000,1,-0.0555419885,,,
12.1562500000,1,-0.1398314983,,,
12.1718750000,1,-0.2249145955,,,
12.1875000000,1,-0.3099975884,,,
12.2031250000,1,-0.3457641900,,,
12.2187500000,1,-0.2928467095,,,
12.2343750000,1,-0.1461181939,,,
12.2500000000,1,0.0585327111,,,
12.2656250000,1,0.2605591118,,,
12.2812500000,1,0.4202880859,,,
12.2968750000,1,0.5142822266,,,
12.3125000000,1,0.5422363281,,,
12.3281250000,1,0.4902344048,,,
12.3437500000,1,0.3451538086,,,
12.3593750000,1,0.1073608026,,,
12.3750000000,1,-0.1715088040,,,
12.3906250000,1,-0.4231567085,,,
12.4062500000,1,-0.5770874023,,,
12.4218750000,1,-0.6295775771,,,
12.4375000000,1,-0.6043701172,,,
12.4531250000,1,-0.5593872070,,,
12.4687500000,1,-0.5281981826,,,
12.4843750000,1,-0.5111083984,,,
12.5000000000,1,-0.4962157905,,,
12.5156250000,1,-0.5031738281,,,
12.5312500000,1,-0.5815430284,,,
12.5468750000,1,-0.7606812119,,,
12.5625000000,1,-1.0115360022,,,
12.5781250000,1,-1.2235109806,,,
12.5937500000,1,-1.2584840059,,,
12.6093750000,1,-1.0415040255,,,
12.6250000000,1,-0.5961303711,,,
12.6406250000,1,-0.0684204102,,,
12.6562500000,1,0.3666382134,,,
12.6718750000,1,0.5862426758,,,
12.6875000000,1,0.5740355849,,,
12.7031250000,1,0.4033203125,,,
12.7187500000,1,0.1990966946,,,
12.7343750000,1,0.0451049805,,,
12.7500000000,1,-0.0139770498,,,
12.7656250000,1,-0.0046997070,,,
12.7812500000,1,0.0233154297,,,
12.7968750000,1,0.0068969731,,,
12.8125000000,1,-0.0791015625,,,
12.8281250000,1,-0.2329102010,,,
12.8437500000,1,-0.3983764946,,,
12.8593750000,1,-0.5015258789,,,
12.8750000000,1,-0.4990845025,,,
12.8906250000,1,-0.3922728896,,,
12.9062500000,1,-0.2476806939,,,
12.9218750000,1,-0.1702270955,,,
12.9375000000,1,-0.2391968071,,,
12.9531250000,1,-0.4637450874,,,
12.9687500000,1,-0.7826538086,,,
12.9843750000,1,-1.0531009436,,,
13.0000000000,1,-1.1250610352,,,
13.0156250000,1,-0.8965454102,,,
13.0312500000,1,-0.3771362007,,,
13.0468750000,1,0.3118895888,,,
13.0625000000,1,0.9804688096,,,
13.0781250000,1,1.4368289709,,,
13.0937500000,1,1.5792850256,,,
13.1093750000,1,1.4195560217,,,
13.1250000000,1,1.0718380213,,,
13.1406250000,1,0.6987305284,,,
13.1562500000,1,0.3939819038,,,
13.1718750000,1,0.1837158054,,,
13.1875000000,1,0.0349121094,,,
13.2031250000,1,-0.0881958008,,,
13.2187500000,1,-0.1505126953,,,
13.2343750000,1,-0.0678100586,,,
13.2500000000,1,0.2287597954,,,
13.2656250000,1,0.7133789063,,,
13.2812500000,1,1.2571409941,,,
13.2968750000,1,1.6592409611,,,
13.3125000000,1,1.7753909826,,,
13.3281250000,1,1.5571899414,,,
13.3437500000,1,1.0963129997,,,
13.3593750000,1,0.5630493164,,,
13.3750000000,1,0.1206664965,,,
13.3906250000,1,-0.1275635064,,,
13.4062500000,1,-0.1658935994,,,
13.4218750000,1,-0.0431518592,,,
13.4375000000,1,0.1515502930,,,
13.4531250000,1,0.3320313096,,,
13.4687500000,1,0.4210815132,,,
13.4843750000,1,0.3736571968,,,
13.5000000000,1,0.1877440959,,,
13.5156250000,1,-0.0910034180,,,
13.5312500000,1,-0.3796387017,,,
13.5468750000,1,-0.5898438096,,,
13.5625000000,1,-0.6549683213,,,
13.5781250000,1,-0.5693358779,,,
13.5937500000,1,-0.3847045898,,,
13.6093750000,1,-0.1936645955,,,
13.6250000000,1,-0.0834350586,,,
13.6406250000,1,-0.0908813477,,,
13.6562500000,1,-0.2133789063,,,
13.6718750000,1,-0.3952637017,,,
13.6875000000,1,-0.5681763291,,,
13.7031250000,1,-0.6838989258,,,
13.7187500000,1,-0.7215576172,,,
13.7343750000,1,-0.6796875000,,,
13.7500000000,1,-0.5667114258,,,
13.7656250000,1,-0.3898315132,,,
13.7812500000,1,-0.1436156929,,,
13.7968750000,1,0.1569214016,,,
13.8125000000,1,0.4824219048,,,
13.8281250000,1,0.7686768174,,,
13.8437500000,1,0.9511107802,,,
13.8593750000,1,0.9961547852,,,
13.8750000000,1,0.9221190810,,,
13.8906250000,1,0.7941895127,,,
13.9062500000,1,0.7053833008,,,
13.9218750000,1,0.7280272841,,,
13.9375000000,1,0.8804932237,,,
13.9531250000,1,1.1135250330,,,
13.9687500000,1,1.3463749886,,,
13.9843750000,1,1.4824830294,,,
14.0000000000,1,1.4796750546,,,
14.0156250000,1,1.3485109806,,,
14.0312500000,1,1.1323850155,,,
14.0468750000,1,0.8739014268,,,
14.0625000000,1,0.5805664063,,,
14.0781250000,1,0.2620238960,,,
14.0937500000,1,-0.0600585900,,,
14.1093750000,1,-0.3308716118,,,
14.1250000000,1,-0.4632568061,,,
14.1406250000,1,-0.3970946968,,,
14.1562500000,1,-0.1513672024,,,
14.1718750000,1,0.1669922024,,,
14.1875000000,1,0.4201659858,,,
14.2031250000,1,0.4942626953,,,
14.2187500000,1,0.3672485054,,,
14.2343750000,1,0.1000365987,,,
14.2500000000,1,-0.1879882962,,,
14.2656250000,1,-0.3735961914,,,
14.2812500000,1,-0.3660888970,,,
14.2968750000,1,-0.1528930962,,,
14.3125000000,1,0.2390137017,,,
14.3281250000,1,0.7033690810,,,
14.3437500000,1,1.0911250114,,,
14.3593750000,1,1.2644040585,,,
14.3750000000,1,1.1671140194,,,
14.3906250000,1,0.8488159180,,,
14.4062500000,1,0.4393311143,,,
14.4218750000,1,0.0806274414,,,
14.4375000000,1,-0.1553954929,,,
14.4531250000,1,-0.3064574897,,,
14.4687500000,1,-0.4546509087,,,
14.4843750000,1,-0.6669921875,,,
14.5000000000,1,-0.9322509766,,,
14.5156250000,1,-1.1808470488,,,
14.5312500000,1,-1.3300780058,,,
14.5468750000,1,-1.3350219727,,,
14.5625000000,1,-1.2279050350,,,
14.5781250000,1,-1.0673830509,,,
14.5937500000,1,-0.9130858779,,,
14.6093750000,1,-0.7803955078,,,
14.6250000000,1,-0.6514893174,,,
14.6406250000,1,-0.4841918945,,,
14.6562500000,1,-0.2542724907,,,
14.6718750000,1,0.0336303711,,,
14.6875000000,1,0.3422851861,,,
14.7031250000,1,0.6180419922,,,
14.7187500000,1,0.8109130859,,,
14.7343750000,1,0.8975219727,,,
14.7500000000,1,0.8703002930,,,
14.7656250000,1,0.7673950195,,,
14.7812500000,1,0.6624755859,,,
14.7968750000,1,0.5938720703,,,
14.8125000000,1,0.5889282227,,,
14.8281250000,1,0.6204833984,,,
14.8437500000,1,0.6356812119,,,
14.8593750000,1,0.5743408203,,,
14.8750000000,1,0.4160155952,,,
14.8906250000,1,0.1794434041,,,
14.9062500000,1,-0.1024779975,,,
14.9218750000,1,-0.3764648139,,,
14.9375000000,1,-0.6174315810,,,
14.9531250000,1,-0.8182373047,,,
14.9687500000,1,-0.9902343750,,,
14.9843750000,1,-1.1255489588,,,
15.0000000000,1,-1.2076419592,,,
15.0156250000,1,-1.2185059786,,,
15.0312500000,1,-1.1748659611,,,
15.0468750000,1,-1.1253659725,,,
15.0625000000,1,-1.1345829964,,,
15.0781250000,1,-1.2399289608,,,
15.0937500000,1,-1.4008179903,,,
15.1093750000,1,-1.5214229822,,,
15.1250000000,1,-1.5101929903,,,
15.1406250000,1,-1.3441159725,,,
15.1562500000,1,-1.0918580294,,,
15.1718750000,1,-0.8782958984,,,
15.1875000000,1,-0.8079224229,,,
15.2031250000,1,-0.8904418945,,,
15.2187500000,1,-1.0475460291,,,
15.2343750000,1,-1.1566770077,,,
15.2500000000,1,-1.1436159611,,,
15.2656250000,1,-1.0171509981,,,
15.2812500000,1,-0.8294677734,,,
15.2968750000,1,-0.6531372070,,,
15.3125000000,1,-0.5115355849,,,
15.3281250000,1,-0.3892821968,,,
15.3437500000,1,-0.2296752930,,,
15.3593750000,1,-0.0046997070,,,
15.3750000000,1,0.2941895127,,,
15.3906250000,1,0.6387329102,,,
15.4062500000,1,0.9849243164,,,
15.4218750000,1,1.2669680119,,,
15.4375000000,1,1.4240720272,,,
15.4531250000,1,1.4140629768,,,
15.4687500000,1,1.2336430550,,,
15.4843750000,1,0.9317626953,,,
15.5000000000,1,0.5907592773,,,
15.5156250000,1,0.3081054986,,,
15.5312500000,1,0.1311645955,,,
15.5468750000,1,0.0543212891,,,
15.5625000000,1,0.0493774414,,,
15.5781250000,1,0.0555419885,,,
15.5937500000,1,0.0301513709,,,
15.6093750000,1,-0.0694580078,,,
15.6250000000,1,-0.2632445991,,,
15.6406250000,1,-0.5372313857,,,
15.6562500000,1,-0.8266602159,,,
15.6718750000,1,-1.0264890194,,,
15.6875000000,1,-1.0235600471,,,
15.7031250000,1,-0.7550659180,,,
15.7187500000,1,-0.2528075874,,,
15.7343750000,1,0.3591308892,,,
15.7500000000,1,0.8957520127,,,
15.7656250000,1,1.1922609806,,,
15.7812500000,1,1.1909790039,,,
15.7968750000,1,0.9519652724,,,
15.8125000000,1,0.6291503906,,,
15.8281250000,1,0.3763428032,,,
15.8437500000,1,0.2808837891,,,
15.8593750000,1,0.3237915039,,,
15.8750000000,1,0.4417724907,,,
15.8906250000,1,0.5571289063,,,
15.9062500000,1,0.6417235732,,,
15.9218750000,1,0.7174683213,,,
15.9375000000,1,0.8094481826,,,
15.9531250000,1,0.9389038086,,,
15.9687500000,1,1.0628050566,,,
15.9843750000,1,1.1011960506,,,
16.0000000000,2,0.9829102159,,,
16.0156250000,2,0.6857910156,,,
16.0312500000,2,0.2574462891,,,
16.0468750000,2,-0.2172241062,,,
16.0625000000,2,-0.6433715820,,,
16.0781250000,2,-0.9638671875,,,
16.0937500000,2,-1.1524050236,,,
16.1093750000,2,-1.2106930017,,,
16.1250000000,2,-1.1536870003,,,
16.1406250000,2,-1.0006710291,,,
16.1562500000,2,-0.7859497070,,,
16.1718750000,2,-0.5735474229,,,
16.1875000000,2,-0.4244385064,,,
16.2031250000,2,-0.3818970025,,,
16.2187500000,2,-0.4425658882,,,
16.2343750000,2,-0.5454102159,,,
16.2500000000,2,-0.6104735732,,,
16.2656250000,2,-0.5748900771,,,
16.2812500000,2,-0.4345093071,,,
16.2968750000,2,-0.2397460938,,,
16.3125000000,2,-0.0804443434,,,
16.3281250000,2,-1.7914429903,,,
16.3437500000,2,-1.4729609489,,,
16.3593750000,2,-0.9681395888,,,
16.3750000000,2,-0.3814086914,,,
16.3906250000,2,0.1652832031,,,
16.4062500000,2,0.5523682237,,,
16.4218750000,2,0.7265625000,,,
16.4375000000,2,0.6795043945,,,
16.4531250000,2,0.4903563857,,,
16.4687500000,2,0.2697143853,,,
16.4843750000,2,0.1021118015,,,
16.5000000000,2,0.0383300819,,,
16.5156250000,2,0.0664062500,,,
16.5312500000,2,0.1505126953,,,
16.5468750000,2,0.2624512017,,,
16.5625000000,2,0.4121094048,,,
16.5781250000,2,0.6459351182,,,
16.5937500000,2,0.9804077148,,,
16.6093750000,2,1.3717039824,,,
16.6250000000,2,1.7051390409,,,
16.6406250000,2,1.8783570528,,,
16.6562500000,2,1.8419189453,,,
16.6718750000,2,1.6511230469,,,
16.6875000000,2,1.4190059900,,,
16.7031250000,2,1.2411500216,,,
16.7187500000,2,1.1305539608,,,
16.7343750000,2,1.0259399414,,,
16.7500000000,2,0.8515625000,,,
16.7656250000,2,0.5914307237,,,
16.7812500000,2,0.3026733100,,,
16.7968750000,2,0.0943603516,,,
16.8125000000,2,0.0309448205,,,
16.8281250000,2,0.1196898967,,,
16.8437500000,2,0.2960815132,,,
16.8593750000,2,0.4956665039,,,
16.8750000000,2,0.6721190810,,,
16.8906250000,2,0.8242797852,,,
16.9062500000,2,0.9462891221,,,
16.9218750000,2,1.0281369686,,,
16.9375000000,2,1.0255739689,,,
16.9531250000,2,0.9252318740,,,
16.9687500000,2,0.7497559190,,,
16.9843750000,2,0.5372313857,,,
17.0000000000,2,0.3359375000,,,
17.0156250000,2,0.1574707031,,,
17.0312500000,2,-0.0157470703,,,
17.0468750000,2,-0.2156981975,,,
17.0625000000,2,-0.4627686143,,,
17.0781250000,2,-0.7207642198,,,
17.0937500000,2,-0.9196776748,,,
17.1093750000,2,-0.9770507813,,,
17.1250000000,2,-0.8385009766,,,
17.1406250000,2,-0.5363770127,,,
17.1562500000,2,-0.1616210938,,,
17.1718750000,2,0.1566161960,,,
17.1875000000,2,0.3156737983,,,
17.2031250000,2,0.2921752930,,,
17.2187500000,2,0.1492920071,,,
17.2343750000,2,-0.0027465820,,,
17.2500000000,2,-0.0728149414,,,
17.2656250000,2,-0.0476684608,,,
17.2812500000,2,0.0064086909,,,
17.2968750000,2,-0.0085449219,,,
17.3125000000,2,-0.1635131985,,,
17.3281250000,2,-0.4495849907,,,
17.3437500000,2,-0.7627562881,,,
17.3593750000,2,-0.9818726182,,,
17.3750000000,2,-1.0193480253,,,
17.3906250000,2,-0.8584594727,,,
17.4062500000,2,-0.5686035156,,,
17.4218750000,2,-0.2565917969,,,
17.4375000000,2,-0.0348510705,,,
17.4531250000,2,0.0415649414,,,
17.4687500000,2,0.0059814448,,,
17.4843750000,2,-0.0560913086,,,
17.5000000000,2,-0.0502929688,,,
17.5156250000,2,0.0720825195,,,
17.5312500000,2,0.2738646865,,,
17.5468750000,2,0.4374389946,,,
17.5625000000,2,0.4382934868,,,
17.5781250000,2,0.2337646037,,,
17.5937500000,2,-0.1134644002,,,
17.6093750000,2,-0.4569092095,,,
17.6250000000,2,-0.6104735732,,,
17.6406250000,2,-0.5045166016,,,
17.6562500000,2,-0.1799927056,,,
17.6718750000,2,0.2053222954,,,
17.6875000000,2,0.4742431939,,,
17.7031250000,2,0.5146483779,,,
17.7187500000,2,0.3342896104,,,
17.7343750000,2,0.0275878906,,,
17.7500000000,2,-0.2850342095,,,
17.7656250000,2,-0.5293579102,,,
17.7812500000,2,-0.7017822266,,,
17.7968750000,2,-0.8300170898,,,
17.8125000000,2,-0.9402465820,,,
17.8281250000,2,-1.0251460075,,,
17.8437500000,2,-1.0449219942,,,
17.8593750000,2,-0.9593505859,,,
17.8750000000,2,-0.7612915039,,,
17.8906250000,2,-0.4815062881,,,
17.9062500000,2,-0.1964111030,,,
17.9218750000,2,0.0101928702,,,
17.9375000000,2,0.0731811523,,,
17.9531250000,2,-0.0357055701,,,
17.9687500000,2,-0.2849731147,,,
17.9843750000,2,-0.5924683213,,,
18.0000000000,2,-0.8562622070,,,
18.0156250000,2,-0.9645385742,,,
18.0312500000,2,-0.8381958008,,,
18.0468750000,2,-0.4534912109,,,
18.0625000000,2,0.1212769002,,,
18.0781250000,2,0.7824097276,,,
18.0937500000,2,1.3764040470,,,
18.1093750000,2,1.7617800236,,,
18.1250000000,2,1.8566279411,,,
18.1406250000,2,1.6444089413,,,
18.1562500000,2,1.1963499784,,,
18.1718750000,2,0.6392211914,,,
18.1875000000,2,0.1266479045,,,
18.2031250000,2,-0.2192382962,,,
18.2187500000,2,-0.3374023139,,,
18.2343750000,2,-0.2592773139,,,
18.2500000000,2,-0.0913085863,,,
18.2656250000,2,0.0227661096,,,
18.2812500000,2,-0.0195312500,,,
18.2968750000,2,-0.2333374023,,,
18.3125000000,2,-0.5360717773,,,
18.3281250000,2,-0.7855225205,,,
18.3437500000,2,-0.8656616211,,,
18.3593750000,2,-0.7291870117,,,
18.3750000000,2,-0.4136962891,,,
18.3906250000,2,-0.0101928702,,,
18.4062500000,2,0.3671875000,,,
18.4218750000,2,0.6584473252,,,
18.4375000000,2,0.8279418945,,,
18.4531250000,2,0.8768920898,,,
18.4687500000,2,0.8190308213,,,
18.4843750000,2,0.6701660156,,,
18.5000000000,2,0.4696654975,,,
18.5156250000,2,0.2749023139,,,
18.5312500000,2,0.1441649944,,,
18.5468750000,2,0.1145019978,,,
18.5625000000,2,0.1665039063,,,
18.5781250000,2,0.2581787109,,,
18.5937500000,2,0.3480224907,,,
18.6093750000,2,0.4412231147,,,
18.6250000000,2,0.5674437881,,,
18.6406250000,2,0.7479248047,,,
18.6562500000,2,0.9657592773,,,
18.6718750000,2,1.1428220272,,,
18.6875000000,2,1.2030639648,,,
18.7031250000,2,1.1125489473,,,
18.7187500000,2,0.8999022841,,,
18.7343750000,2,0.6281738281,,,
18.7500000000,2,0.3759154975,,,
18.7656250000,2,0.1521605998,,,
18.7812500000,2,-0.0780029297,,,
18.7968750000,2,-0.3605957031,,,
18.8125000000,2,-0.6959229112,,,
18.8281250000,2,-1.0069580078,,,
18.8437500000,2,-1.1860350370,,,
18.8593750000,2,-1.1563110352,,,
18.8750000000,2,-0.9177246094,,,
18.8906250000,2,-0.5661010742,,,
18.9062500000,2,-0.2610473931,,,
18.9218750000,2,-0.1315308064,,,
18.9375000000,2,-0.2549437881,,,
18.9531250000,2,-0.6157227159,,,
18.9687500000,2,-1.1178590059,,,
18.9843750000,2,-1.6407469511,,,
19.0000000000,2,-2.0366210938,,,
19.0156250000,2,-2.1831669807,,,
19.0312500000,2,-2.0101931095,,,
19.0468750000,2,-1.5243530273,,,
19.0625000000,2,-0.8457642198,,,
19.0781250000,2,-0.1563110054,,,
19.0937500000,2,0.3390502930,,,
19.1093750000,2,0.5137329102,,,
19.1250000000,2,0.3541870117,,,
19.1406250000,2,-0.0191650409,,,
19.1562500000,2,-0.3986816108,,,
19.1718750000,2,-0.5938720703,,,
19.1875000000,2,-0.4928588867,,,
19.2031250000,2,-0.0931396484,,,
19.2187500000,2,0.5109252930,,,
19.2343750000,2,1.1730959415,,,
19.2500000000,2,1.7620849609,,,
19.2656250000,2,2.1660161018,,,
19.2812500000,2,2.3176879883,,,
19.2968750000,2,2.2056269646,,,
19.3125000000,2,1.8688349724,,,
19.3281250000,2,1.3981930017,,,
19.3437500000,2,0.9067382813,,,
19.3593750000,2,0.4865722954,,,
19.3750000000,2,0.1775512993,,,
19.3906250000,2,-0.0228881799,,,
19.4062500000,2,-0.1455688030,,,
19.4218750000,2,-0.1994629055,,,
19.4375000000,2,-0.1888428032,,,
19.4531250000,2,-0.1323852986,,,
19.4687500000,2,-0.0690917969,,,
19.4843750000,2,-0.0836791992,,,
19.5000000000,2,-0.2421875000,,,
19.5156250000,2,-0.5661621094,,,
19.5312500000,2,-1.0023800135,,,
19.5468750000,2,-1.4222409725,,,
19.5625000000,2,-1.7103270292,,,
19.5781250000,2,-1.8034670353,,,
19.5937500000,2,-1.7225949764,,,
19.6093750000,2,-1.5280760527,,,
19.6250000000,2,-1.2899169922,,,
19.6406250000,2,-1.0361939669,,,
19.6562500000,2,-0.7749022841,,,
19.6718750000,2,-0.5053710938,,,
19.6875000000,2,-0.2455444038,,,
19.7031250000,2,-0.0225219708,,,
19.7187500000,2,0.1533202976,,,
19.7343750000,2,0.2982178032,,,
19.7500000000,2,0.4448241889,,,
19.7656250000,2,0.6148682237,,,
19.7812500000,2,0.7996826172,,,
19.7968750000,2,0.9630126953,,,
19.8125000000,2,1.0767819881,,,
19.8281250000,2,1.1338499784,,,
19.8437500000,2,1.1469119787,,,
19.8593750000,2,1.1292109489,,,
19.8750000000,2,1.0689699650,,,
19.8906250000,2,0.9431763291,,,
19.9062500000,2,0.7420654297,,,
19.9218750000,2,0.5099486709,,,
19.9375000000,2,0.3384399116,,,
19.9531250000,2,0.3004150093,,,
19.9687500000,2,0.4116820991,,,
19.9843750000,2,0.5979614258,,,
20.0000000000,2,0.7385253906,,,
20.0156250000,2,0.7362061143,,,
20.0312500000,2,0.5734863281,,,
20.0468750000,2,0.3307495117,,,
20.0625000000,2,0.1163330004,,,
20.0781250000,2,0.0095214844,,,
20.0937500000,2,-0.0020141599,,,
20.1093750000,2,0.0250244103,,,
20.1250000000,2,0.0258178692,,,
20.1406250000,2,-0.0026855471,,,
20.1562500000,2,-0.0129394503,,,
20.1718750000,2,0.0369873010,,,
20.1875000000,2,0.1420287937,,,
20.2031250000,2,0.2215576023,,,
20.2187500000,2,0.1575928032,,,
20.2343750000,2,-0.1342772990,,,
20.2500000000,2,-0.6588745117,,,
20.2656250000,2,-1.3269040585,,,
20.2812500000,2,-1.9824219942,,,
20.2968750000,2,-2.4749150276,,,
20.3125000000,2,-2.7054440975,,,
20.3281250000,2,-2.6504518986,,,
20.3437500000,2,-2.3691411018,,,
20.3593750000,2,-1.9508060217,,,
20.3750000000,2,-1.4951779842,,,
20.3906250000,2,-1.0809329748,,,
20.4062500000,2,-0.7359619141,,,
20.4218750000,2,-0.4441528022,,,
20.4375000000,2,-0.1560059041,,,
20.4531250000,2,0.1595458984,,,
20.4687500000,2,0.5184326172,,,
20.4843750000,2,0.8756713867,,,
20.5000000000,2,1.1640629768,,,
20.5156250000,2,1.3159790039,,,
20.5312500000,2,1.3098139763,,,
20.5468750000,2,1.1706540585,,,
20.5625000000,2,0.9613037109,,,
20.5781250000,2,0.7504882813,,,
20.5937500000,2,0.5667114258,,,
20.6093750000,2,0.4296875000,,,
20.6250000000,2,0.3119507134,,,
20.6406250000,2,0.1764526069,,,
20.6562500000,2,-0.0103759803,,,
20.6718750000,2,-0.2679443061,,,
20.6875000000,2,-0.5735474229,,,
20.7031250000,2,-0.8540039063,,,
20.7187500000,2,-0.9912719727,,,
20.7343750000,2,-0.8864135742,,,
20.7500000000,2,-0.4926146865,,,
20.7656250000,2,0.1295776069,,,
20.7812500000,2,0.8214722276,,,
20.7968750000,2,1.3813480139,,,
20.8125000000,2,1.6517330408,,,
20.8281250000,2,1.5975339413,,,
20.8437500000,2,1.3028559685,,,
20.8593750000,2,0.9402465820,,,
20.8750000000,2,0.6649169922,,,
20.8906250000,2,0.5335692763,,,
20.9062500000,2,0.5021973252,,,
20.9218750000,2,0.4682616889,,,
20.9375000000,2,0.3437500000,,,
20.9531250000,2,0.0961303711,,,
20.9687500000,2,-0.2195435017,,,
20.9843750000,2,-0.5071411133,,,
21.0000000000,2,-0.6635131836,,,
21.0156250000,2,-0.6654052734,,,
21.0312500000,2,-0.5665283203,,,
21.0468750000,2,-0.4863891900,,,
21.0625000000,2,-0.5129395127,,,
21.0781250000,2,-0.6384888291,,,
21.0937500000,2,-0.7682495117,,,
21.1093750000,2,-0.7677611709,,,
21.1250000000,2,-0.5640258789,,,
21.1406250000,2,-0.1851195991,,,
21.1562500000,2,0.2386475056,,,
21.1718750000,2,0.5618895888,,,
21.1875000000,2,0.6895142198,,,
21.2031250000,2,0.6074829102,,,
21.2187500000,2,0.3850708008,,,
21.2343750000,2,0.0925903320,,,
21.2500000000,2,-0.2312622070,,,
21.2656250000,2,-0.5877686143,,,
21.2812500000,2,-0.9815673828,,,
21.2968750000,2,-1.3646240234,,,
21.3125000000,2,-1.6287839413,,,
21.3281250000,2,-1.6550899744,,,
21.3437500000,2,-1.3809809685,,,
21.3593750000,2,-0.8573607802,,,
21.3750000000,2,-0.2347411960,,,
21.3906250000,2,0.2864989936,,,
21.4062500000,2,0.5545043945,,,
21.4218750000,2,0.5236206055,,,
21.4375000000,2,0.2610473931,,,
21.4531250000,2,-0.0860595703,,,
21.4687500000,2,-0.3647460938,,,
21.4843750000,2,-0.5003051758,,,
21.5000000000,2,-0.4682007134,,,
21.5156250000,2,-0.3029175103,,,
21.5312500000,2,-0.0344848596,,,
21.5468750000,2,0.3195190132,,,
21.5625000000,2,0.7205200195,,,
21.5781250000,2,1.0770870447,,,
21.5937500000,2,1.2777099609,,,
21.6093750000,2,1.2364499569,,,
21.6250000000,2,0.9518433213,,,
21.6406250000,2,0.5443726182,,,
21.6562500000,2,0.2017212063,,,
21.6718750000,2,0.0996093825,,,
21.6875000000,2,0.3088378906,,,
21.7031250000,2,0.7615966797,,,
21.7187500000,2,1.2948000431,,,
21.7343750000,2,1.7421879768,,,
21.7500000000,2,1.9887080193,,,
21.7656250000,2,2.0280759335,,,
21.7812500000,2,1.9150389433,,,
21.7968750000,2,1.7459110022,,,
21.8125000000,2,1.5770870447,,,
21.8281250000,2,1.4086910486,,,
21.8437500000,2,1.1980589628,,,
21.8593750000,2,0.8743286133,,,
21.8750000000,2,0.3965454102,,,
21.8906250000,2,-0.2009277046,,,
21.9062500000,2,-0.8050537109,,,
21.9218750000,2,-1.2727659941,,,
21.9375000000,2,-1.5066529512,,,
21.9531250000,2,-1.5115360022,,,
21.9687500000,2,-1.3762819767,,,
21.9843750000,2,-1.2301640511,,,
22.0000000000,2,-1.1404420137,,,
22.0156250000,2,-1.1046750546,,,
22.0312500000,2,-1.0799560547,,,
22.0468750000,2,-1.0336910486,,,
22.0625000000,2,-0.9722290039,,,
22.0781250000,2,-0.9403687119,,,
22.0937500000,2,-0.9735717773,,,
22.1093750000,2,-1.0625000000,,,
22.1250000000,2,-1.1676640511,,,
22.1406250000,2,-1.2629389763,,,
22.1562500000,2,-1.3779909611,,,
22.1718750000,2,-1.5775760412,,,
22.1875000000,2,-1.8732910156,,,
22.2031250000,2,-2.2086179256,,,
22.2187500000,2,-2.4252929688,,,
22.2343750000,2,-2.3422849178,,,
22.2500000000,2,-1.8973389864,,,
22.2656250000,2,-1.1774289608,,,
22.2812500000,2,-0.4180297852,,,
22.2968750000,2,0.1596069038,,,
22.3125000000,2,0.4235840142,,,
22.3281250000,2,0.4119262993,,,
22.3437500000,2,0.2725830078,,,
22.3593750000,2,0.1853637993,,,
22.3750000000,2,0.2601929009,,,
22.3906250000,2,0.5068969727,,,
22.4062500000,2,0.8519896865,,,
22.4218750000,2,1.2039790154,,,
22.4375000000,2,1.4814449549,,,
22.4531250000,2,1.6230469942,,,
22.4687500000,2,1.6142580509,,,
22.4843750000,2,1.4424439669,,,
22.5000000000,2,1.1405639648,,,
22.5156250000,2,0.7727050781,,,
22.5312500000,2,0.4191895127,,,
22.5468750000,2,0.1475220025,,,
22.5625000000,2,-0.0284423791,,,
22.5781250000,2,-0.1406250000,,,
22.5937500000,2,-0.2501831055,,,
22.6093750000,2,-0.3928222954,,,
22.6250000000,2,-0.5639647841,,,
22.6406250000,2,-0.7025756836,,,
22.6562500000,2,-0.7436522841,,,
22.6718750000,2,-0.6601563096,,,
22.6875000000,2,-0.4549561143,,,
22.7031250000,2,-0.2066649944,,,
22.7187500000,2,-0.0048828130,,,
22.7343750000,2,0.0865478516,,,
22.7500000000,2,0.0863037109,,,
22.7656250000,2,0.1036377028,,,
22.7812500000,2,0.2644042969,,,
22.7968750000,2,0.6503906250,,,
22.8125000000,2,1.1940920353,,,
22.8281250000,2,1.7183229923,,,
22.8437500000,2,1.9829709530,,,
22.8593750000,2,1.8370360136,,,
22.8750000000,2,1.2800290585,,,
22.8906250000,2,0.4926146865,,,
22.9062500000,2,-0.2709960938,,,
22.9218750000,2,-0.7713013291,,,
22.9375000000,2,-0.9055175781,,,
22.9531250000,2,-0.7177124023,,,
22.9687500000,2,-0.3172607124,,,
22.9843750000,2,0.1550292969,,,
23.0000000000,2,0.6218261719,,,
23.0156250000,2,1.0536500216,,,
23.0312500000,2,1.4239499569,,,
23.0468750000,2,1.6879270077,,,
23.0625000000,2,1.7866820097,,,
23.0781250000,2,1.6650389433,,,
23.0937500000,2,1.3204350471,,,
23.1093750000,2,0.8048095703,,,
23.1250000000,2,0.2144774944,,,
23.1406250000,2,-0.3427124023,,,
23.1562500000,2,-0.7949829102,,,
23.1718750000,2,-1.1187130213,,,
23.1875000000,2,-1.3138430119,,,
23.2031250000,2,-1.3958740234,,,
23.2187500000,2,-1.3505250216,,,
23.2343750000,2,-1.1536250114,,,
23.2500000000,2,-0.7866210938,,,
23.2656250000,2,-0.2910155952,,,
23.2812500000,2,0.2507323921,,,
23.2968750000,2,0.7178344727,,,
23.3125000000,2,1.0066529512,,,
23.3281250000,2,1.0659790039,,,
23.3437500000,2,0.9056395888,,,
23.3593750000,2,0.5867310166,,,
23.3750000000,2,0.1741943061,,,
23.3906250000,2,-0.2653197944,,,
23.4062500000,2,-0.6794434190,,,
23.4218750000,2,-1.0103759766,,,
23.4375000000,2,-1.2136839628,,,
23.4531250000,2,-1.2604980469,,,
23.4687500000,2,-1.1451419592,,,
23.4843750000,2,-0.9264525771,,,
23.5000000000,2,-0.6816406250,,,
23.5156250000,2,-0.4822998047,,,
23.5312500000,2,-0.3493652046,,,
23.5468750000,2,-0.2564086914,,,
23.5625000000,2,-0.1422729045,,,
23.5781250000,2,0.0098266602,,,
23.5937500000,2,0.1723632962,,,
23.6093750000,2,0.2792969048,,,
23.6250000000,2,0.2725830078,,,
23.6406250000,2,0.1583862007,,,
23.6562500000,2,-0.0105590802,,,
23.6718750000,2,-0.1704712063,,,
23.6875000000,2,-0.2791137993,,,
23.7031250000,2,-0.9885253906,,,
23.7187500000,2,-1.2053220272,,,
23.7343750000,2,-1.2854000330,,,
23.7500000000,2,-1.1655880213,,,
23.7656250000,2,-0.8601685166,,,
23.7812500000,2,-0.4460448921,,,
23.7968750000,2,-0.0267944299,,,
23.8125000000,2,0.2973633111,,,
23.8281250000,2,0.4711914063,,,
23.8437500000,2,0.5011597276,,,
23.8593750000,2,0.4425049126,,,
23.8750000000,2,0.3787231147,,,
23.8906250000,2,0.3704223931,,,
23.9062500000,2,0.4225463867,,,
23.9218750000,2,0.5004271865,,,
23.9375000000,2,0.5339354873,,,
23.9531250000,2,0.4929809868,,,
23.9687500000,2,0.3834838867,,,
23.9843750000,2,0.2572632134,,,
24.0000000000,3,0.1754149944,,,
24.0156250000,3,0.1807861030,,,
24.0312500000,3,0.2814941108,,,
24.0468750000,3,0.4399414063,,,
24.0625000000,3,0.6088867188,,,
24.0781250000,3,0.7570189834,,,
24.0937500000,3,0.8630980849,,,
24.1093750000,3,0.9230347276,,,
24.1250000000,3,0.9369506836,,,
24.1406250000,3,0.9158325195,,,
24.1562500000,3,0.8812866211,,,
24.1718750000,3,0.8577271104,,,
24.1875000000,3,0.8514404297,,,
24.2031250000,3,0.8356323242,,,
24.2187500000,3,0.7597045898,,,
24.2343750000,3,0.5871582031,,,
24.2500000000,3,0.3362427056,,,
24.2656250000,3,0.0722656325,,,
24.2812500000,3,-0.1182250977,,,
24.2968750000,3,-0.1873168945,,,
24.3125000000,3,-0.1763916016,,,
24.3281250000,3,-0.1774902046,,,
24.3437500000,3,-0.2799682915,,,
24.3593750000,3,-0.5068969727,,,
24.3750000000,3,-0.7715454102,,,
24.3906250000,3,-0.9232788086,,,
24.4062500000,3,-0.8374633789,,,
24.4218750000,3,-0.4797973931,,,
24.4375000000,3,0.0385742188,,,
24.4531250000,3,0.5261229873,,,
24.4687500000,3,0.8059691787,,,
24.4843750000,3,0.7930908203,,,
24.5000000000,3,0.5535277724,,,
24.5156250000,3,0.2380980998,,,
24.5312500000,3,0.0016479490,,,
24.5468750000,3,-0.0630493164,,,
24.5625000000,3,0.0173339806,,,
24.5781250000,3,0.1509398967,,,
24.5937500000,3,0.2081909031,,,
24.6093750000,3,0.1078490987,,,
24.6250000000,3,-0.1581421047,,,
24.6406250000,3,-0.5310668945,,,
24.6562500000,3,-0.8881835938,,,
24.6718750000,3,-1.1091920137,,,
24.6875000000,3,-1.0954589844,,,
24.7031250000,3,-0.8076171875,,,
24.7187500000,3,-0.2854003906,,,
24.7343750000,3,0.3623656929,,,
24.7500000000,3,0.9876099229,,,
24.7656250000,3,1.4517819881,,,
24.7812500000,3,1.6701660156,,,
24.7968750000,3,1.6556400061,,,
24.8125000000,3,1.4672240019,,,
24.8281250000,3,1.1898800135,,,
24.8437500000,3,0.8948364258,,,
24.8593750000,3,0.5968018174,,,
24.8750000000,3,0.2866210938,,,
24.8906250000,3,-0.0364990197,,,
24.9062500000,3,-0.3688353896,,,
24.9218750000,3,-0.6713256836,,,
24.9375000000,3,-0.9143676758,,,
24.9531250000,3,-1.0675050020,,,
24.9687500000,3,-1.1218869686,,,
24.9843750000,3,-1.1078490019,,,
25.0000000000,3,-1.0471190214,,,
25.0156250000,3,-0.9511718750,,,
25.0312500000,3,-0.8049315810,,,
25.0468750000,3,-0.5809326172,,,
25.0625000000,3,-0.2664184868,,,
25.0781250000,3,0.1204224005,,,
25.0937500000,3,0.4899291992,,,
25.1093750000,3,0.7160034180,,,
25.1250000000,3,0.7014160156,,,
25.1406250000,3,0.4070434868,,,
25.1562500000,3,-0.0994262695,,,
25.1718750000,3,-0.6779785156,,,
25.1875000000,3,-1.1708979607,,,
25.2031250000,3,-1.4742430449,,,
25.2187500000,3,-1.5787960291,,,
25.2343750000,3,-1.5516970158,,,
25.2500000000,3,-1.4747309685,,,
25.2656250000,3,-1.4075319767,,,
25.2812500000,3,-1.3662719727,,,
25.2968750000,3,-1.3277590275,,,
25.3125000000,3,-1.2732540369,,,
25.3281250000,3,-1.2087399960,,,
25.3437500000,3,-1.1570429802,,,
25.3593750000,3,-1.1191409826,,,
25.3750000000,3,-1.0610959530,,,
25.3906250000,3,-0.9154663086,,,
25.4062500000,3,-0.6239014268,,,
25.4218750000,3,-0.2026977986,,,
25.4375000000,3,0.2378540039,,,
25.4531250000,3,0.5623168945,,,
25.4687500000,3,0.6643065810,,,
25.4843750000,3,0.5292968750,,,
25.5000000000,3,0.2539063096,,,
25.5156250000,3,-0.0160522498,,,
25.5312500000,3,-0.1390381008,,,
25.5468750000,3,-0.0396728516,,,
25.5625000000,3,0.2763671875,,,
25.5781250000,3,0.7493286133,,,
25.5937500000,3,1.2936400175,,,
25.6093750000,3,1.8099980354,,,
25.6250000000,3,2.2135009766,,,
25.6406250000,3,2.4367680550,,,
25.6562500000,3,2.4542849064,,,
25.6718750000,3,2.2810060978,,,
25.6875000000,3,1.9880369902,,,
25.7031250000,3,1.6536870003,,,
25.7187500000,3,1.3330080509,,,
25.7343750000,3,1.0162960291,,,
25.7500000000,3,0.6995850205,,,
25.7656250000,3,0.3713378906,,,
25.7812500000,3,0.0709838867,,,
25.7968750000,3,-0.1499633938,,,
25.8125000000,3,-0.2648315132,,,
25.8281250000,3,-0.2947387993,,,
25.8437500000,3,-0.3240356147,,,
25.8593750000,3,-0.4294433892,,,
25.8750000000,3,-0.6467896104,,,
25.8906250000,3,-0.9480590820,,,
25.9062500000,3,-1.2425539494,,,
25.9218750000,3,-1.4407960176,,,
25.9375000000,3,-1.5039670467,,,
25.9531250000,3,-1.4692989588,,,
25.9687500000,3,-1.4086910486,,,
25.9843750000,3,-1.3901979923,,,
26.0000000000,3,-1.4243160486,,,
26.0156250000,3,-1.4671020508,,,
26.0312500000,3,-1.4485470057,,,
26.0468750000,3,-1.3274539709,,,
26.0625000000,3,-1.1199339628,,,
26.0781250000,3,-0.8987426758,,,
26.0937500000,3,-0.7321776748,,,
26.1093750000,3,-0.6616210938,,,
26.1250000000,3,-0.6423950195,,,
26.1406250000,3,-0.5960692763,,,
26.1562500000,3,-0.4253540039,,,
26.1718750000,3,-0.1014403999,,,
26.1875000000,3,0.3383179009,,,
26.2031250000,3,0.8118895888,,,
26.2187500000,3,1.2351069450,,,
26.2343750000,3,1.5363160372,,,
26.2500000000,3,1.6885379553,,,
26.2656250000,3,1.6770629883,,,
26.2812500000,3,1.5106810331,,,
26.2968750000,3,1.2138669491,,,
26.3125000000,3,0.8383178711,,,
26.3281250000,3,0.4594115913,,,
26.3437500000,3,0.1633910984,,,
26.3593750000,3,0.0278930701,,,
26.3750000000,3,0.0872802734,,,
26.3906250000,3,0.3184813857,,,
26.4062500000,3,0.6137694716,,,
26.4218750000,3,0.8404541016,,,
26.4375000000,3,0.8695067763,,,
26.4531250000,3,0.6376953125,,,
26.4687500000,3,0.1809082031,,,
26.4843750000,3,-0.3636474907,,,
26.5000000000,3,-0.8331909180,,,
26.5156250000,3,-1.0937500000,,,
26.5312500000,3,-1.1231689453,,,
26.5468750000,3,-0.9903563857,,,
26.5625000000,3,-0.8114014268,,,
26.5781250000,3,-0.6922606826,,,
26.5937500000,3,-0.6645507813,,,
26.6093750000,3,-0.7169188857,,,
26.6250000000,3,-0.8231201172,,,
26.6406250000,3,-0.9867553711,,,
26.6562500000,3,-1.2266850471,,,
26.6718750000,3,-1.5321040154,,,
26.6875000000,3,-1.8200069666,,,
26.7031250000,3,-1.9524539709,,,
26.7187500000,3,-1.8051149845,,,
26.7343750000,3,-1.3287349939,,,
26.7500000000,3,-0.6143187881,,,
26.7656250000,3,0.1674194038,,,
26.7812500000,3,0.8161621094,,,
26.7968750000,3,1.1940920353,,,
26.8125000000,3,1.2688599825,,,
26.8281250000,3,1.1012569666,,,
26.8437500000,3,0.7905883789,,,
26.8593750000,3,0.4390869141,,,
26.8750000000,3,0.1281737983,,,
26.8906250000,3,-0.0885009766,,,
26.9062500000,3,-0.1884766072,,,
26.9218750000,3,-0.1709595025,,,
26.9375000000,3,-0.0756835863,,,
26.9531250000,3,0.0330810510,,,
26.9687500000,3,0.0797119066,,,
26.9843750000,3,0.0019531250,,,
27.0000000000,3,-0.1989745945,,,
27.0156250000,3,-0.4548340142,,,
27.0312500000,3,-0.6705933213,,,
27.0468750000,3,-0.7600098252,,,
27.0625000000,3,-0.6934813857,,,
27.0781250000,3,-0.4950562119,,,
27.0937500000,3,-0.2407227010,,,
27.1093750000,3,0.0134887705,,,
27.1250000000,3,0.2243652046,,,
27.1406250000,3,0.3959960938,,,
27.1562500000,3,0.5634155273,,,
27.1718750000,3,0.7489014268,,,
27.1875000000,3,0.9649658203,,,
27.2031250000,3,1.1995849609,,,
27.2187500000,3,1.4097290039,,,
27.2343750000,3,1.5578609705,,,
27.2500000000,3,1.5881350040,,,
27.2656250000,3,1.4738160372,,,
27.2812500000,3,1.2196040154,,,
27.2968750000,3,0.8716431260,,,
27.3125000000,3,0.5203856826,,,
27.3281250000,3,0.2684325874,,,
27.3437500000,3,0.1649779975,,,
27.3593750000,3,0.1941528022,,,
27.3750000000,3,0.2728270888,,,
27.3906250000,3,0.2862549126,,,
27.4062500000,3,0.1559447944,,,
27.4218750000,3,-0.1136474982,,,
27.4375000000,3,-0.4275512993,,,
27.4531250000,3,-0.6527100205,,,
27.4687500000,3,-0.6727905273,,,
27.4843750000,3,-0.4623413086,,,
27.5000000000,3,-0.0997924805,,,
27.5156250000,3,0.2755737007,,,
27.5312500000,3,0.5291748047,,,
27.5468750000,3,0.6029052734,,,
27.5625000000,3,0.5405883789,,,
27.5781250000,3,0.4483031929,,,
27.5937500000,3,0.4093627930,,,
27.6093750000,3,0.4498291016,,,
27.6250000000,3,0.5126953125,,,
27.6406250000,3,0.5001220703,,,
27.6562500000,3,0.3572387993,,,
27.6718750000,3,0.1026000977,,,
27.6875000000,3,-0.1569214016,,,
27.7031250000,3,-0.2923583984,,,
27.7187500000,3,-0.2365722954,,,
27.7343750000,3,-0.0081787109,,,
27.7500000000,3,0.2769165039,,,
27.7656250000,3,0.4743041992,,,
27.7812500000,3,0.4793091118,,,
27.7968750000,3,0.2543334961,,,
27.8125000000,3,-0.1491089016,,,
27.8281250000,3,-0.6170654297,,,
27.8437500000,3,-1.0170290470,,,
27.8593750000,3,-1.2542719841,,,
27.8750000000,3,-1.3074339628,,,
27.8906250000,3,-1.2288819551,,,
27.9062500000,3,-1.1064449549,,,
27.9218750000,3,-1.0162349939,,,
27.9375000000,3,-0.9576416016,,,
27.9531250000,3,-0.8727416992,,,
27.9687500000,3,-0.6932982802,,,
27.9843750000,3,-0.3978270888,,,
28.0000000000,3,-0.0360107385,,,
28.0156250000,3,0.3053588867,,,
28.0312500000,3,0.5545654297,,,
28.0468750000,3,0.6942749023,,,
28.0625000000,3,0.7625731826,,,
28.0781250000,3,0.8040161133,,,
28.0937500000,3,0.8222045898,,,
28.1093750000,3,0.7706909180,,,
28.1250000000,3,0.5965576172,,,
28.1406250000,3,0.2934570014,,,
28.1562500000,3,-0.0601806603,,,
28.1718750000,3,-0.3559570014,,,
28.1875000000,3,-0.5043334961,,,
28.2031250000,3,-0.4868774116,,,
28.2187500000,3,-0.3687134087,,,
28.2343750000,3,-0.2453002930,,,
28.2500000000,3,-0.1800536960,,,
28.2656250000,3,-0.1806029975,,,
28.2812500000,3,-0.2066040039,,,
28.2968750000,3,-0.1998901069,,,
28.3125000000,3,-0.1296997070,,,
28.3281250000,3,-0.0038452151,,,
28.3437500000,3,0.1586304009,,,
28.3593750000,3,0.3265990913,,,
28.3750000000,3,0.4765625000,,,
28.3906250000,3,0.5798339844,,,
28.4062500000,3,0.6165770888,,,
28.4218750000,3,0.5731201172,,,
28.4375000000,3,0.4733887017,,,
28.4531250000,3,0.3788452148,,,
28.4687500000,3,0.3626098931,,,
28.4843750000,3,0.4722900093,,,
28.5000000000,3,0.6812744141,,,
28.5156250000,3,0.9224243164,,,
28.5312500000,3,1.1027220488,,,
28.5468750000,3,1.1822509766,,,
28.5625000000,3,1.1803590059,,,
28.5781250000,3,1.1561280489,,,
28.5937500000,3,1.1387330294,,,
28.6093750000,3,1.0988769531,,,
28.6250000000,3,0.9500122070,,,
28.6406250000,3,0.6181641221,,,
28.6562500000,3,0.1291504055,,,
28.6718750000,3,-0.3958129883,,,
28.6875000000,3,-0.7761840820,,,
28.7031250000,3,-0.8854370117,,,
28.7187500000,3,-0.7220458984,,,
28.7343750000,3,-0.4266357124,,,
28.7500000000,3,-0.1958007962,,,
28.7656250000,3,-0.1752319038,,,
28.7812500000,3,-0.3972167969,,,
28.7968750000,3,-0.7528076172,,,
28.8125000000,3,-1.0750119686,,,
28.8281250000,3,-1.2285159826,,,
28.8437500000,3,-1.1583859921,,,
28.8593750000,3,-0.9274291992,,,
28.8750000000,3,-0.6562500000,,,
28.8906250000,3,-0.4696654975,,,
28.9062500000,3,-0.4210815132,,,
28.9218750000,3,-0.4882202148,,,
28.9375000000,3,-0.5769652724,,,
28.9531250000,3,-0.5799561143,,,
28.9687500000,3,-0.4234009087,,,
28.9843750000,3,-0.1208496019,,,
29.0000000000,3,0.2283325046,,,
29.0156250000,3,0.5071411133,,,
29.0312500000,3,0.6188353896,,,
29.0468750000,3,0.5488281250,,,
29.0625000000,3,0.3623656929,,,
29.0781250000,3,0.1738892049,,,
29.0937500000,3,0.0601196289,,,
29.1093750000,3,0.0460815392,,,
29.1250000000,3,0.0930786133,,,
29.1406250000,3,0.1364745945,,,
29.1562500000,3,0.1444701999,,,
29.1718750000,3,0.1148070991,,,
29.1875000000,3,0.0491333008,,,
29.2031250000,3,-0.0610351600,,,
29.2187500000,3,-0.2404174954,,,
29.2343750000,3,-0.5181884766,,,
29.2500000000,3,-0.8847045898,,,
29.2656250000,3,-1.2620240450,,,
29.2812500000,3,-1.5297850370,,,
29.2968750000,3,-1.5790410042,,,
29.3125000000,3,-1.3716429472,,,
29.3281250000,3,-0.9824218750,,,
29.3437500000,3,-0.5317993164,,,
29.3593750000,3,-0.1398925930,,,
29.3750000000,3,0.1559447944,,,
29.3906250000,3,0.4064331055,,,
29.4062500000,3,0.6935424805,,,
29.4218750000,3,1.0608520508,,,
29.4375000000,3,1.4516600370,,,
29.4531250000,3,1.7520140409,,,
29.4687500000,3,1.8607180119,,,
29.4843750000,3,1.7631839514,,,
29.5000000000,3,1.5377810001,,,
29.5156250000,3,1.2983399630,,,
29.5312500000,3,1.1273800135,,,
29.5468750000,3,1.0029300451,,,
29.5625000000,3,0.8324584961,,,
29.5781250000,3,0.5441895127,,,
29.5937500000,3,0.1495971978,,,
29.6093750000,3,-0.2395019978,,,
29.6250000000,3,-0.4609375000,,,
29.6406250000,3,-0.4323729873,,,
29.6562500000,3,-0.1937256008,,,
29.6718750000,3,0.1054076999,,,
29.6875000000,3,0.2832641900,,,
29.7031250000,3,0.2418822944,,,
29.7187500000,3,0.0150146503,,,
29.7343750000,3,-0.2537231147,,,
29.7500000000,3,-0.4265747070,,,
29.7656250000,3,-0.4617919922,,,
29.7812500000,3,-0.4310913086,,,
29.7968750000,3,-0.4666748047,,,
29.8125000000,3,-0.6411743164,,,
29.8281250000,3,-0.9037476182,,,
29.8437500000,3,-1.0684200525,,,
29.8593750000,3,-0.9509888291,,,
29.8750000000,3,-0.4887084961,,,
29.8906250000,3,0.1798096001,,,
29.9062500000,3,0.7786254883,,,
29.9218750000,3,1.0597529411,,,
29.9375000000,3,0.9348754883,,,
29.9531250000,3,0.5292968750,,,
29.9687500000,3,0.0789184570,,,
29.9843750000,3,-0.2278441936,,,
30.0000000000,3,-0.3680419922,,,
30.0156250000,3,-0.4720458984,,,
30.0312500000,3,-0.7035521865,,,
30.0468750000,3,-1.1285400391,,,
30.0625000000,3,-1.6574709415,,,
30.0781250000,3,-2.0994870663,,,
30.0937500000,3,-2.2805180550,,,
30.1093750000,3,-2.1594240665,,,
30.1250000000,3,-1.8259890079,,,
30.1406250000,3,-1.4341429472,,,
30.1562500000,3,-1.0957640409,,,
30.1718750000,3,-0.8174437881,,,
30.1875000000,3,-0.5424193740,,,
30.2031250000,3,-0.2190552056,,,
30.2187500000,3,0.1399535984,,,
30.2343750000,3,0.4389648139,,,
30.2500000000,3,0.5497437119,,,
30.2656250000,3,0.3986206055,,,
30.2812500000,3,0.0018920900,,,
30.2968750000,3,-0.5219116211,,,
30.3125000000,3,-0.9933472276,,,
30.3281250000,3,-1.2662960291,,,
30.3437500000,3,-1.2697750330,,,
30.3593750000,3,-1.0355219841,,,
30.3750000000,3,-0.6708374023,,,
30.3906250000,3,-0.3129271865,,,
30.4062500000,3,-0.0559692383,,,
30.4218750000,3,0.0871582031,,,
30.4375000000,3,0.1738280952,,,
30.4531250000,3,0.2807007134,,,
30.4687500000,3,0.4686278999,,,
30.4843750000,3,0.7293701172,,,
30.5000000000,3,1.0018919706,,,
30.5156250000,3,1.2000119686,,,
30.5312500000,3,1.2577509880,,,
30.5468750000,3,1.1561280489,,,
30.5625000000,3,0.9232788086,,,
30.5781250000,3,0.6168823242,,,
30.5937500000,3,0.2914429009,,,
30.6093750000,3,-0.0140380897,,,
30.6250000000,3,-0.2869873047,,,
30.6406250000,3,-0.5048217773,,,
30.6562500000,3,-0.6473389268,,,
30.6718750000,3,-0.6714478135,,,
30.6875000000,3,-0.5565186143,,,
30.7031250000,3,-0.3333739936,,,
30.7187500000,3,-0.0594482385,,,
30.7343750000,3,0.1745605022,,,
30.7500000000,3,0.2957153022,,,
30.7656250000,3,0.2770996094,,,
30.7812500000,3,0.1508789063,,,
30.7968750000,3,-0.0275878906,,,
30.8125000000,3,-0.1978760064,,,
30.8281250000,3,-0.3294678032,,,
30.8437500000,3,-0.4236449897,,,
30.8593750000,3,-0.4959106147,,,
30.8750000000,3,-0.5477294922,,,
30.8906250000,3,-0.5754395127,,,
30.9062500000,3,-0.5648192763,,,
30.9218750000,3,-0.5204467773,,,
30.9375000000,3,-0.4503174126,,,
30.9531250000,3,-0.3596191108,,,
30.9687500000,3,-0.2448119968,,,
30.9843750000,3,-0.0831909180,,,
31.0000000000,3,0.1467895955,,,
31.0156250000,3,0.4367676079,,,
31.0312500000,3,0.7416992188,,,
31.0468750000,3,0.9906616211,,,
31.0625000000,3,1.1214599609,,,
31.0781250000,3,1.1118769646,,,
31.0937500000,3,0.9849243164,,,
31.1093750000,3,0.8129882813,,,
31.1250000000,3,0.6654663086,,,
31.1406250000,3,0.6018065810,,,
31.1562500000,3,0.6366577148,,,
31.1718750000,3,0.7363281250,,,
31.1875000000,3,0.8482666016,,,
31.2031250000,3,0.9025269151,,,
31.2187500000,3,0.8400878906,,,
31.2343750000,3,0.6287230849,,,
31.2500000000,3,0.2876586914,,,
31.2656250000,3,-0.1307373047,,,
31.2812500000,3,-0.5397338867,,,
31.2968750000,3,-0.8447875977,,,
31.3125000000,3,-0.9887084961,,,
31.3281250000,3,-0.9644165039,,,
31.3437500000,3,-0.8328856826,,,
31.3593750000,3,-0.6884155273,,,
31.3750000000,3,-0.6193236709,,,
31.3906250000,3,-0.6537476182,,,
31.4062500000,3,-0.7439575195,,,
31.4218750000,3,-0.8108521104,,,
31.4375000000,3,-0.7750853896,,,
31.4531250000,3,-1.6317750216,,,
31.4687500000,3,-1.8209840059,,,
31.4843750000,3,-1.9021610022,,,
31.5000000000,3,-1.7833859921,,,
31.5156250000,3,-1.4507449865,,,
31.5312500000,3,-0.9847412109,,,
31.5468750000,3,-0.5102539063,,,
31.5625000000,3,-0.1260375977,,,
31.5781250000,3,0.1569824070,,,
31.5937500000,3,0.3751221001,,,
31.6093750000,3,0.6044312119,,,
31.6250000000,3,0.8713378906,,,
31.6406250000,3,1.1485600471,,,
31.6562500000,3,1.3856199980,,,
31.6718750000,3,1.5377199650,,,
31.6875000000,3,1.5869749784,,,
31.7031250000,3,1.5615839958,,,
31.7187500000,3,1.5183110237,,,
31.7343750000,3,1.4960939884,,,
31.7500000000,3,1.5359499454,,,
31.7656250000,3,1.6567989588,,,
31.7812500000,3,1.8416750431,,,
31.7968750000,3,2.0307619572,,,
31.8125000000,3,2.1280519962,,,
31.8281250000,3,2.0293579102,,,
31.8437500000,3,1.6797490120,,,
31.8593750000,3,1.1009520292,,,
31.8750000000,3,0.4024047852,,,
31.8906250000,3,-0.2647705078,,,
31.9062500000,3,-0.7752075195,,,
31.9218750000,3,-1.0687259436,,,
31.9375000000,3,-1.1623539925,,,
31.9531250000,3,-1.1038210392,,,
31.9687500000,3,-0.9384155273,,,
31.9843750000,3,-0.7048339844,,,
32.0000000000,4,-0.4317626953,,,
32.0156250000,4,-0.1678466946,,,
32.0312500000,4,0.0273437500,,,
32.0468750000,4,0.1087035984,,,
32.0625000000,4,0.0742797926,,,
32.0781250000,4,-0.0010986330,,,
32.0937500000,4,-0.0208129901,,,
32.1093750000,4,0.0814819336,,,
32.1250000000,4,0.2731322944,,,
32.1406250000,4,0.4411011040,,,
32.1562500000,4,0.4462890923,,,
32.1718750000,4,0.2145386040,,,
32.1875000000,4,-0.2095946968,,,
32.2031250000,4,-0.6768798828,,,
32.2187500000,4,-1.0155639648,,,
32.2343750000,4,-1.1239010096,,,
32.2500000000,4,-1.0123289824,,,
32.2656250000,4,-0.7738037109,,,
32.2812500000,4,-0.5033568740,,,
32.2968750000,4,-0.2649536133,,,
32.3125000000,4,-0.0579223596,,,
32.3281250000,4,0.1273804009,,,
32.3437500000,4,0.2784424126,,,
32.3593750000,4,0.3656005859,,,
32.3750000000,4,0.3533936143,,,
32.3906250000,4,0.2507934868,,,
32.4062500000,4,0.1048583984,,,
32.4218750000,4,-0.0238647498,,,
32.4375000000,4,-0.1165160984,,,
32.4531250000,4,-0.1961670071,,,
32.4687500000,4,-0.2964478135,,,
32.4843750000,4,-0.4271239936,,,
32.5000000000,4,-0.5363159180,,,
32.5156250000,4,-0.5490723252,,,
32.5312500000,4,-0.4065552056,,,
32.5468750000,4,-0.1305541992,,,
32.5625000000,4,0.1782227010,,,
32.5781250000,4,0.3980103135,,,
32.5937500000,4,0.4492188096,,,
32.6093750000,4,0.3489989936,,,
32.6250000000,4,0.1922606975,,,
32.6406250000,4,0.0979614332,,,
32.6562500000,4,0.1468506008,,,
32.6718750000,4,0.3297119141,,,
32.6875000000,4,0.5745850205,,,
32.7031250000,4,0.7863159180,,,
32.7187500000,4,0.8883666992,,,
32.7343750000,4,0.8646240234,,,
32.7500000000,4,0.7460938096,,,
32.7656250000,4,0.5850830078,,,
32.7812500000,4,0.4171142876,,,
32.7968750000,4,0.2579346001,,,
32.8125000000,4,0.1281737983,,,
32.8281250000,4,0.0237426795,,,
32.8437500000,4,-0.0464477502,,,
32.8593750000,4,-0.0960693434,,,
32.8750000000,4,-0.1536255032,,,
32.8906250000,4,-0.2483520955,,,
32.9062500000,4,-0.3958739936,,,
32.9218750000,4,-0.5630493164,,,
32.9375000000,4,-0.6896973252,,,
32.9531250000,4,-0.7333983779,,,
32.9687500000,4,-0.7122802734,,,
32.9843750000,4,-0.6951293945,,,
33.0000000000,4,-0.7550048828,,,
33.0156250000,4,-0.8934326172,,,
33.0312500000,4,-1.0203249454,,,
33.0468750000,4,-0.9876708984,,,
33.0625000000,4,-0.6921386719,,,
33.0781250000,4,-0.1763305962,,,
33.0937500000,4,0.3825683892,,,
33.1093750000,4,0.7569580078,,,
33.1250000000,4,0.8165894151,,,
33.1406250000,4,0.6203613281,,,
33.1562500000,4,0.3793945014,,,
33.1718750000,4,0.3246459961,,,
33.1875000000,4,0.5474243164,,,
33.2031250000,4,0.9667357802,,,
33.2187500000,4,1.3645629883,,,
33.2343750000,4,1.5240479708,,,
33.2500000000,4,1.3464970589,,,
33.2656250000,4,0.8901978135,,,
33.2812500000,4,0.2947998047,,,
33.2968750000,4,-0.2964478135,,,
33.3125000000,4,-0.7772827148,,,
33.3281250000,4,-1.1115109921,,,
33.3437500000,4,-1.2764279842,,,
33.3593750000,4,-1.2754520178,,,
33.3750000000,4,-1.1162110567,,,
33.3906250000,4,-0.8338623047,,,
33.4062500000,4,-0.5045166016,,,
33.4218750000,4,-0.1961060017,,,
33.4375000000,4,0.0445556603,,,
33.4531250000,4,0.2193603963,,,
33.4687500000,4,0.3332520127,,,
33.4843750000,4,0.3641357124,,,
33.5000000000,4,0.2755126953,,,
33.5156250000,4,0.0298461895,,,
33.5312500000,4,-0.3572998047,,,
33.5468750000,4,-0.8109741211,,,
33.5625000000,4,-1.2167969942,,,
33.5781250000,4,-1.4830319881,,,
33.5937500000,4,-1.5798339844,,,
33.6093750000,4,-1.5449830294,,,
33.6250000000,4,-1.4381710291,,,
33.6406250000,4,-1.2907099724,,,
33.6562500000,4,-1.0902099609,,,
33.6718750000,4,-0.8031005859,,,
33.6875000000,4,-0.4418945014,,,
33.7031250000,4,-0.0644531325,,,
33.7187500000,4,0.2258300930,,,
33.7343750000,4,0.3593750000,,,
33.7500000000,4,0.3305664063,,,
33.7656250000,4,0.2175903022,,,
33.7812500000,4,0.1209717020,,,
33.7968750000,4,0.1099854037,,,
33.8125000000,4,0.1865845025,,,
33.8281250000,4,0.2955932915,,,
33.8437500000,4,0.3944702148,,,
33.8593750000,4,0.4631347954,,,
33.8750000000,4,0.5284423828,,,
33.8906250000,4,0.6303101182,,,
33.9062500000,4,0.7745972276,,,
33.9218750000,4,0.9382935166,,,
33.9375000000,4,1.0668950081,,,
33.9531250000,4,1.1228640079,,,
33.9687500000,4,1.0898439884,,,
33.9843750000,4,0.9721068740,,,
34.0000000000,4,0.8002930284,,,
34.0156250000,4,0.5952758789,,,
34.0312500000,4,0.3854979873,,,
34.0468750000,4,0.2028197944,,,
34.0625000000,4,0.0891723633,,,
34.0781250000,4,0.0732421875,,,
34.0937500000,4,0.1396483928,,,
34.1093750000,4,0.2324828953,,,
34.1250000000,4,0.2805786133,,,
34.1406250000,4,0.2272339016,,,
34.1562500000,4,0.0881347731,,,
34.1718750000,4,-0.0549316406,,,
34.1875000000,4,-0.1113281026,,,
34.2031250000,4,-0.0153198196,,,
34.2187500000,4,0.2166748047,,,
34.2343750000,4,0.5083007813,,,
34.2500000000,4,0.7521973252,,,
34.2656250000,4,0.8690186143,,,
34.2812500000,4,0.8164672852,,,
34.2968750000,4,0.6101074219,,,
34.3125000000,4,0.2960205078,,,
34.3281250000,4,-0.0930786133,,,
34.3437500000,4,-0.5109863281,,,
34.3593750000,4,-0.9344481826,,,
34.3750000000,4,-1.3258670568,,,
34.3906250000,4,-1.6274410486,,,
34.4062500000,4,-1.7740479708,,,
34.4218750000,4,-1.7254639864,,,
34.4375000000,4,-1.4935300350,,,
34.4531250000,4,-1.1358640194,,,
34.4687500000,4,-0.7656250000,,,
34.4843750000,4,-0.4885253906,,,
34.5000000000,4,-0.3623046875,,,
34.5156250000,4,-0.3707886040,,,
34.5312500000,4,-0.4514159858,,,
34.5468750000,4,-0.5297241211,,,
34.5625000000,4,-0.5699462891,,,
34.5781250000,4,-0.5928344727,,,
34.5937500000,4,-0.6503906250,,,
34.6093750000,4,-0.7828978896,,,
34.6250000000,4,-0.9743651748,,,
34.6406250000,4,-1.1689449549,,,
34.6562500000,4,-1.2863769531,,,
34.6718750000,4,-1.2779539824,,,
34.6875000000,4,-1.1431879997,,,
34.7031250000,4,-0.9219359756,,,
34.7187500000,4,-0.6725463867,,,
34.7343750000,4,-0.4367676079,,,
34.7500000000,4,-0.2324219048,,,
34.7656250000,4,-0.0421752892,,,
34.7812500000,4,0.1423950046,,,
34.7968750000,4,0.3190307915,,,
34.8125000000,4,0.4563598931,,,
34.8281250000,4,0.4923096001,,,
34.8437500000,4,0.4089966118,,,
34.8593750000,4,0.2214355022,,,
34.8750000000,4,0.0064086909,,,
34.8906250000,4,-0.1505126953,,,
34.9062500000,4,-0.1722411960,,,
34.9218750000,4,-0.0521850586,,,
34.9375000000,4,0.1666869968,,,
34.9531250000,4,0.4210815132,,,
34.9687500000,4,0.6549072266,,,
34.9843750000,4,0.8454589844,,,
35.0000000000,4,0.9977416992,,,
35.0156250000,4,1.1385500431,,,
35.0312500000,4,1.2770390511,,,
35.0468750000,4,1.4193730354,,,
35.0625000000,4,1.5520019531,,,
35.0781250000,4,1.6425780058,,,
35.0937500000,4,1.6458740234,,,
35.1093750000,4,1.5081180334,,,
35.1250000000,4,1.2020870447,,,
35.1406250000,4,0.7406616211,,,
35.1562500000,4,0.2009887993,,,
35.1718750000,4,-0.3072510064,,,
35.1875000000,4,-0.6727294922,,,
35.2031250000,4,-0.8384398818,,,
35.2187500000,4,-0.8213500977,,,
35.2343750000,4,-0.6712036133,,,
35.2500000000,4,-0.4622192085,,,
35.2656250000,4,-0.2299194038,,,
35.2812500000,4,-0.0170288105,,,
35.2968750000,4,0.1461181939,,,
35.3125000000,4,0.2315673977,,,
35.3281250000,4,0.2249145955,,,
35.3437500000,4,0.1560668945,,,
35.3593750000,4,0.0772705078,,,
35.3750000000,4,0.0529174805,,,
35.3906250000,4,0.1173096001,,,
35.4062500000,4,0.2479857951,,,
35.4218750000,4,0.3856812119,,,
35.4375000000,4,0.4756470025,,,
35.4531250000,4,0.4916382134,,,
35.4687500000,4,0.4550780952,,,
35.4843750000,4,0.4080199897,,,
35.5000000000,4,0.3674316108,,,
35.5156250000,4,0.3372803032,,,
35.5312500000,4,0.2839354873,,,
35.5468750000,4,0.1742554009,,,
35.5625000000,4,-0.0117187500,,,
35.5781250000,4,-0.2639771104,,,
35.5937500000,4,-0.5687255859,,,
35.6093750000,4,-0.9085083008,,,
35.6250000000,4,-1.2537230253,,,
35.6406250000,4,-1.5576779842,,,
35.6562500000,4,-1.7694089413,,,
35.6718750000,4,-1.8483279943,,,
35.6875000000,4,-1.8091429472,,,
35.7031250000,4,-1.7100830078,,,
35.7187500000,4,-1.6359859705,,,
35.7343750000,4,-1.6427609921,,,
35.7500000000,4,-1.7168580294,,,
35.7656250000,4,-1.7698359489,,,
35.7812500000,4,-1.7097170353,,,
35.7968750000,4,-1.4633790255,,,
35.8125000000,4,-1.0496220589,,,
35.8281250000,4,-0.5384520888,,,
35.8437500000,4,-0.0253295898,,,
35.8593750000,4,0.4262695014,,,
35.8750000000,4,0.7835083008,,,
35.8906250000,4,1.0550539494,,,
35.9062500000,4,1.2629389763,,,
35.9218750000,4,1.4141240120,,,
35.9375000000,4,1.5032960176,,,
35.9531250000,4,1.5348509550,,,
35.9687500000,4,1.5281980038,,,
35.9843750000,4,1.5399169922,,,
36.0000000000,4,1.6024780273,,,
36.0156250000,4,1.7090450525,,,
36.0312500000,4,1.7943120003,,,
36.0468750000,4,1.7557979822,,,
36.0625000000,4,1.5360720158,,,
36.0781250000,4,1.1696170568,,,
36.0937500000,4,0.7858886719,,,
36.1093750000,4,0.5303955078,,,
36.1250000000,4,0.4831542969,,,
36.1406250000,4,0.6016845703,,,
36.1562500000,4,0.7401123047,,,
36.1718750000,4,0.7437133789,,,
36.1875000000,4,0.5363159180,,,
36.2031250000,4,0.1716309041,,,
36.2187500000,4,-0.2111206055,,,
36.2343750000,4,-0.4778442085,,,
36.2500000000,4,-0.5658568740,,,
36.2656250000,4,-0.5093383789,,,
36.2812500000,4,-0.4143066108,,,
36.2968750000,4,-0.3800658882,,,
36.3125000000,4,-0.4671021104,,,
36.3281250000,4,-0.6693726182,,,
36.3437500000,4,-0.9368895888,,,
36.3593750000,4,-1.1846920252,,,
36.3750000000,4,-1.3275760412,,,
36.3906250000,4,-1.3113399744,,,
36.4062500000,4,-1.1380620003,,,
36.4218750000,4,-0.8690795898,,,
36.4375000000,4,-0.6041259766,,,
36.4531250000,4,-0.4343872070,,,
36.4687500000,4,-0.3978270888,,,
36.4843750000,4,-0.4472655952,,,
36.5000000000,4,-0.4907226861,,,
36.5156250000,4,-0.4349975884,,,
36.5312500000,4,-0.2382812947,,,
36.5468750000,4,0.0691528320,,,
36.5625000000,4,0.4046630859,,,
36.5781250000,4,0.6782836914,,,
36.5937500000,4,0.8278198242,,,
36.6093750000,4,0.8377075195,,,
36.6250000000,4,0.7195435166,,,
36.6406250000,4,0.4974975884,,,
36.6562500000,4,0.2080688030,,,
36.6718750000,4,-0.1068115011,,,
36.6875000000,4,-0.3894653022,,,
36.7031250000,4,-0.5765380859,,,
36.7187500000,4,-0.6069946289,,,
36.7343750000,4,-0.4567871094,,,
36.7500000000,4,-0.1658325046,,,
36.7656250000,4,0.1649170071,,,
36.7812500000,4,0.4142456055,,,
36.7968750000,4,0.4934082031,,,
36.8125000000,4,0.4061889946,,,
36.8281250000,4,0.2496947944,,,
36.8437500000,4,0.1434326023,,,
36.8593750000,4,0.1605834961,,,
36.8750000000,4,0.2786864936,,,
36.8906250000,4,0.3982543945,,,
36.9062500000,4,0.4142456055,,,
36.9218750000,4,0.2958374023,,,
36.9375000000,4,0.1257324070,,,
36.9531250000,4,0.0301513709,,,
36.9687500000,4,0.0958252028,,,
36.9843750000,4,0.3200072944,,,
37.0000000000,4,0.5805664063,,,
37.0156250000,4,0.7296143174,,,
37.0312500000,4,0.6813353896,,,
37.0468750000,4,0.4738158882,,,
37.0625000000,4,0.2466430962,,,
37.0781250000,4,0.1511840969,,,
37.0937500000,4,0.2603760064,,,
37.1093750000,4,0.5179442763,,,
37.1250000000,4,0.7713013291,,,
37.1406250000,4,0.8640136719,,,
37.1562500000,4,0.7294921875,,,
37.1718750000,4,0.4127807915,,,
37.1875000000,4,0.0509643592,,,
37.2031250000,4,-0.2225341946,,,
37.2187500000,4,-0.3447265923,,,
37.2343750000,4,-0.3457030952,,,
37.2500000000,4,-0.3148804009,,,
37.2656250000,4,-0.3321532905,,,
37.2812500000,4,-0.4408569038,,,
37.2968750000,4,-0.6113892198,,,
37.3125000000,4,-0.7963867188,,,
37.3281250000,4,-0.9225463867,,,
37.3437500000,4,-0.9547119141,,,
37.3593750000,4,-0.8792114258,,,
37.3750000000,4,-0.7147827148,,,
37.3906250000,4,-0.5035399795,,,
37.4062500000,4,-0.3046875000,,,
37.4218750000,4,-0.1843872070,,,
37.4375000000,4,-0.1749877930,,,
37.4531250000,4,-0.2576903999,,,
37.4687500000,4,-0.3796387017,,,
37.4843750000,4,-0.4684447944,,,
37.5000000000,4,-0.4823608100,,,
37.5156250000,4,-0.4185180962,,,
37.5312500000,4,-0.2997437119,,,
37.5468750000,4,-0.1559447944,,,
37.5625000000,4,0.0041503911,,,
37.5781250000,4,0.1768188030,,,
37.5937500000,4,0.3425292969,,,
37.6093750000,4,0.4556274116,,,
37.6250000000,4,0.4565429986,,,
37.6406250000,4,0.3226929009,,,
37.6562500000,4,0.0927734375,,,
37.6718750000,4,-0.1453856975,,,
37.6875000000,4,-0.2948608100,,,
37.7031250000,4,-0.3127441108,,,
37.7187500000,4,-0.2326660007,,,
37.7343750000,4,-0.1542357951,,,
37.7500000000,4,-0.1646728963,,,
37.7656250000,4,-0.2835083008,,,
37.7812500000,4,-0.4506225884,,,
37.7968750000,4,-0.5374755859,,,
37.8125000000,4,-0.4472045898,,,
37.8281250000,4,-0.1511840969,,,
37.8437500000,4,0.2763671875,,,
37.8593750000,4,0.6967772841,,,
37.8750000000,4,0.9584960938,,,
37.8906250000,4,0.9907836914,,,
37.9062500000,4,0.8309937119,,,
37.9218750000,4,0.5924683213,,,
37.9375000000,4,0.3956908882,,,
37.9531250000,4,0.2977294922,,,
37.9687500000,4,0.2736816108,,,
37.9843750000,4,0.2476806939,,,
38.0000000000,4,0.1545410007,,,
38.0156250000,4,-0.0098266602,,,
38.0312500000,4,-0.1844481975,,,
38.0468750000,4,-0.3108521104,,,
38.0625000000,4,-0.3699950874,,,
38.0781250000,4,-0.3984985054,,,
38.0937500000,4,-0.4521484077,,,
38.1093750000,4,-0.5632935166,,,
38.1250000000,4,-0.6957396865,,,
38.1406250000,4,-0.7739257813,,,
38.1562500000,4,-0.7221680284,,,
38.1718750000,4,-0.5190430284,,,
38.1875000000,4,-0.1970825046,,,
38.2031250000,4,0.1658325046,,,
38.2187500000,4,0.4891968071,,,
38.2343750000,4,0.7206420898,,,
38.2500000000,4,0.8426514268,,,
38.2656250000,4,0.8530272841,,,
38.2812500000,4,0.7622069716,,,
38.2968750000,4,0.5981444716,,,
38.3125000000,4,0.3919067085,,,
38.3281250000,4,0.1834716946,,,
38.3437500000,4,0.0266113300,,,
38.3593750000,4,-0.0317382813,,,
38.3750000000,4,0.0277099591,,,
38.3906250000,4,0.2003173977,,,
38.4062500000,4,0.4448853135,,,
38.4218750000,4,0.6939086914,,,
38.4375000000,4,0.8589478135,,,
38.4531250000,4,0.8607177734,,,
38.4687500000,4,0.6533812881,,,
38.4843750000,4,0.2546387017,,,
38.5000000000,4,-0.2536011040,,,
38.5156250000,4,-0.7622069716,,,
38.5312500000,4,-1.1641240120,,,
38.5468750000,4,-1.3994749784,,,
38.5625000000,4,-1.4757690430,,,
38.5781250000,4,-1.4338380098,,,
38.5937500000,4,-1.3109129667,,,
38.6093750000,4,-1.1210939884,,,
38.6250000000,4,-0.8485717773,,,
38.6406250000,4,-0.4758911133,,,
38.6562500000,4,-0.0223999005,,,
38.6718750000,4,0.4323729873,,,
38.6875000000,4,0.7847899795,,,
38.7031250000,4,0.9394531250,,,
38.7187500000,4,0.8653563857,,,
38.7343750000,4,0.6096801758,,,
38.7500000000,4,0.2840575874,,,
38.7656250000,4,-0.0160522498,,,
38.7812500000,4,-0.2406006008,,,
38.7968750000,4,-0.4059447944,,,
38.8125000000,4,-0.5725098252,,,
38.8281250000,4,-0.7782592773,,,
38.8437500000,4,-0.9824829102,,,
38.8593750000,4,-1.0786130428,,,
38.8750000000,4,-0.9519652724,,,
38.8906250000,4,-0.5359497070,,,
38.9062500000,4,0.1100464016,,,
38.9218750000,4,0.8176879883,,,
38.9375000000,4,1.3789670467,,,
38.9531250000,4,1.6378779411,,,
38.9687500000,4,1.5455930233,,,
38.9843750000,4,1.1804809570,,,
39.0000000000,4,0.6865844727,,,
39.0156250000,4,0.2140502930,,,
39.0312500000,4,-0.1515502930,,,
39.0468750000,4,-0.3630371094,,,
39.0625000000,4,-0.4191895127,,,
39.0781250000,4,-0.3201293945,,,
39.0937500000,4,-0.0854492188,,,
39.1093750000,4,0.2302245945,,,
39.1250000000,4,0.5264893174,,,
39.1406250000,4,0.6940308213,,,
39.1562500000,4,0.6735228896,,,
39.1718750000,4,0.4901123047,,,
39.1875000000,4,0.2568970025,,,
39.2031250000,4,0.1069336012,,,
39.2187500000,4,0.1374512017,,,
39.2343750000,4,0.3437500000,,,
39.2500000000,4,0.6134644151,,,
39.2656250000,4,0.7948607802,,,
39.2812500000,4,0.7717896104,,,
39.2968750000,4,0.5079345703,,,
39.3125000000,4,0.0692749023,,,
39.3281250000,4,-0.4102782905,,,
39.3437500000,4,-0.8069458008,,,
39.3593750000,4,-1.0493769646,,,
39.3750000000,4,-1.1582640409,,,
39.3906250000,4,-1.2001949549,,,
39.4062500000,4,-1.2326660156,,,
39.4218750000,4,-1.2661739588,,,
39.4375000000,4,-1.2478640079,,,
39.4531250000,4,-1.1122440100,,,
39.4687500000,4,-0.8616942763,,,
39.4843750000,4,-0.5899047852,,,
39.5000000000,4,-0.4588623047,,,
39.5156250000,4,-0.5968018174,,,
39.5312500000,4,-1.0308840275,,,
39.5468750000,4,-1.6300050020,,,
39.5625000000,4,-2.1817018986,,,
39.5781250000,4,-2.4941411018,,,
39.5937500000,4,-2.4827270508,,,
39.6093750000,4,-2.1872560978,,,
39.6250000000,4,-1.7147829533,,,
39.6406250000,4,-1.1512449980,,,
39.6562500000,4,-0.5287476182,,,
39.6718750000,4,0.1527100056,,,
39.6875000000,4,0.8571166992,,,
39.7031250000,4,1.4837039709,,,
39.7187500000,4,1.9098509550,,,
39.7343750000,4,2.0880739689,,,
39.7500000000,4,2.0659790039,,,
39.7656250000,4,1.9904789925,,,
39.7812500000,4,2.0112919807,,,
39.7968750000,4,2.1825559139,,,
39.8125000000,4,2.4278559685,,,
39.8281250000,4,2.5905148983,,,
39.8437500000,4,2.5128169060,,,
39.8593750000,4,2.1317749023,,,
39.8750000000,4,1.4946899414,,,
39.8906250000,4,0.7357177734,,,
39.9062500000,4,0.0180664100,,,
39.9218750000,4,-0.5270385742,,,
39.9375000000,4,-0.8355103135,,,
39.9531250000,4,-0.8992310166,,,
39.9687500000,4,-0.7721558213,,,
39.9843750000,4,-0.5454711914,,,
40.0000000000,5,-0.3276366889,,,
40.0156250000,5,-0.1936035007,,,
40.0312500000,5,-0.1600951999,,,
40.0468750000,5,-0.1753540039,,,
40.0625000000,5,-0.1431885064,,,
40.0781250000,5,0.0052490230,,,
40.0937500000,5,0.2598876953,,,
40.1093750000,5,0.5321655273,,,
40.1250000000,5,0.6830443740,,,
40.1406250000,5,0.5892333984,,,
40.1562500000,5,0.2232666016,,,
40.1718750000,5,-0.3347778022,,,
40.1875000000,5,-0.9267578125,,,
40.2031250000,5,-1.3796999454,,,
40.2187500000,5,-1.5776979923,,,
40.2343750000,5,-1.4997559786,,,
40.2500000000,5,-1.2271729708,,,
40.2656250000,5,-0.9099730849,,,
40.2812500000,5,-0.6896361709,,,
40.2968750000,5,-0.6474608779,,,
40.3125000000,5,-0.7749633789,,,
40.3281250000,5,-0.9894409180,,,
40.3437500000,5,-1.1721800566,,,
40.3593750000,5,-1.2369379997,,,
40.3750000000,5,-1.1674799919,,,
40.3906250000,5,-1.0114749670,,,
40.4062500000,5,-0.8516845703,,,
40.4218750000,5,-0.7595214844,,,
40.4375000000,5,-0.7659912109,,,
40.4531250000,5,-0.8461914063,,,
40.4687500000,5,-0.9318848252,,,
40.4843750000,5,-0.9403076172,,,
40.5000000000,5,-0.8208618164,,,
40.5156250000,5,-0.5554199219,,,
40.5312500000,5,-0.1882935017,,,
40.5468750000,5,0.1985473931,,,
40.5625000000,5,0.5271605849,,,
40.5781250000,5,0.7431030273,,,
40.5937500000,5,0.8368530273,,,
40.6093750000,5,0.8396605849,,,
40.6250000000,5,0.8004760742,,,
40.6406250000,5,0.7314453125,,,
40.6562500000,5,0.6418457031,,,
40.6718750000,5,0.5251464844,,,
40.6875000000,5,0.3881225884,,,
40.7031250000,5,0.2635498047,,,
40.7187500000,5,0.1951293945,,,
40.7343750000,5,0.2089844048,,,
40.7500000000,5,0.3164063096,,,
40.7656250000,5,0.4815062881,,,
40.7812500000,5,0.6688231826,,,
40.7968750000,5,0.8492432237,,,
40.8125000000,5,1.0043330193,,,
40.8281250000,5,1.1145629883,,,
40.8437500000,5,1.1632690430,,,
40.8593750000,5,1.1274410486,,,
40.8750000000,5,0.9947509766,,,
40.8906250000,5,0.7686157227,,,
40.9062500000,5,0.4940186143,,,
40.9218750000,5,0.2333983928,,,
40.9375000000,5,0.0428466797,,,
40.9531250000,5,-0.0513916016,,,
40.9687500000,5,-0.0592651404,,,
40.9843750000,5,-0.0265502892,,,
41.0000000000,5,-0.0119628897,,,
41.0156250000,5,-0.0310058594,,,
41.0312500000,5,-0.0765380934,,,
41.0468750000,5,-0.1130371019,,,
41.0625000000,5,-0.1189574972,,,
41.0781250000,5,-0.0952148363,,,
41.0937500000,5,-0.0817260668,,,
41.1093750000,5,-0.1130371019,,,
41.1250000000,5,-0.2079468071,,,
41.1406250000,5,-0.3535155952,,,
41.1562500000,5,-0.5103148818,,,
41.1718750000,5,-0.6342163086,,,
41.1875000000,5,-0.6842041016,,,
41.2031250000,5,-0.6272583008,,,
41.2187500000,5,-0.4536133111,,,
41.2343750000,5,-0.1834105998,,,
41.2500000000,5,0.1350708008,,,
41.2656250000,5,0.4248046875,,,
41.2812500000,5,0.6259155273,,,
41.2968750000,5,0.7146605849,,,
41.3125000000,5,0.7072753906,,,
41.3281250000,5,0.6569213867,,,
41.3437500000,5,0.6270142198,,,
41.3593750000,5,0.6506958008,,,
41.3750000000,5,0.7309569716,,,
41.3906250000,5,0.8446655273,,,
41.4062500000,5,0.9570313096,,,
41.4218750000,5,1.0422970057,,,
41.4375000000,5,1.0842289925,,,
41.4531250000,5,1.0728759766,,,
41.4687500000,5,1.0149539709,,,
41.4843750000,5,0.9252318740,,,
41.5000000000,5,0.8077393174,,,
41.5156250000,5,0.6597290039,,,
41.5312500000,5,0.4587402046,,,
41.5468750000,5,0.1867675930,,,
41.5625000000,5,-0.1531372070,,,
41.5781250000,5,-0.4943847954,,,
41.5937500000,5,-0.7439575195,,,
41.6093750000,5,-0.8161621094,,,
41.6250000000,5,-0.7029418945,,,
41.6406250000,5,-0.4792479873,,,
41.6562500000,5,-0.2736816108,,,
41.6718750000,5,-0.1953125000,,,
41.6875000000,5,-0.2943114936,,,
41.7031250000,5,-0.5559691787,,,
41.7187500000,5,-0.9130249023,,,
41.7343750000,5,-1.2837519646,,,
41.7500000000,5,-1.5818480253,,,
41.7656250000,5,-1.7321170568,,,
41.7812500000,5,-1.6748050451,,,
41.7968750000,5,-1.3970340490,,,
41.8125000000,5,-0.9594727159,,,
41.8281250000,5,-0.4824829102,,,
41.8437500000,5,-0.0938110426,,,
41.8593750000,5,0.1374512017,,,
41.8750000000,5,0.2311401069,,,
41.8906250000,5,0.2871704102,,,
41.9062500000,5,0.4173583984,,,
41.9218750000,5,0.6503295898,,,
41.9375000000,5,0.9157103896,,,
41.9531250000,5,1.0722659826,,,
41.9687500000,5,1.0153199434,,,
41.9843750000,5,0.7541503906,,,
42.0000000000,5,0.4157103896,,,
42.0156250000,5,0.1643065959,,,
42.0312500000,5,0.0897216797,,,
42.0468750000,5,0.1618041992,,,
42.0625000000,5,0.2467041016,,,
42.0781250000,5,0.2185059041,,,
42.0937500000,5,0.0391845703,,,
42.1093750000,5,-0.2119750977,,,
42.1250000000,5,-0.4122313857,,,
42.1406250000,5,-0.4782715142,,,
42.1562500000,5,-0.4282226861,,,
42.1718750000,5,-0.3595581055,,,
42.1875000000,5,-0.3748168945,,,
42.2031250000,5,-0.5184937119,,,
42.2187500000,5,-0.7340087891,,,
42.2343750000,5,-0.9161986709,,,
42.2500000000,5,-0.9866942763,,,
42.2656250000,5,-0.9276123047,,,
42.2812500000,5,-0.7759398818,,,
42.2968750000,5,-0.5823364258,,,
42.3125000000,5,-0.3815917969,,,
42.3281250000,5,-0.1792602986,,,
42.3437500000,5,0.0166015606,,,
42.3593750000,5,0.1735229045,,,
42.3750000000,5,0.2558594048,,,
42.3906250000,5,0.2518311143,,,
42.4062500000,5,0.1976318061,,,
42.4218750000,5,0.1630858928,,,
42.4375000000,5,0.2093506008,,,
42.4531250000,5,0.3342896104,,,
42.4687500000,5,0.4962157905,,,
42.4843750000,5,0.6268920898,,,
42.5000000000,5,0.6902465820,,,
42.5156250000,5,0.7015991211,,,
42.5312500000,5,0.6953734756,,,
42.5468750000,5,0.6989746094,,,
42.5625000000,5,0.6925659180,,,
42.5781250000,5,0.6369019151,,,
42.5937500000,5,0.5056763291,,,
42.6093750000,5,0.3347167969,,,
42.6250000000,5,0.2233887017,,,
42.6406250000,5,0.2709350884,,,
42.6562500000,5,0.5191649795,,,
42.6718750000,5,0.9008178711,,,
42.6875000000,5,1.2555539608,,,
42.7031250000,5,1.4187010527,,,
42.7187500000,5,1.3007199764,,,
42.7343750000,5,0.9390869141,,,
42.7500000000,5,0.4716796875,,,
42.7656250000,5,0.0567016602,,,
42.7812500000,5,-0.2028197944,,,
42.7968750000,5,-0.3063353896,,,
42.8125000000,5,-0.3415527046,,,
42.8281250000,5,-0.4118041992,,,
42.8437500000,5,-0.5546875000,,,
42.8593750000,5,-0.7185059190,,,
42.8750000000,5,-0.7932128906,,,
42.8906250000,5,-0.6912841797,,,
42.9062500000,5,-0.4259032905,,,
42.9218750000,5,-0.1167602986,,,
42.9375000000,5,0.0750732422,,,
42.9531250000,5,0.0403442383,,,
42.9687500000,5,-0.2032471001,,,
42.9843750000,5,-0.5211182237,,,
43.0000000000,5,-0.7446289063,,,
43.0156250000,5,-0.7538452148,,,
43.0312500000,5,-0.5504760742,,,
43.0468750000,5,-0.2517090142,,,
43.0625000000,5,-0.0173339806,,,
43.0781250000,5,0.0314941406,,,
43.0937500000,5,-0.1168212965,,,
43.1093750000,5,-0.3674316108,,,
43.1250000000,5,-0.5522460938,,,
43.1406250000,5,-0.5269165039,,,
43.1562500000,5,-0.2212523967,,,
43.1718750000,5,0.3165282905,,,
43.1875000000,5,0.9155883789,,,
43.2031250000,5,1.3577879667,,,
43.2187500000,5,1.4663699865,,,
43.2343750000,5,1.1907349825,,,
43.2500000000,5,0.6245117188,,,
43.2656250000,5,-0.0359497108,,,
43.2812500000,5,-0.6149291992,,,
43.2968750000,5,-1.0349119902,,,
43.3125000000,5,-1.3201899529,,,
43.3281250000,5,-1.5522459745,,,
43.3437500000,5,-1.7763060331,,,
43.3593750000,5,-1.9408570528,,,
43.3750000000,5,-1.9487299919,,,
43.3906250000,5,-1.7473750114,,,
43.4062500000,5,-1.3606569767,,,
43.4218750000,5,-0.9159545898,,,
43.4375000000,5,-0.5356444716,,,
43.4531250000,5,-0.2566528022,,,
43.4687500000,5,-0.0143432599,,,
43.4843750000,5,0.3004761040,,,
43.5000000000,5,0.7347412109,,,
43.5156250000,5,1.2106930017,,,
43.5312500000,5,1.5607910156,,,
43.5468750000,5,1.6403199434,,,
43.5625000000,5,1.4288940430,,,
43.5781250000,5,1.0226440430,,,
43.5937500000,5,0.6074218750,,,
43.6093750000,5,0.3297728896,,,
43.6250000000,5,0.2252196968,,,
43.6406250000,5,0.2285767049,,,
43.6562500000,5,0.2252196968,,,
43.6718750000,5,0.1566161960,,,
43.6875000000,5,0.0537109412,,,
43.7031250000,5,0.0140991202,,,
43.7187500000,5,0.1038208008,,,
43.7343750000,5,0.3053588867,,,
43.7500000000,5,0.5007324219,,,
43.7656250000,5,0.5416870117,,,
43.7812500000,5,0.3315429986,,,
43.7968750000,5,-0.1059570014,,,
43.8125000000,5,-0.6359863281,,,
43.8281250000,5,-1.0717769861,,,
43.8437500000,5,-1.2855219841,,,
43.8593750000,5,-1.2640990019,,,
43.8750000000,5,-1.1021729708,,,
43.8906250000,5,-0.9460449219,,,
43.9062500000,5,-0.8834229112,,,
43.9218750000,5,-0.9004517198,,,
43.9375000000,5,-0.8937377930,,,
43.9531250000,5,-0.7427368164,,,
43.9687500000,5,-0.4090575874,,,
43.9843750000,5,0.0351562500,,,
44.0000000000,5,0.4347533882,,,
44.0156250000,5,0.6352539063,,,
44.0312500000,5,0.5315551758,,,
44.0468750000,5,0.1400146037,,,
44.0625000000,5,-0.4065552056,,,
44.0781250000,5,-0.9259644151,,,
44.0937500000,5,-1.2455439568,,,
44.1093750000,5,-1.2656860352,,,
44.1250000000,5,-1.0011600256,,,
44.1406250000,5,-0.5457764268,,,
44.1562500000,5,-0.0482788086,,,
44.1718750000,5,0.3678588867,,,
44.1875000000,5,0.6373291016,,,
44.2031250000,5,0.7645874023,,,
44.2187500000,5,0.7924805284,,,
44.2343750000,5,0.7544556260,,,
44.2500000000,5,0.6600952148,,,
44.2656250000,5,0.4981688857,,,
44.2812500000,5,0.2630004883,,,
44.2968750000,5,-0.0060424800,,,
44.3125000000,5,-0.2553100884,,,
44.3281250000,5,-0.4274291992,,,
44.3437500000,5,-0.5191649795,,,
44.3593750000,5,-0.5727539063,,,
44.3750000000,5,-0.6406859756,,,
44.3906250000,5,-0.7285156250,,,
44.4062500000,5,-0.7974243164,,,
44.4218750000,5,-0.7822266221,,,
44.4375000000,5,-0.6513062119,,,
44.4531250000,5,-0.4496459961,,,
44.4687500000,5,-0.2501221001,,,
44.4843750000,5,-0.1196288988,,,
44.5000000000,5,-0.0533447303,,,
44.5156250000,5,0.0278930701,,,
44.5312500000,5,0.1842651069,,,
44.5468750000,5,0.4182128906,,,
44.5625000000,5,0.6432495117,,,
44.5781250000,5,0.7427368164,,,
44.5937500000,5,0.6372069716,,,
44.6093750000,5,0.3634643853,,,
44.6250000000,5,0.0493164100,,,
44.6406250000,5,-0.1434326023,,,
44.6562500000,5,-0.1179810017,,,
44.6718750000,5,0.1139525995,,,
44.6875000000,5,0.4384765923,,,
44.7031250000,5,0.7225341797,,,
44.7187500000,5,0.8934937119,,,
44.7343750000,5,0.9522705078,,,
44.7500000000,5,0.9598999023,,,
44.7656250000,5,1.0089720488,,,
44.7812500000,5,1.1256099939,,,
44.7968750000,5,1.2896120548,,,
44.8125000000,5,1.4470210075,,,
44.8281250000,5,1.5331419706,,,
44.8437500000,5,1.5159300566,,,
44.8593750000,5,1.3919069767,,,
44.8750000000,5,1.1663819551,,,
44.8906250000,5,0.8651123047,,,
44.9062500000,5,0.4906005859,,,
44.9218750000,5,0.0530395508,,,
44.9375000000,5,-0.4172973931,,,
44.9531250000,5,-0.8729248047,,,
44.9687500000,5,-1.2495729923,,,
44.9843750000,5,-1.4912110567,,,
45.0000000000,5,-1.5648189783,,,
45.0156250000,5,-1.4805300236,,,
45.0312500000,5,-1.2764279842,,,
45.0468750000,5,-1.0078740120,,,
45.0625000000,5,-0.7257080078,,,
45.0781250000,5,-0.4646606147,,,
45.0937500000,5,-0.2607421875,,,
45.1093750000,5,-0.1544189006,,,
45.1250000000,5,-0.1948852986,,,
45.1406250000,5,-0.4066771865,,,
45.1562500000,5,-0.7467041016,,,
45.1718750000,5,-1.0958859921,,,
45.1875000000,5,-1.2990109921,,,
45.2031250000,5,-1.2299189568,,,
45.2187500000,5,-0.8597412109,,,
45.2343750000,5,-0.2834472954,,,
45.2500000000,5,0.2999267876,,,
45.2656250000,5,0.7171021104,,,
45.2812500000,5,0.8874511719,,,
45.2968750000,5,0.8402709961,,,
45.3125000000,5,0.6954345703,,,
45.3281250000,5,0.5565186143,,,
45.3437500000,5,0.4743652046,,,
45.3593750000,5,0.4204711914,,,
45.3750000000,5,0.3345336914,,,
45.3906250000,5,0.2100829929,,,
45.4062500000,5,0.0850830078,,,
45.4218750000,5,0.0361938514,,,
45.4375000000,5,0.1287230998,,,
45.4531250000,5,0.3599242866,,,
45.4687500000,5,0.6702880859,,,
45.4843750000,5,0.9530029297,,,
45.5000000000,5,1.1398930550,,,
45.5156250000,5,1.2049560547,,,
45.5312500000,5,1.1830439568,,,
45.5468750000,5,1.1159670353,,,
45.5625000000,5,1.0102540255,,,
45.5781250000,5,0.8295897841,,,
45.5937500000,5,0.5401000977,,,
45.6093750000,5,0.1536255032,,,
45.6250000000,5,-0.2592163086,,,
45.6406250000,5,-0.6035156250,,,
45.6562500000,5,-0.8235474229,,,
45.6718750000,5,-0.9440917969,,,
45.6875000000,5,-1.0401610136,,,
45.7031250000,5,-1.1978149414,,,
45.7187500000,5,-1.4132690430,,,
45.7343750000,5,-1.5802609921,,,
45.7500000000,5,-1.5607910156,,,
45.7656250000,5,-1.2694089413,,,
45.7812500000,5,-0.7330933213,,,
45.7968750000,5,-0.1090698019,,,
45.8125000000,5,0.4139403999,,,
45.8281250000,5,0.7031250000,,,
45.8437500000,5,0.7239379883,,,
45.8593750000,5,0.5313720703,,,
45.8750000000,5,0.2019653022,,,
45.8906250000,5,-0.1834716946,,,
45.9062500000,5,-0.5576782227,,,
45.9218750000,5,-0.8523560166,,,
45.9375000000,5,-0.9874268174,,,
45.9531250000,5,-0.9152222276,,,
45.9687500000,5,-0.6375122070,,,
45.9843750000,5,-0.2373047024,,,
46.0000000000,5,0.1633910984,,,
46.0156250000,5,0.4539794922,,,
46.0312500000,5,0.6031494141,,,
46.0468750000,5,0.6620482802,,,
46.0625000000,5,0.7256469727,,,
46.0781250000,5,0.8552246094,,,
46.0937500000,5,1.0380860567,,,
46.1093750000,5,1.1910400391,,,
46.1250000000,5,1.2084959745,,,
46.1406250000,5,1.0403439999,,,
46.1562500000,5,0.7265625000,,,
46.1718750000,5,0.3737182915,,,
46.1875000000,5,0.1174926981,,,
46.2031250000,5,0.0381469689,,,
46.2187500000,5,0.1309814006,,,
46.2343750000,5,0.3106079102,,,
46.2500000000,5,0.4620971978,,,
46.2656250000,5,0.5172119141,,,
46.2812500000,5,0.4903563857,,,
46.2968750000,5,0.4577026069,,,
46.3125000000,5,0.4927367866,,,
46.3281250000,5,0.6123657227,,,
46.3437500000,5,0.7396240234,,,
46.3593750000,5,0.7653198242,,,
46.3750000000,5,0.6006469727,,,
46.3906250000,5,0.2451172024,,,
46.4062500000,5,-0.2025146037,,,
46.4218750000,5,-0.5969238281,,,
46.4375000000,5,-0.8233643174,,,
46.4531250000,5,-0.8535767198,,,
46.4687500000,5,-0.7567139268,,,
46.4843750000,5,-0.6479492188,,,
46.5000000000,5,-0.6267089844,,,
46.5156250000,5,-0.7131958008,,,
46.5312500000,5,-0.8532714844,,,
46.5468750000,5,-0.9647827148,,,
46.5625000000,5,-0.9901123047,,,
46.5781250000,5,-0.9294434190,,,
46.5937500000,5,-0.8292847276,,,
46.6093750000,5,-0.7545775771,,,
46.6250000000,5,-0.7455443740,,,
46.6406250000,5,-0.8046875000,,,
46.6562500000,5,-0.8940430284,,,
46.6718750000,5,-0.9784545898,,,
46.6875000000,5,-1.0188599825,,,
46.7031250000,5,-1.0079350471,,,
46.7187500000,5,-0.9608765244,,,
46.7343750000,5,-0.9147949219,,,
46.7500000000,5,-0.9132080078,,,
46.7656250000,5,-0.9801024795,,,
46.7812500000,5,-1.1073000431,,,
46.7968750000,5,-1.2274780273,,,
46.8125000000,5,-1.2370610237,,,
46.8281250000,5,-1.0341800451,,,
46.8437500000,5,-0.6011962891,,,
46.8593750000,5,-0.0065307622,,,
46.8750000000,5,0.5990601182,,,
46.8906250000,5,1.0527950525,,,
46.9062500000,5,1.2674560547,,,
46.9218750000,5,1.2666629553,,,
46.9375000000,5,1.1574100256,,,
46.9531250000,5,1.0585329533,,,
46.9687500000,5,1.0477290154,,,
46.9843750000,5,1.1279300451,,,
47.0000000000,5,1.2471309900,,,
47.0156250000,5,1.3464360237,,,
47.0312500000,5,1.3972779512,,,
47.0468750000,5,1.3937380314,,,
47.0625000000,5,1.3314210176,,,
47.0781250000,5,1.1847529411,,,
47.0937500000,5,0.9304199219,,,
47.1093750000,5,0.5604248047,,,
47.1250000000,5,0.1223755032,,,
47.1406250000,5,-0.2832641900,,,
47.1562500000,5,-0.5297852159,,,
47.1718750000,5,-0.5311279297,,,
47.1875000000,5,-0.2728882134,,,
47.2031250000,5,0.1644286960,,,
47.2187500000,5,0.6291503906,,,
47.2343750000,5,0.9542847276,,,
47.2500000000,5,1.0466920137,,,
47.2656250000,5,0.9108275771,,,
47.2812500000,5,0.6432495117,,,
47.2968750000,5,0.3847655952,,,
47.3125000000,5,0.2266235054,,,
47.3281250000,5,0.1838988960,,,
47.3437500000,5,0.2038574070,,,
47.3593750000,5,0.2196654975,,,
47.3750000000,5,0.1884766072,,,
47.3906250000,5,0.1120605022,,,
47.4062500000,5,0.0304565392,,,
47.4218750000,5,-0.0112304697,,,
47.4375000000,5,0.0134887705,,,
47.4531250000,5,0.0950317383,,,
47.4687500000,5,0.1739501953,,,
47.4843750000,5,0.1685180962,,,
47.5000000000,5,0.0056762700,,,
47.5156250000,5,-0.3361816108,,,
47.5312500000,5,-0.7691649795,,,
47.5468750000,5,-1.1215820313,,,
47.5625000000,5,-1.2127690315,,,
47.5781250000,5,-0.9648438096,,,
47.5937500000,5,-0.4559325874,,,
47.6093750000,5,0.0863037109,,,
47.6250000000,5,0.4110718071,,,
47.6406250000,5,0.3899536133,,,
47.6562500000,5,0.0978393629,,,
47.6718750000,5,-0.2463379055,,,
47.6875000000,5,-0.4173583984,,,
47.7031250000,5,-0.3126221001,,,
47.7187500000,5,-0.0111694299,,,
47.7343750000,5,0.3114624023,,,
47.7500000000,5,0.5117188096,,,
47.7656250000,5,0.5455933213,,,
47.7812500000,5,0.4647217095,,,
47.7968750000,5,0.3395996094,,,
47.8125000000,5,0.2109375000,,,
47.8281250000,5,0.0595092811,,,
47.8437500000,5,-0.1262207031,,,
47.8593750000,5,-0.3262329102,,,
47.8750000000,5,-0.4765625000,,,
47.8906250000,5,-0.5012816787,,,
47.9062500000,5,-0.3696289063,,,
47.9218750000,5,-0.1063231975,,,
47.9375000000,5,0.1912841946,,,
47.9531250000,5,0.4121094048,,,
47.9687500000,5,0.4498291016,,,
47.9843750000,5,0.2517699897,,,
48.0000000000,6,-0.1607055962,,,
48.0156250000,6,-0.7100830078,,,
48.0312500000,6,-1.2832640409,,,
48.0468750000,6,-1.7545779943,,,
48.0625000000,6,-2.0404660702,,,
48.0781250000,6,-2.1102910042,,,
48.0937500000,6,-2.0010991096,,,
48.1093750000,6,-1.7885739803,,,
48.1250000000,6,-1.5322270393,,,
48.1406250000,6,-1.2554320097,,,
48.1562500000,6,-0.9376220703,,,
48.1718750000,6,-0.5494995117,,,
48.1875000000,6,-0.1015015021,,,
48.2031250000,6,0.3461304009,,,
48.2187500000,6,0.6979979873,,,
48.2343750000,6,0.8687744141,,,
48.2500000000,6,0.8311768174,,,
48.2656250000,6,0.6291503906,,,
48.2812500000,6,0.3688353896,,,
48.2968750000,6,0.1517333984,,,
48.3125000000,6,0.0503540002,,,
48.3281250000,6,0.0541992188,,,
48.3437500000,6,0.0973510668,,,
48.3593750000,6,0.1035156026,,,
48.3750000000,6,0.0296020508,,,
48.3906250000,6,-0.0985717773,,,
48.4062500000,6,-0.1944579929,,,
48.4218750000,6,-0.1649779975,,,
48.4375000000,6,0.0312500000,,,
48.4531250000,6,0.3742676079,,,
48.4687500000,6,0.7755736709,,,
48.4843750000,6,1.1218869686,,,
48.5000000000,6,1.3334959745,,,
48.5156250000,6,1.3842159510,,,
48.5312500000,6,1.2908329964,,,
48.5468750000,6,1.0969239473,,,
48.5625000000,6,0.8315430284,,,
48.5781250000,6,0.5148925781,,,
48.5937500000,6,0.1733397990,,,
48.6093750000,6,-0.1628417969,,,
48.6250000000,6,-0.4514159858,,,
48.6406250000,6,-0.6582642198,,,
48.6562500000,6,-0.7784423828,,,
48.6718750000,6,-0.8216552734,,,
48.6875000000,6,-0.8112183213,,,
48.7031250000,6,-0.7661132813,,,
48.7187500000,6,-0.6903076172,,,
48.7343750000,6,-0.5916748047,,,
48.7500000000,6,-0.4942016900,,,
48.7656250000,6,-0.4298096001,,,
48.7812500000,6,-0.4172362983,,,
48.7968750000,6,-0.4687500000,,,
48.8125000000,6,-0.5451049805,,,
48.8281250000,6,-0.6053466797,,,
48.8437500000,6,-0.6210327148,,,
48.8593750000,6,-0.6062622070,,,
48.8750000000,6,-0.5989379883,,,
48.8906250000,6,-0.6453247070,,,
48.9062500000,6,-0.7472534180,,,
48.9218750000,6,-0.8483275771,,,
48.9375000000,6,-0.8716431260,,,
48.9531250000,6,-0.7357177734,,,
48.9687500000,6,-0.4358521104,,,
48.9843750000,6,-0.0447387695,,,
49.0000000000,6,0.2954711914,,,
49.0156250000,6,0.4347533882,,,
49.0312500000,6,0.2908936143,,,
49.0468750000,6,-0.1009520963,,,
49.0625000000,6,-0.5813599229,,,
49.0781250000,6,-0.9442749023,,,
49.0937500000,6,-1.0089110136,,,
49.1093750000,6,-0.7166748047,,,
49.1250000000,6,-0.1295776069,,,
49.1406250000,6,0.5750731826,,,
49.1562500000,6,1.2039790154,,,
49.1718750000,6,1.6024169922,,,
49.1875000000,6,1.7095949650,,,
49.2031250000,6,1.5408329964,,,
49.2187500000,6,1.1768800020,,,
49.2343750000,6,0.7244873047,,,
49.2500000000,6,0.2785033882,,,
49.2656250000,6,-0.0725097731,,,
49.2812500000,6,-0.2714233100,,,
49.2968750000,6,-0.3042603135,,,
49.3125000000,6,-0.1954956055,,,
49.3281250000,6,-0.0185546894,,,
49.3437500000,6,0.1448975056,,,
49.3593750000,6,0.2121582031,,,
49.3750000000,6,0.1527709961,,,
49.3906250000,6,0.0101928702,,,
49.4062500000,6,-0.1291504055,,,
49.4218750000,6,-0.1763916016,,,
49.4375000000,6,-0.0746460035,,,
49.4531250000,6,0.1504517049,,,
49.4687500000,6,0.4265747070,,,
49.4843750000,6,0.6450806260,,,
49.5000000000,6,0.7252808213,,,
49.5156250000,6,0.6383666992,,,
49.5312500000,6,0.4273681939,,,
49.5468750000,6,0.1793213040,,,
49.5625000000,6,0.0039062500,,,
49.5781250000,6,0.0077514648,,,
49.5937500000,6,0.2274779975,,,
49.6093750000,6,0.6462401748,,,
49.6250000000,6,1.1754150391,,,
49.6406250000,6,1.6840820313,,,
49.6562500000,6,2.0473630428,,,
49.6718750000,6,2.1707150936,,,
49.6875000000,6,2.0280148983,,,
49.7031250000,6,1.6652829647,,,
49.7187500000,6,1.1859740019,,,
49.7343750000,6,0.6871948242,,,
49.7500000000,6,0.2514038086,,,
49.7656250000,6,-0.0812377930,,,
49.7812500000,6,-0.2981567085,,,
49.7968750000,6,-0.4045409858,,,
49.8125000000,6,-0.3919678032,,,
49.8281250000,6,-0.2766723931,,,
49.8437500000,6,-0.0827636719,,,
49.8593750000,6,0.1350097954,,,
49.8750000000,6,0.2988891900,,,
49.8906250000,6,0.3641968071,,,
49.9062500000,6,0.2979736030,,,
49.9218750000,6,0.1021118015,,,
49.9375000000,6,-0.1796875000,,,
49.9531250000,6,-0.5024414063,,,
49.9687500000,6,-0.8142700195,,,
49.9843750000,6,-1.0781250000,,,
50.0000000000,6,-1.2661739588,,,
50.0156250000,6,-1.3880620003,,,
50.0312500000,6,-1.4648439884,,,
50.0468750000,6,-1.5236819983,,,
50.0625000000,6,-1.5808110237,,,
50.0781250000,6,-1.6091920137,,,
50.0937500000,6,-1.5635379553,,,
50.1093750000,6,-1.3988039494,,,
50.1250000000,6,-1.1185300350,,,
50.1406250000,6,-0.7913817763,,,
50.1562500000,6,-0.5352783203,,,
50.1718750000,6,-0.4556274116,,,
50.1875000000,6,-0.5984497070,,,
50.2031250000,6,-0.9061890244,,,
50.2187500000,6,-1.2388919592,,,
50.2343750000,6,-1.4478149414,,,
50.2500000000,6,-1.4400629997,,,
50.2656250000,6,-1.2034909725,,,
50.2812500000,6,-0.7946166992,,,
50.2968750000,6,-0.3299561143,,,
50.3125000000,6,0.0841674805,,,
50.3281250000,6,0.3679809868,,,
50.3437500000,6,0.4929198921,,,
50.3593750000,6,0.4696654975,,,
50.3750000000,6,0.3554077148,,,
50.3906250000,6,0.2326049954,,,
50.4062500000,6,0.1829223931,,,
50.4218750000,6,0.2532348931,,,
50.4375000000,6,0.4519653022,,,
50.4531250000,6,0.7347412109,,,
50.4687500000,6,1.0311280489,,,
50.4843750000,6,1.2755739689,,,
50.5000000000,6,1.4306030273,,,
50.5156250000,6,1.5008540154,,,
50.5312500000,6,1.5100100040,,,
50.5468750000,6,1.4812619686,,,
50.5625000000,6,1.4254150391,,,
50.5781250000,6,1.3481450081,,,
50.5937500000,6,1.2671509981,,,
50.6093750000,6,1.2101440430,,,
50.6250000000,6,1.2010500431,,,
50.6406250000,6,1.2369999886,,,
50.6562500000,6,1.2767330408,,,
50.6718750000,6,1.2774660587,,,
50.6875000000,6,1.2086180449,,,
50.7031250000,6,1.0794069767,,,
50.7187500000,6,0.9405518174,,,
50.7343750000,6,0.8320922852,,,
50.7500000000,6,0.7601928711,,,
50.7656250000,6,0.6690673828,,,
50.7812500000,6,0.4692992866,,,
50.7968750000,6,0.0877075195,,,
50.8125000000,6,-0.4870604873,,,
50.8281250000,6,-1.1774899960,,,
50.8437500000,6,-1.8361819983,,,
50.8593750000,6,-2.3182981014,,,
50.8750000000,6,-2.5131230354,,,
50.8906250000,6,-2.4098510742,,,
50.9062500000,6,-2.0837399960,,,
50.9218750000,6,-1.6809079647,,,
50.9375000000,6,-1.3463129997,,,
50.9531250000,6,-1.1843260527,,,
50.9687500000,6,-1.2055660486,,,
50.9843750000,6,-1.3365479708,,,
51.0000000000,6,-1.4581300020,,,
51.0156250000,6,-1.4578859806,,,
51.0312500000,6,-1.2756960392,,,
51.0468750000,6,-0.9317626953,,,
51.0625000000,6,-0.5028687119,,,
51.0781250000,6,-0.0937500000,,,
51.0937500000,6,0.1946410984,,,
51.1093750000,6,0.3168334961,,,
51.1250000000,6,0.2716063857,,,
51.1406250000,6,0.1098633036,,,
51.1562500000,6,-0.0926513672,,,
51.1718750000,6,-0.2349853963,,,
51.1875000000,6,-0.2456665039,,,
51.2031250000,6,-0.0764770508,,,
51.2187500000,6,0.2727051079,,,
51.2343750000,6,0.7476196289,,,
51.2500000000,6,1.2567139864,,,
51.2656250000,6,1.6905519962,,,
51.2812500000,6,1.9584350586,,,
51.2968750000,6,2.0111079216,,,
51.3125000000,6,1.8573609591,,,
51.3281250000,6,1.5452270508,,,
51.3437500000,6,1.1618649960,,,
51.3593750000,6,0.7849121094,,,
51.3750000000,6,0.4635620117,,,
51.3906250000,6,0.2262572944,,,
51.4062500000,6,0.0684204102,,,
51.4218750000,6,-0.0283813495,,,
51.4375000000,6,-0.1093750000,,,
51.4531250000,6,-0.2260742038,,,
51.4687500000,6,-0.3989258111,,,
51.4843750000,6,-0.6095581055,,,
51.5000000000,6,-0.7909545898,,,
51.5156250000,6,-0.8631591797,,,
51.5312500000,6,-0.7911986709,,,
51.5468750000,6,-0.6247559190,,,
51.5625000000,6,-0.4700928032,,,
51.5781250000,6,-0.4271239936,,,
51.5937500000,6,-0.5090941787,,,
51.6093750000,6,-0.6200562119,,,
51.6250000000,6,-0.6088256836,,,
51.6406250000,6,-0.3771362007,,,
51.6562500000,6,0.0318603516,,,
51.6718750000,6,0.4824829102,,,
51.6875000000,6,0.8110961914,,,
51.7031250000,6,0.9537354112,,,
51.7187500000,6,0.9735717773,,,
51.7343750000,6,1.0132449865,,,
51.7500000000,6,1.1802370548,,,
51.7656250000,6,1.4525760412,,,
51.7812500000,6,1.6981199980,,,
51.7968750000,6,1.7514040470,,,
51.8125000000,6,1.5394289494,,,
51.8281250000,6,1.1055300236,,,
51.8437500000,6,0.5891113281,,,
51.8593750000,6,0.1434326023,,,
51.8750000000,6,-0.1713867038,,,
51.8906250000,6,-0.3873901069,,,
51.9062500000,6,-0.5911865234,,,
51.9218750000,6,-0.8469849229,,,
51.9375000000,6,-1.1599730253,,,
51.9531250000,6,-1.4719849825,,,
51.9687500000,6,-1.6939090490,,,
51.9843750000,6,-1.7500000000,,,
52.0000000000,6,-1.6312869787,,,
52.0156250000,6,-1.4069210291,,,
52.0312500000,6,-1.1799930334,,,
52.0468750000,6,-1.0482790470,,,
52.0625000000,6,-1.0454100370,,,
52.0781250000,6,-1.1318969727,,,
52.0937500000,6,-1.2081300020,,,
52.1093750000,6,-1.1804809570,,,
52.1250000000,6,-1.0072020292,,,
52.1406250000,6,-0.7253417969,,,
52.1562500000,6,-0.4107666016,,,
52.1718750000,6,-0.1524048001,,,
52.1875000000,6,0.0187988300,,,
52.2031250000,6,0.1356201023,,,
52.2187500000,6,0.2438354045,,,
52.2343750000,6,0.3675537109,,,
52.2500000000,6,0.4789429009,,,
52.2656250000,6,0.5273438096,,,
52.2812500000,6,0.4903563857,,,
52.2968750000,6,0.3989258111,,,
52.3125000000,6,0.3401488960,,,
52.3281250000,6,0.3890990913,,,
52.3437500000,6,0.5613402724,,,
52.3593750000,6,0.8022460938,,,
52.3750000000,6,1.0274050236,,,
52.3906250000,6,1.1526490450,,,
52.4062500000,6,1.1429439783,,,
52.4218750000,6,1.0023189783,,,
52.4375000000,6,0.7589110732,,,
52.4531250000,6,0.4458008111,,,
52.4687500000,6,0.0915527269,,,
52.4843750000,6,-0.2662963867,,,
52.5000000000,6,-0.5573120117,,,
52.5156250000,6,-0.7233886719,,,
52.5312500000,6,-0.7239379883,,,
52.5468750000,6,-0.5664063096,,,
52.5625000000,6,-0.3098754883,,,
52.5781250000,6,-0.0336914100,,,
52.5937500000,6,0.1961670071,,,
52.6093750000,6,0.3542479873,,,
52.6250000000,6,0.4430541992,,,
52.6406250000,6,0.4520874023,,,
52.6562500000,6,0.3666382134,,,
52.6718750000,6,0.1575316936,,,
52.6875000000,6,-0.1890868992,,,
52.7031250000,6,-0.6428833008,,,
52.7187500000,6,-1.1335450411,,,
52.7343750000,6,-1.5626829863,,,
52.7500000000,6,-1.8488769531,,,
52.7656250000,6,-1.9296879768,,,
52.7812500000,6,-1.7872920036,,,
52.7968750000,6,-1.4512330294,,,
52.8125000000,6,-0.9774780273,,,
52.8281250000,6,-0.4506835938,,,
52.8437500000,6,0.0393676795,,,
52.8593750000,6,0.4037475884,,,
52.8750000000,6,0.5871582031,,,
52.8906250000,6,0.5867310166,,,
52.9062500000,6,0.4595946968,,,
52.9218750000,6,0.3031005859,,,
52.9375000000,6,0.2078247070,,,
52.9531250000,6,0.2254028022,,,
52.9687500000,6,0.3619385064,,,
52.9843750000,6,0.5852661133,,,
53.0000000000,6,0.8818358779,,,
53.0156250000,6,1.2230830193,,,
53.0312500000,6,1.5839229822,,,
53.0468750000,6,1.9229129553,,,
53.0625000000,6,2.1775510311,,,
53.0781250000,6,2.2947390079,,,
53.0937500000,6,2.2388310432,,,
53.1093750000,6,2.0289309025,,,
53.1250000000,6,1.7297359705,,,
53.1406250000,6,1.4262700081,,,
53.1562500000,6,1.1900019646,,,
53.1718750000,6,1.0538940430,,,
53.1875000000,6,0.9907227159,,,
53.2031250000,6,0.9283447266,,,
53.2187500000,6,0.7768555284,,,
53.2343750000,6,0.4775390923,,,
53.2500000000,6,0.0219726600,,,
53.2656250000,6,-0.5195922852,,,
53.2812500000,6,-1.0319819450,,,
53.2968750000,6,-1.4021610022,,,
53.3125000000,6,-1.5654300451,,,
53.3281250000,6,-1.5471190214,,,
53.3437500000,6,-1.4266970158,,,
53.3593750000,6,-1.2992550135,,,
53.3750000000,6,-1.2181400061,,,
53.3906250000,6,-1.1887819767,,,
53.4062500000,6,-1.1982419491,,,
53.4218750000,6,-1.2323609591,,,
53.4375000000,6,-1.2892459631,,,
53.4531250000,6,-1.3590090275,,,
53.4687500000,6,-1.4074709415,,,
53.4843750000,6,-1.3945310116,,,
53.5000000000,6,-1.2730710506,,,
53.5156250000,6,-1.0463260412,,,
53.5312500000,6,-0.7649536133,,,
53.5468750000,6,-0.5017700195,,,
53.5625000000,6,-0.3195190132,,,
53.5781250000,6,-0.2348022014,,,
53.5937500000,6,-0.2175903022,,,
53.6093750000,6,-0.2286376953,,,
53.6250000000,6,-0.2257079929,,,
53.6406250000,6,-0.1993408054,,,
53.6562500000,6,-0.1575316936,,,
53.6718750000,6,-0.1149901971,,,
53.6875000000,6,-0.0811767578,,,
53.7031250000,6,-0.0498046912,,,
53.7187500000,6,0.0059814448,,,
53.7343750000,6,0.1253661960,,,
53.7500000000,6,0.3360596001,,,
53.7656250000,6,0.6180419922,,,
53.7812500000,6,0.8962401748,,,
53.7968750000,6,1.0653079748,,,
53.8125000000,6,1.0512080193,,,
53.8281250000,6,0.8513184190,,,
53.8437500000,6,0.5567017198,,,
53.8593750000,6,0.3029784858,,,
53.8750000000,6,0.1930541992,,,
53.8906250000,6,0.2482299954,,,
53.9062500000,6,0.3991698921,,,
53.9218750000,6,0.5415039063,,,
53.9375000000,6,0.6125488281,,,
53.9531250000,6,0.6192017198,,,
53.9687500000,6,0.6113892198,,,
53.9843750000,6,0.6364135742,,,
54.0000000000,6,0.6818848252,,,
54.0156250000,6,0.6958007813,,,
54.0312500000,6,0.6112670898,,,
54.0468750000,6,0.4072265923,,,
54.0625000000,6,0.1141356975,,,
54.0781250000,6,-0.2037353963,,,
54.0937500000,6,-0.4692992866,,,
54.1093750000,6,-0.6432495117,,,
54.1250000000,6,-0.7094116211,,,
54.1406250000,6,-0.6890869141,,,
54.1562500000,6,-0.6288452148,,,
54.1718750000,6,-0.5751953125,,,
54.1875000000,6,-0.5579833984,,,
54.2031250000,6,-0.5759276748,,,
54.2187500000,6,-0.6035156250,,,
54.2343750000,6,-0.6046752930,,,
54.2500000000,6,-0.5560913086,,,
54.2656250000,6,-0.4746094048,,,
54.2812500000,6,-0.4032593071,,,
54.2968750000,6,-0.3956908882,,,
54.3125000000,6,-0.4755859077,,,
54.3281250000,6,-0.6280518174,,,
54.3437500000,6,-0.8079224229,,,
54.3593750000,6,-0.9491577148,,,
54.3750000000,6,-1.0116579533,,,
54.3906250000,6,-0.9720458984,,,
54.4062500000,6,-0.8376464844,,,
54.4218750000,6,-0.6276854873,,,
54.4375000000,6,-0.3622437119,,,
54.4531250000,6,-0.0474243201,,,
54.4687500000,6,0.2938843071,,,
54.4843750000,6,0.6367797852,,,
54.5000000000,6,0.9171143174,,,
54.5156250000,6,1.0677490234,,,
54.5312500000,6,1.0114140511,,,
54.5468750000,6,0.7365111709,,,
54.5625000000,6,0.2952271104,,,
54.5781250000,6,-0.1838988960,,,
54.5937500000,6,-0.5512084961,,,
54.6093750000,6,-0.7116088867,,,
54.6250000000,6,-0.7026367188,,,
54.6406250000,6,-0.6486815810,,,
54.6562500000,6,-0.7050781250,,,
54.6718750000,6,-0.9412230849,,,
54.6875000000,6,-1.2838129997,,,
54.7031250000,6,-1.5567020178,,,
54.7187500000,6,-1.5944210291,,,
54.7343750000,6,-1.3458249569,,,
54.7500000000,6,-0.9138793945,,,
54.7656250000,6,-0.4918212891,,,
54.7812500000,6,-0.2424927056,,,
54.7968750000,6,-0.2006835938,,,
54.8125000000,6,-0.2615356147,,,
54.8281250000,6,-0.2324828953,,,
54.8437500000,6,0.0177612305,,,
54.8593750000,6,0.5040283203,,,
54.8750000000,6,1.0757449865,,,
54.8906250000,6,1.5355219841,,,
54.9062500000,6,1.7135009766,,,
54.9218750000,6,1.5678709745,,,
54.9375000000,6,1.1801149845,,,
54.9531250000,6,0.6996459961,,,
54.9687500000,6,0.2749634087,,,
54.9843750000,6,-0.0241699200,,,
55.0000000000,6,-0.1981201023,,,
55.0156250000,6,-0.2886353135,,,
55.0312500000,6,-0.3540649116,,,
55.0468750000,6,-0.4202271104,,,
55.0625000000,6,-0.4955444038,,,
55.0781250000,6,-0.5856934190,,,
55.0937500000,6,-0.7034912109,,,
55.1093750000,6,-0.8362426758,,,
55.1250000000,6,-0.9826049805,,,
55.1406250000,6,-1.1039429903,,,
55.1562500000,6,-1.1505739689,,,
55.1718750000,6,-1.0847170353,,,
55.1875000000,6,-0.8994750977,,,
55.2031250000,6,-0.6249390244,,,
55.2187500000,6,-0.3224487007,,,
55.2343750000,6,-0.0580444299,,,
55.2500000000,6,0.1252440959,,,
55.2656250000,6,0.2303466946,,,
55.2812500000,6,0.3005981147,,,
55.2968750000,6,0.4030151069,,,
55.3125000000,6,0.5831298828,,,
55.3281250000,6,0.8377686143,,,
55.3437500000,6,1.0895999670,,,
55.3593750000,6,1.2471920252,,,
55.3750000000,6,1.2327879667,,,
55.3906250000,6,1.0682369471,,,
55.4062500000,6,0.8523560166,,,
55.4218750000,6,0.7225341797,,,
55.4375000000,6,0.7654418945,,,
55.4531250000,6,0.9619750977,,,
55.4687500000,6,1.2096560001,,,
55.4843750000,6,1.3861689568,,,
55.5000000000,6,1.4400019646,,,
55.5156250000,6,1.4141240120,,,
55.5312500000,6,1.3975219727,,,
55.5468750000,6,1.4556269646,,,
55.5625000000,6,1.5785520077,,,
55.5781250000,6,1.6748659611,,,
55.5937500000,6,1.6558840275,,,
55.6093750000,6,1.5033570528,,,
55.6250000000,6,1.2744749784,,,
55.6406250000,6,1.0665889978,,,
55.6562500000,6,0.9411010742,,,
55.6718750000,6,0.8818969727,,,
55.6875000000,6,0.8054810166,,,
55.7031250000,6,0.6356201172,,,
55.7187500000,6,0.3507690132,,,
55.7343750000,6,0.0112915002,,,
55.7500000000,6,-0.2836304009,,,
55.7656250000,6,-0.4458008111,,,
55.7812500000,6,-0.4382934868,,,
55.7968750000,6,-0.3012695014,,,
55.8125000000,6,-0.1234131008,,,
55.8281250000,6,-0.0035400391,,,
55.8437500000,6,-0.0233764593,,,
55.8593750000,6,-0.2135010064,,,
55.8750000000,6,-0.5411986709,,,
55.8906250000,6,-0.9230347276,,,
55.9062500000,6,-1.2585450411,,,
55.9218750000,6,-1.4578859806,,,
55.9375000000,6,-1.4963990450,,,
55.9531250000,6,-1.3999630213,,,
55.9687500000,6,-1.2268069983,,,
55.9843750000,6,-1.0257569551,,,
56.0000000000,7,-0.8292847276,,,
56.0156250000,7,-0.6475219727,,,
56.0312500000,7,-0.5017089844,,,
56.0468750000,7,-0.4407958984,,,
56.0625000000,7,-0.5081787109,,,
56.0781250000,7,-0.7385864258,,,
56.0937500000,7,-1.0739749670,,,
56.1093750000,7,-1.3869019747,,,
56.1250000000,7,-1.5101319551,,,
56.1406250000,7,-1.3305050135,,,
56.1562500000,7,-0.8380126953,,,
56.1718750000,7,-0.1453247070,,,
56.1875000000,7,0.5574951172,,,
56.2031250000,7,1.1091309786,,,
56.2187500000,7,1.4260859489,,,
