Time:64Hz,Epoch,Channel 1,Event Id,Event Date,Event Duration
0.0000000000,0,1.1263890266,,,
0.0156250000,0,1.3683929443,,,
0.0312500000,0,1.2770689726,,,
0.0468750000,0,0.8373107910,,,
0.0625000000,0,0.2002411038,,,
0.0781250000,0,-0.4107055962,,,
0.0937500000,0,-0.7967072129,,,
0.1093750000,0,-0.8891754150,,,
0.1250000000,0,-0.7524567246,,,
0.1406250000,0,-0.5252532959,,,
0.1562500000,0,-0.3358306885,,,
0.1718750000,0,-0.2252044976,,,
0.1875000000,0,-0.1631470025,,,
0.2031250000,0,-0.0845794678,,,
0.2187500000,0,0.0377654992,,,
0.2343750000,0,0.1889190972,,,
0.2500000000,0,0.3006592095,,,
0.2656250000,0,0.3176270127,,,
0.2812500000,0,0.2345581055,,,
0.2968750000,0,0.0832519531,,,
0.3125000000,0,-0.0884246826,,,
0.3281250000,0,-0.2616730034,,,
0.3437500000,0,-0.4524841011,,,
0.3593750000,0,-0.6910552979,,,
0.3750000000,0,-0.9671326280,,,
0.3906250000,0,-1.2170259953,,,
0.4062500000,0,-1.3373570442,,,
0.4218750000,0,-1.2301789522,,,
0.4375000000,0,-0.8628540039,,,
0.4531250000,0,-0.2919312119,,,
0.4687500000,0,0.3285675049,,,
0.4843750000,0,0.8326569200,,,
0.5000000000,0,1.0996090174,,,
0.5156250000,0,1.1253809929,,,
0.5312500000,0,1.0071409941,,,
0.5468750000,0,0.8947905898,,,
0.5625000000,0,0.8844298720,,,
0.5781250000,0,0.9725800157,,,
0.5937500000,0,1.0694580078,,,
0.6093750000,0,1.0570679903,,,
0.6250000000,0,0.8679656982,,,
0.6406250000,0,0.5195770264,,,
0.6562500000,0,0.0982818604,,,
0.6718750000,0,-0.2928009033,,,
0.6875000000,0,-0.5791625977,,,
0.7031250000,0,-0.7344359756,,,
0.7187500000,0,-0.7684478760,,,
0.7343750000,0,-0.7023773193,,,
0.7500000000,0,-0.5626373291,,,
0.7656250000,0,-0.3801879883,,,
0.7812500000,0,-0.2043457031,,,
0.7968750000,0,-0.1051940992,,,
0.8125000000,0,-0.1276398003,,,
0.8281250000,0,-0.2733002007,,,
0.8437500000,0,-0.4786682129,,,
0.8593750000,0,-0.6571350098,,,
0.8750000000,0,-0.7336273193,,,
0.8906250000,0,-0.6795806885,,,
0.9062500000,0,-0.5164794922,,,
0.9218750000,0,-0.3009338081,,,
0.9375000000,0,-0.0845031664,,,
0.9531250000,0,0.1017151028,,,
0.9687500000,0,0.2507019043,,,
0.9843750000,0,0.3713684082,,,
1.0000000000,0,0.4576263130,,,
1.0156250000,0,0.5107727051,,,
1.0312500000,0,0.5137177110,,,
1.0468750000,0,0.4798279107,,,
1.0625000000,0,0.4204559028,,,
1.0781250000,0,0.3587645888,,,
1.0937500000,0,0.3066864014,,,
1.1093750000,0,0.2506560981,,,
1.1250000000,0,0.1530303955,,,
1.1406250000,0,-0.0105285598,,,
1.1562500000,0,-0.2389069051,,,
1.1718750000,0,-0.4907684028,,,
1.1875000000,0,-0.7053223252,,,
1.2031250000,0,-0.8221892715,,,
1.2187500000,0,-0.8104248047,,,
1.2343750000,0,-0.7010955811,,,
1.2500000000,0,-0.5511627197,,,
1.2656250000,0,-0.4306488037,,,
1.2812500000,0,-0.3608398139,,,
1.2968750000,0,-0.3243561089,,,
1.3125000000,0,-0.2660369873,,,
1.3281250000,0,-0.1540375054,,,
1.3437500000,0,-0.0088348389,,,
1.3593750000,0,0.0948181227,,,
1.3750000000,0,0.0676116869,,,
1.3906250000,0,-0.1234131008,,,
1.4062500000,0,-0.4231872857,,,
1.4218750000,0,-0.7034149170,,,
1.4375000000,0,-0.8188323975,,,
1.4531250000,0,-0.6952819824,,,
1.4687500000,0,-0.3707427979,,,
1.4843750000,0,0.0382080115,,,
1.5000000000,0,0.3793793023,,,
1.5156250000,0,0.5649108887,,,
1.5312500000,0,0.5981597900,,,
1.5468750000,0,0.5496367812,,,
1.5625000000,0,0.4984894097,,,
1.5781250000,0,0.4780121148,,,
1.5937500000,0,0.4699859917,,,
1.6093750000,0,0.4235992134,,,
1.6250000000,0,0.3211059868,,,
1.6406250000,0,0.2001800984,,,
1.6562500000,0,0.1474304050,,,
1.6718750000,0,0.2419891059,,,
1.6875000000,0,0.5019072890,,,
1.7031250000,0,0.8558806777,,,
1.7187500000,0,1.1723790169,,,
1.7343750000,0,1.3200229406,,,
1.7500000000,0,1.2463990450,,,
1.7656250000,0,0.9859313965,,,
1.7812500000,0,0.6563416123,,,
1.7968750000,0,0.3646545112,,,
1.8125000000,0,0.1705475003,,,
1.8281250000,0,0.0574645996,,,
1.8437500000,0,-0.0219726600,,,
1.8593750000,0,-0.1064148024,,,
1.8750000000,0,-0.1937866062,,,
1.8906250000,0,-0.2548981011,,,
1.9062500000,0,-0.2583923042,,,
1.9218750000,0,-0.2194976956,,,
1.9375000000,0,-0.1790314019,,,
1.9531250000,0,-0.1974335015,,,
1.9687500000,0,-0.3042449951,,,
1.9843750000,0,-0.4748077095,,,
2.0000000000,0,-0.6455535889,,,
2.0156250000,0,-0.7275543213,,,
2.0312500000,0,-0.6595001221,,,
2.0468750000,0,-0.4485473931,,,
2.0625000000,0,-0.1635742038,,,
2.0781250000,0,0.0848693773,,,
2.0937500000,0,0.2094573975,,,
2.1093750000,0,0.1694335938,,,
2.1250000000,0,0.0011444089,,,
2.1406250000,0,-0.2218170017,,,
2.1562500000,0,-0.4208221138,,,
2.1718750000,0,-0.5590209961,,,
2.1875000000,0,-0.6383666992,,,
2.2031250000,0,-0.6844177246,,,
2.2187500000,0,-0.7066649795,,,
2.2343750000,0,-0.6926574707,,,
2.2500000000,0,-0.6118164063,,,
2.2656250000,0,-0.4458923042,,,
2.2812500000,0,-0.1974335015,,,
2.2968750000,0,0.0979003906,,,
2.3125000000,0,0.4020232856,,,
2.3281250000,0,0.6855620742,,,
2.3437500000,0,0.9226378798,,,
2.3593750000,0,1.0702209473,,,
2.3750000000,0,1.0854489803,,,
2.3906250000,0,0.9321746826,,,
2.4062500000,0,0.6179503798,,,
2.4218750000,0,0.2132263035,,,
2.4375000000,0,-0.1523437947,,,
2.4531250000,0,-0.3494414985,,,
2.4687500000,0,-0.3049927056,,,
2.4843750000,0,-0.0528106689,,,
2.5000000000,0,0.2775878906,,,
2.5156250000,0,0.5180817246,,,
2.5312500000,0,0.5466309190,,,
2.5468750000,0,0.3582457900,,,
2.5625000000,0,0.0512390099,,,
2.5781250000,0,-0.2442626953,,,
2.5937500000,0,-0.4406737983,,,
2.6093750000,0,-0.5397949219,,,
2.6250000000,0,-0.6093750000,,,
2.6406250000,0,-0.7020264268,,,
2.6562500000,0,-0.8010253906,,,
2.6718750000,0,-0.8282166123,,,
2.6875000000,0,-0.7171478271,,,
2.7031250000,0,-0.4735718071,,,
2.7187500000,0,-0.1996764988,,,
2.7343750000,0,-0.0342102088,,,
2.7500000000,0,-0.0513763390,,,
2.7656250000,0,-0.2062835991,,,
2.7812500000,0,-0.3429259956,,,
2.7968750000,0,-0.3111267090,,,
2.8125000000,0,-0.0709381104,,,
2.8281250000,0,0.2829436958,,,
2.8437500000,0,0.5840607285,,,
2.8593750000,0,0.6980590820,,,
2.8750000000,0,0.6266632080,,,
2.8906250000,0,0.4904479980,,,
2.9062500000,0,0.4475403130,,,
2.9218750000,0,0.5926514268,,,
2.9375000000,0,0.9007874131,,,
2.9531250000,0,1.2581020594,,,
2.9687500000,0,1.5262149572,,,
2.9843750000,0,1.6168819666,,,
3.0000000000,0,1.5308840275,,,
3.0156250000,0,1.3207700253,,,
3.0312500000,0,1.0391240120,,,
3.0468750000,0,0.7144011855,,,
3.0625000000,0,0.3605042100,,,
3.0781250000,0,0.0017089840,,,
3.0937500000,0,-0.3221588135,,,
3.1093750000,0,-0.5607299805,,,
3.1250000000,0,-0.6983336806,,,
3.1406250000,0,-0.7695465088,,,
3.1562500000,0,-0.8552551270,,,
3.1718750000,0,-1.0260620117,,,
3.1875000000,0,-1.3085169792,,,
3.2031250000,0,-1.6429599524,,,
3.2187500000,0,-1.9136960506,,,
3.2343750000,0,-1.9982910156,,,
3.2500000000,0,-1.8408199549,,,
3.2656250000,0,-1.4869689941,,,
3.2812500000,0,-1.0594480038,,,
3.2968750000,0,-0.7047119141,,,
3.3125000000,0,-0.5055388808,,,
3.3281250000,0,-0.4494476020,,,
3.3437500000,0,-0.4513854980,,,
3.3593750000,0,-0.3991240859,,,
3.3750000000,0,-0.2043152004,,,
3.3906250000,0,0.1399841011,,,
3.4062500000,0,0.5549011230,,,
3.4218750000,0,0.9116210938,,,
3.4375000000,0,1.0876920223,,,
3.4531250000,0,1.0172729492,,,
3.4687500000,0,0.7239838243,,,
3.4843750000,0,0.2990112007,,,
3.5000000000,0,-0.1204224005,,,
3.5156250000,0,-0.4110870063,,,
3.5312500000,0,-0.5008698106,,,
3.5468750000,0,-0.3875885010,,,
3.5625000000,0,-0.1393889934,,,
3.5781250000,0,0.1479033977,,,
3.5937500000,0,0.3850403130,,,
3.6093750000,0,0.5187531114,,,
3.6250000000,0,0.5454558730,,,
3.6406250000,0,0.4924010932,,,
3.6562500000,0,0.3938140869,,,
3.6718750000,0,0.2790985107,,,
3.6875000000,0,0.1719055027,,,
3.7031250000,0,0.1015167013,,,
3.7187500000,0,0.0933075026,,,
3.7343750000,0,0.1508025974,,,
3.7500000000,0,0.2335968018,,,
3.7656250000,0,0.2837066948,,,
3.7812500000,0,0.2494506985,,,
3.7968750000,0,0.1196288988,,,
3.8125000000,0,-0.0492401086,,,
3.8281250000,0,-0.1567229927,,,
3.8437500000,0,-0.1325836033,,,
3.8593750000,0,0.0256195106,,,
3.8750000000,0,0.2282256931,,,
3.8906250000,0,0.3638916016,,,
3.9062500000,0,0.3440398872,,,
3.9218750000,0,0.1623840034,,,
3.9375000000,0,-0.1087952033,,,
3.9531250000,0,-0.3711394966,,,
3.9687500000,0,-0.5462188721,,,
3.9843750000,0,-0.5986328125,,,
4.0000000000,0,-0.5278931260,,,
4.0156250000,0,-0.3552246094,,,
4.0312500000,0,-0.1231383979,,,
4.0468750000,0,0.1107940972,,,
4.0625000000,0,0.2751159966,,,
4.0781250000,0,0.3148804009,,,
4.0937500000,0,0.2132111043,,,
4.1093750000,0,0.0232543908,,,
4.1250000000,0,-0.1606445014,,,
4.1406250000,0,-0.2679595947,,,
4.1562500000,0,-0.2775268853,,,
4.1718750000,0,-0.2409362942,,,
4.1875000000,0,-0.2479400933,,,
4.2031250000,0,-0.3494262993,,,
4.2187500000,0,-0.5227661133,,,
4.2343750000,0,-0.6723632813,,,
4.2500000000,0,-0.7052764893,,,
4.2656250000,0,-0.5686492920,,,
4.2812500000,0,-0.2910003960,,,
4.2968750000,0,0.0487365685,,,
4.3125000000,0,0.3694762886,,,
4.3281250000,0,0.6146544814,,,
4.3437500000,0,0.7725830078,,,
4.3593750000,0,0.8437653184,,,
4.3750000000,0,0.8309020996,,,
4.3906250000,0,0.7185363770,,,
4.4062500000,0,0.4866791070,,,
4.4218750000,0,0.1402893066,,,
4.4375000000,0,-0.2796173096,,,
4.4531250000,0,-0.6845551133,,,
4.4687500000,0,-0.9727020264,,,
4.4843750000,0,-1.0730129480,,,
4.5000000000,0,-0.9840850830,,,
4.5156250000,0,-0.7706146240,,,
4.5312500000,0,-0.5391845703,,,
4.5468750000,0,-0.3653411865,,,
4.5625000000,0,-0.2801207900,,,
4.5781250000,0,-0.2412261963,,,
4.5937500000,0,-0.1971435994,,,
4.6093750000,0,-0.1042328030,,,
4.6250000000,0,0.0408477783,,,
4.6406250000,0,0.2097778022,,,
4.6562500000,0,0.3742065132,,,
4.6718750000,0,0.5408173203,,,
4.6875000000,0,0.7290955186,,,
4.7031250000,0,0.9413604736,,,
4.7187500000,0,1.1343990564,,,
4.7343750000,0,1.2245179415,,,
4.7500000000,0,1.1338649988,,,
4.7656250000,0,0.8595886230,,,
4.7812500000,0,0.4782561958,,,
4.7968750000,0,0.1349640042,,,
4.8125000000,0,-0.0500946008,,,
4.8281250000,0,-0.0477294885,,,
4.8437500000,0,0.0891418532,,,
4.8593750000,0,0.2427978963,,,
4.8750000000,0,0.3182983100,,,
4.8906250000,0,0.2769927979,,,
4.9062500000,0,0.1459503025,,,
4.9218750000,0,-0.0062408452,,,
4.9375000000,0,-0.1181640998,,,
4.9531250000,0,-0.1772765964,,,
4.9687500000,0,-0.2092133015,,,
4.9843750000,0,-0.2512665093,,,
5.0000000000,0,-0.3175506890,,,
5.0156250000,0,-0.3820038140,,,
5.0312500000,0,-0.3894348145,,,
5.0468750000,0,-0.2789764106,,,
5.0625000000,0,-0.0329437293,,,
5.0781250000,0,0.3316498101,,,
5.0937500000,0,0.7375946045,,,
5.1093750000,0,1.0968170166,,,
5.1250000000,0,1.3286900520,,,
5.1406250000,0,1.3921509981,,,
5.1562500000,0,1.2857359648,,,
5.1718750000,0,1.0488590002,,,
5.1875000000,0,0.7278441787,,,
5.2031250000,0,0.3768768013,,,
5.2187500000,0,0.0425567590,,,
5.2343750000,0,-0.2301483005,,,
5.2500000000,0,-0.4012756050,,,
5.2656250000,0,-0.4568938911,,,
5.2812500000,0,-0.4094085991,,,
5.2968750000,0,-0.3076171875,,,
5.3125000000,0,-0.2130126953,,,
5.3281250000,0,-0.1927642971,,,
5.3437500000,0,-0.2797240913,,,
5.3593750000,0,-0.4631958008,,,
5.3750000000,0,-0.6957855225,,,
5.3906250000,0,-0.9067534804,,,
5.4062500000,0,-1.0218659639,,,
5.4218750000,0,-1.0131069422,,,
5.4375000000,0,-0.8826293945,,,
5.4531250000,0,-0.6715393066,,,
5.4687500000,0,-0.4231415093,,,
5.4843750000,0,-0.1919402927,,,
5.5000000000,0,-0.0236816406,,,
5.5156250000,0,0.0425262488,,,
5.5312500000,0,-0.0037231450,,,
5.5468750000,0,-0.1353455037,,,
5.5625000000,0,-0.2843933105,,,
5.5781250000,0,-0.3544312119,,,
5.5937500000,0,-0.2874602973,,,
5.6093750000,0,-0.0893096924,,,
5.6250000000,0,0.1579589993,,,
5.6406250000,0,0.3343505859,,,
5.6562500000,0,0.3534241021,,,
5.6718750000,0,0.2256622016,,,
5.6875000000,0,0.0405883789,,,
5.7031250000,0,-0.0782318115,,,
5.7187500000,0,-0.0540161096,,,
5.7343750000,0,0.0909729004,,,
5.7500000000,0,0.2772674859,,,
5.7656250000,0,0.4114226997,,,
5.7812500000,0,0.4639129937,,,
5.7968750000,0,0.4635773003,,,
5.8125000000,0,0.4701232910,,,
5.8281250000,0,0.5021820068,,,
5.8437500000,0,0.5270537734,,,
5.8593750000,0,0.4853209853,,,
5.8750000000,0,0.3362731934,,,
5.8906250000,0,0.0918121263,,,
5.9062500000,0,-0.1767272949,,,
5.9218750000,0,-0.3974761963,,,
5.9375000000,0,-0.5311126709,,,
5.9531250000,0,-0.6259918213,,,
5.9687500000,0,-0.7495574951,,,
5.9843750000,0,-0.9534606934,,,
6.0000000000,0,-1.2142330408,,,
6.0156250000,0,-1.4241329432,,,
6.0312500000,0,-1.4478909969,,,
6.0468750000,0,-1.2022399902,,,
6.0625000000,0,-0.7055969238,,,
6.0781250000,0,-0.0798187330,,,
6.0937500000,0,0.5015106201,,,
6.1093750000,0,0.9060822129,,,
6.1250000000,0,1.0750429630,,,
6.1406250000,0,1.0309749842,,,
6.1562500000,0,0.8392943740,,,
6.1718750000,0,0.5784301758,,,
6.1875000000,0,0.3087157905,,,
6.2031250000,0,0.0719299316,,,
6.2187500000,0,-0.0912475586,,,
6.2343750000,0,-0.1571960002,,,
6.2500000000,0,-0.1096191034,,,
6.2656250000,0,0.0187835693,,,
6.2812500000,0,0.1493224949,,,
6.2968750000,0,0.1968079060,,,
6.3125000000,0,0.1017455980,,,
6.3281250000,0,-0.1050873026,,,
6.3437500000,0,-0.3236388862,,,
6.3593750000,0,-0.4267883003,,,
6.3750000000,0,-0.3298034966,,,
6.3906250000,0,-0.0408325195,,,
6.4062500000,0,0.3389587104,,,
6.4218750000,0,0.6482238770,,,
6.4375000000,0,0.7665405273,,,
6.4531250000,0,0.6413878798,,,
6.4687500000,0,0.3249053955,,,
6.4843750000,0,-0.0554199181,,,
6.5000000000,0,-0.3488770127,,,
6.5156250000,0,-0.4621429145,,,
6.5312500000,0,-0.3709106147,,,
6.5468750000,0,-0.1209869012,,,
6.5625000000,0,0.2040099949,,,
6.5781250000,0,0.5251770020,,,
6.5937500000,0,0.7555695176,,,
6.6093750000,0,0.8364562988,,,
6.6250000000,0,0.7324829102,,,
6.6406250000,0,0.4747008979,,,
6.6562500000,0,0.1488800049,,,
6.6718750000,0,-0.1097259969,,,
6.6875000000,0,-0.1897583008,,,
6.7031250000,0,-0.0582733192,,,
6.7187500000,0,0.2119904011,,,
6.7343750000,0,0.4622955024,,,
6.7500000000,0,0.5388336182,,,
6.7656250000,0,0.3602142036,,,
6.7812500000,0,-0.0251770001,,,
6.7968750000,0,-0.4618682861,,,
6.8125000000,0,-0.7776641846,,,
6.8281250000,0,-0.8610687256,,,
6.8437500000,0,-0.7039794922,,,
6.8593750000,0,-0.4194335938,,,
6.8750000000,0,-0.1730803996,,,
6.8906250000,0,-0.1069488972,,,
6.9062500000,0,-0.2826538086,,,
6.9218750000,0,-0.6545104980,,,
6.9375000000,0,-1.0811159611,,,
6.9531250000,0,-1.3947299719,,,
6.9687500000,0,-1.4670410156,,,
6.9843750000,0,-1.2758940458,,,
7.0000000000,0,-0.8893280029,,,
7.0156250000,0,-0.4268035889,,,
7.0312500000,0,-0.0000457764,,,
7.0468750000,0,0.3426971138,,,
7.0625000000,0,0.5962371826,,,
7.0781250000,0,0.7923583984,,,
7.0937500000,0,0.9424591064,,,
7.1093750000,0,1.0280760527,,,
7.1250000000,0,1.0032199621,,,
7.1406250000,0,0.8303679824,,,
7.1562500000,0,0.5232238770,,,
7.1718750000,0,0.1423645020,,,
7.1875000000,0,-0.2189483941,,,
7.2031250000,0,-0.4718017876,,,
7.2187500000,0,-0.5758820176,,,
7.2343750000,0,-0.5498961806,,,
7.2500000000,0,-0.4410857856,,,
7.2656250000,0,-0.3188171089,,,
7.2812500000,0,-0.2039490044,,,
7.2968750000,0,-0.0682372972,,,
7.3125000000,0,0.1590729058,,,
7.3281250000,0,0.5341339111,,,
7.3437500000,0,1.0468599796,,,
7.3593750000,0,1.5812840462,,,
7.3750000000,0,1.9596710205,,,
7.3906250000,0,2.0222170353,,,
7.4062500000,0,1.7092740536,,,
7.4218750000,0,1.1057889462,,,
7.4375000000,0,0.4133147895,,,
7.4531250000,0,-0.1575164944,,,
7.4687500000,0,-0.4444122016,,,
7.4843750000,0,-0.4272918999,,,
7.5000000000,0,-0.2113495022,,,
7.5156250000,0,0.0438537598,,,
7.5312500000,0,0.1796416938,,,
7.5468750000,0,0.1227416992,,,
7.5625000000,0,-0.1105957031,,,
7.5781250000,0,-0.4346008003,,,
7.5937500000,0,-0.7243499756,,,
7.6093750000,0,-0.8593903184,,,
7.6250000000,0,-0.7875061035,,,
7.6406250000,0,-0.5336151123,,,
7.6562500000,0,-0.1773224026,,,
7.6718750000,0,0.1411132962,,,
7.6875000000,0,0.3077087104,,,
7.7031250000,0,0.2607116997,,,
7.7187500000,0,0.0126190204,,,
7.7343750000,0,-0.3676910102,,,
7.7500000000,0,-0.7727813721,,,
7.7656250000,0,-1.1190639734,,,
7.7812500000,0,-1.3364260197,,,
7.7968750000,0,-1.3861240149,,,
7.8125000000,0,-1.2732850313,,,
7.8281250000,0,-1.0195770264,,,
7.8437500000,0,-0.6662750244,,,
7.8593750000,0,-0.2518157959,,,
7.8750000000,0,0.1848450005,,,
7.8906250000,0,0.6044005752,,,
7.9062500000,0,0.9531707764,,,
7.9218750000,0,1.1650240421,,,
7.9375000000,0,1.1838530302,,,
7.9531250000,0,0.9859771729,,,
7.9687500000,0,0.6354979873,,,
7.9843750000,0,0.2396851033,,,
8.0000000000,1,-0.0869445801,,,
8.0156250000,1,-0.2847136855,,,
8.0312500000,1,-0.3820495903,,,
8.0468750000,1,-0.4651488960,,,
8.0625000000,1,-0.5989531875,,,
8.0781250000,1,-0.7750092149,,,
8.0937500000,1,-0.9378051758,,,
8.1093750000,1,-0.9964141846,,,
8.1250000000,1,-0.9379882813,,,
8.1406250000,1,-0.8175048828,,,
8.1562500000,1,-0.7035217285,,,
8.1718750000,1,-0.6320496202,,,
8.1875000000,1,-0.5510253906,,,
8.2031250000,1,-0.3722229004,,,
8.2187500000,1,-0.0516357385,,,
8.2343750000,1,0.3652344048,,,
8.2500000000,1,0.7697600722,,,
8.2656250000,1,1.0262149572,,,
8.2812500000,1,1.0707399845,,,
8.2968750000,1,0.9332122803,,,
8.3125000000,1,0.7034301758,,,
8.3281250000,1,0.4842987061,,,
8.3437500000,1,0.3407439888,,,
8.3593750000,1,0.2928771973,,,
8.3750000000,1,0.3182525933,,,
8.3906250000,1,0.3865050972,,,
8.4062500000,1,0.4666900933,,,
8.4218750000,1,0.5189362168,,,
8.4375000000,1,0.5045319200,,,
8.4531250000,1,0.3904724121,,,
8.4687500000,1,0.1815185994,,,
8.4843750000,1,-0.0789947510,,,
8.5000000000,1,-0.3126525879,,,
8.5156250000,1,-0.4411011040,,,
8.5312500000,1,-0.4138031006,,,
8.5468750000,1,-0.2388457954,,,
8.5625000000,1,0.0246887207,,,
8.5781250000,1,0.3097229004,,,
8.5937500000,1,0.5306243896,,,
8.6093750000,1,0.6470947266,,,
8.6250000000,1,0.6348419189,,,
8.6406250000,1,0.5123596191,,,
8.6562500000,1,0.3170928955,,,
8.6718750000,1,0.0970001221,,,
8.6875000000,1,-0.1080932990,,,
8.7031250000,1,-0.2543030083,,,
8.7187500000,1,-0.3151093125,,,
8.7343750000,1,-0.2715302110,,,
8.7500000000,1,-0.1208800972,,,
8.7656250000,1,0.1113891974,,,
8.7812500000,1,0.3748778999,,,
8.7968750000,1,0.6118317246,,,
8.8125000000,1,0.7673950195,,,
8.8281250000,1,0.8133698106,,,
8.8437500000,1,0.7517395020,,,
8.8593750000,1,0.6082611084,,,
8.8750000000,1,0.4121246040,,,
8.8906250000,1,0.1989898980,,,
8.9062500000,1,0.0093383789,,,
8.9218750000,1,-0.1278381050,,,
8.9375000000,1,-0.1959839016,,,
8.9531250000,1,-0.2089080960,,,
8.9687500000,1,-0.2132263035,,,
8.9843750000,1,-0.2639771104,,,
9.0000000000,1,-0.3986052871,,,
9.0156250000,1,-0.5933074951,,,
9.0312500000,1,-0.7695922852,,,
9.0468750000,1,-0.8347777724,,,
9.0625000000,1,-0.7546691895,,,
9.0781250000,1,-0.5761718750,,,
9.0937500000,1,-0.4147490859,,,
9.1093750000,1,-0.3728942871,,,
9.1250000000,1,-0.4815979004,,,
9.1406250000,1,-0.6667633057,,,
9.1562500000,1,-0.8068389893,,,
9.1718750000,1,-0.8000946045,,,
9.1875000000,1,-0.6423798203,,,
9.2031250000,1,-0.4105682075,,,
9.2187500000,1,-0.2032471001,,,
9.2343750000,1,-0.0902404785,,,
9.2500000000,1,-0.0661010668,,,
9.2656250000,1,-0.0768432617,,,
9.2812500000,1,-0.0886383131,,,
9.2968750000,1,-0.1039275974,,,
9.3125000000,1,-0.1622467041,,,
9.3281250000,1,-0.2959595025,,,
9.3437500000,1,-0.4719085991,,,
9.3593750000,1,-0.5990753174,,,
9.3750000000,1,-0.5800322890,,,
9.3906250000,1,-0.3797149956,,,
9.4062500000,1,-0.0476379395,,,
9.4218750000,1,0.2881470025,,,
9.4375000000,1,0.4965057075,,,
9.4531250000,1,0.5062103271,,,
9.4687500000,1,0.3287810981,,,
9.4843750000,1,0.0600585900,,,
9.5000000000,1,-0.1909943074,,,
9.5156250000,1,-0.3363952935,,,
9.5312500000,1,-0.3269348145,,,
9.5468750000,1,-0.1748047024,,,
9.5625000000,1,0.0713500977,,,
9.5781250000,1,0.3363952935,,,
9.5937500000,1,0.5508422852,,,
9.6093750000,1,0.6736298203,,,
9.6250000000,1,0.7061614990,,,
9.6406250000,1,0.6878967285,,,
9.6562500000,1,0.6554871202,,,
9.6718750000,1,0.6174468994,,,
9.6875000000,1,0.5220795274,,,
9.7031250000,1,0.2961120903,,,
9.7187500000,1,-0.0972442627,,,
9.7343750000,1,-0.6294403076,,,
9.7500000000,1,-1.1840519905,,,
9.7656250000,1,-1.6091920137,,,
9.7812500000,1,-1.7939000130,,,
9.7968750000,1,-1.7039639950,,,
9.8125000000,1,-1.3765870333,,,
9.8281250000,1,-0.9098052979,,,
9.8437500000,1,-0.3896178901,,,
9.8593750000,1,0.1217193976,,,
9.8750000000,1,0.5746765137,,,
9.8906250000,1,0.9187163711,,,
9.9062500000,1,1.1121369600,,,
9.9218750000,1,1.1234890223,,,
9.9375000000,1,0.9580078125,,,
9.9531250000,1,0.6655120850,,,
9.9687500000,1,0.3328551948,,,
9.9843750000,1,0.0529480018,,,
10.0000000000,1,-0.0993652269,,,
10.0156250000,1,-0.0975494385,,,
10.0312500000,1,0.0495147705,,,
10.0468750000,1,0.2964478135,,,
10.0625000000,1,0.5983123779,,,
10.0781250000,1,0.9094542861,,,
10.0937500000,1,1.1891169548,,,
10.1093750000,1,1.4042359591,,,
10.1250000000,1,1.5170589685,,,
10.1406250000,1,1.5064699650,,,
10.1562500000,1,1.3701020479,,,
10.1718750000,1,1.1272579432,,,
10.1875000000,1,0.7989044189,,,
10.2031250000,1,0.4174500108,,,
10.2187500000,1,0.0172576904,,,
10.2343750000,1,-0.3596802056,,,
10.2500000000,1,-0.6626129150,,,
10.2656250000,1,-0.8447875977,,,
10.2812500000,1,-0.8854827881,,,
10.2968750000,1,-0.8159027100,,,
10.3125000000,1,-0.7011566162,,,
10.3281250000,1,-0.6145629883,,,
10.3437500000,1,-0.6051787734,,,
10.3593750000,1,-0.6518250108,,,
10.3750000000,1,-0.6847075820,,,
10.3906250000,1,-0.6226044297,,,
10.4062500000,1,-0.4318999946,,,
10.4218750000,1,-0.1552733928,,,
10.4375000000,1,0.1040038988,,,
10.4531250000,1,0.2337799072,,,
10.4687500000,1,0.1729125977,,,
10.4843750000,1,-0.0653228834,,,
10.5000000000,1,-0.3874816895,,,
10.5156250000,1,-0.6736450195,,,
10.5312500000,1,-0.8073120117,,,
10.5468750000,1,-0.7319030762,,,
10.5625000000,1,-0.4739379883,,,
10.5781250000,1,-0.1121978983,,,
10.5937500000,1,0.2429046929,,,
10.6093750000,1,0.5220795274,,,
10.6250000000,1,0.7124938965,,,
10.6406250000,1,0.8540344238,,,
10.6562500000,1,0.9964600205,,,
10.6718750000,1,1.1454770565,,,
10.6875000000,1,1.2448730469,,,
10.7031250000,1,1.2134859562,,,
10.7187500000,1,1.0070650578,,,
10.7343750000,1,0.6442565918,,,
10.7500000000,1,0.2015533000,,,
10.7656250000,1,-0.2281188965,,,
10.7812500000,1,-0.5749816895,,,
10.7968750000,1,-0.8363953233,,,
10.8125000000,1,-1.0308840275,,,
10.8281250000,1,-1.1718750000,,,
10.8437500000,1,-1.2544100285,,,
10.8593750000,1,-1.2503050566,,,
10.8750000000,1,-1.1552580595,,,
10.8906250000,1,-0.9866638184,,,
10.9062500000,1,-0.8053894043,,,
10.9218750000,1,-0.6813812256,,,
10.9375000000,1,-0.6477050781,,,
10.9531250000,1,-0.6953125000,,,
10.9687500000,1,-0.7593842149,,,
10.9843750000,1,-0.7655181885,,,
11.0000000000,1,-0.6530150771,,,
11.0156250000,1,-0.4265289009,,,
11.0312500000,1,-0.1403809041,,,
11.0468750000,1,0.1084441990,,,
11.0625000000,1,0.2279815972,,,
11.0781250000,1,0.1884766072,,,
11.0937500000,1,0.0460662805,,,
11.1093750000,1,-0.0568237305,,,
11.1250000000,1,0.0167694092,,,
11.1406250000,1,0.3289184868,,,
11.1562500000,1,0.8122406006,,,
11.1718750000,1,1.3103940487,,,
11.1875000000,1,1.6393280029,,,
11.2031250000,1,1.6799160242,,,
11.2187500000,1,1.4166870117,,,
11.2343750000,1,0.9319763184,,,
11.2500000000,1,0.3726654053,,,
11.2656250000,1,-0.1287689060,,,
11.2812500000,1,-0.4512786865,,,
11.2968750000,1,-0.5529479980,,,
11.3125000000,1,-0.4607085884,,,
11.3281250000,1,-0.2720032036,,,
11.3437500000,1,-0.0954589769,,,
11.3593750000,1,-0.0060577388,,,
11.3750000000,1,-0.0179443397,,,
11.3906250000,1,-0.0601654090,,,
11.4062500000,1,-0.0453643799,,,
11.4218750000,1,0.0794830322,,,
11.4375000000,1,0.3069916070,,,
11.4531250000,1,0.5612487793,,,
11.4687500000,1,0.7473297119,,,
11.4843750000,1,0.8100128174,,,
11.5000000000,1,0.7670593262,,,
11.5156250000,1,0.6754302979,,,
11.5312500000,1,0.5973510742,,,
11.5468750000,1,0.5594481826,,,
11.5625000000,1,0.5518341064,,,
11.5781250000,1,0.5450897217,,,
11.5937500000,1,0.5233765244,,,
11.6093750000,1,0.5097504258,,,
11.6250000000,1,0.5334320068,,,
11.6406250000,1,0.6224213243,,,
11.6562500000,1,0.7461699843,,,
11.6718750000,1,0.8506317139,,,
11.6875000000,1,0.8426666260,,,
11.7031250000,1,0.6598206162,,,
11.7187500000,1,0.2722167969,,,
11.7343750000,1,-0.2687987983,,,
11.7500000000,1,-0.8395844102,,,
11.7656250000,1,-1.3027499914,,,
11.7812500000,1,-1.5312960148,,,
11.7968750000,1,-1.4915009737,,,
11.8125000000,1,-1.2303919792,,,
11.8281250000,1,-0.8619080186,,,
11.8437500000,1,-0.4951323867,,,
11.8593750000,1,-0.2013701946,,,
11.8750000000,1,0.0024261470,,,
11.8906250000,1,0.1320037991,,,
11.9062500000,1,0.2005919963,,,
11.9218750000,1,0.1987610012,,,
11.9375000000,1,0.1112060994,,,
11.9531250000,1,-0.0467987098,,,
11.9687500000,1,-0.2196349949,,,
11.9843750000,1,-0.3419494927,,,
12.0000000000,1,-0.3634032905,,,
12.0156250000,1,-0.2860718071,,,
12.0312500000,1,-0.1743011028,,,
12.0468750000,1,-0.0949859619,,,
12.0625000000,1,-0.0658874512,,,
12.0781250000,1,-0.0420074500,,,
12.0937500000,1,0.0382690392,,,
12.1093750000,1,0.2086638957,,,
12.1250000000,1,0.4114837945,,,
12.1406250000,1,0.5473632813,,,
12.1562500000,1,0.5200806260,,,
12.1718750000,1,0.3416748047,,,
12.1875000000,1,0.1217345968,,,
12.2031250000,1,0.0249176007,,,
12.2187500000,1,0.1525420994,,,
12.2343750000,1,0.4771271050,,,
12.2500000000,1,0.8427124023,,,
12.2656250000,1,1.0463409424,,,
12.2812500000,1,0.9659423828,,,
12.2968750000,1,0.6048737168,,,
12.3125000000,1,0.1006011963,,,
12.3281250000,1,-0.3716278076,,,
12.3437500000,1,-0.6836853027,,,
12.3593750000,1,-0.7972260118,,,
12.3750000000,1,-0.7644957900,,,
12.3906250000,1,-0.6765136719,,,
12.4062500000,1,-0.6168671250,,,
12.4218750000,1,-0.6344910264,,,
12.4375000000,1,-0.7447357178,,,
12.4531250000,1,-0.9331511855,,,
12.4687500000,1,-1.1484220028,,,
12.4843750000,1,-1.3314670324,,,
12.5000000000,1,-1.4102629423,,,
12.5156250000,1,-1.3536380529,,,
12.5312500000,1,-1.1945949793,,,
12.5468750000,1,-1.0179899931,,,
12.5625000000,1,-0.9177399278,,,
12.5781250000,1,-0.9212188721,,,
12.5937500000,1,-0.9873809814,,,
12.6093750000,1,-1.0174870491,,,
12.6250000000,1,-0.9233245850,,,
12.6406250000,1,-0.6936646104,,,
12.6562500000,1,-0.3923797905,,,
12.6718750000,1,-0.1018218994,,,
12.6875000000,1,0.1219787970,,,
12.7031250000,1,0.2885132134,,,
12.7187500000,1,0.4496613145,,,
12.7343750000,1,0.6274414063,,,
12.7500000000,1,0.7827454209,,,
12.7656250000,1,0.8307800293,,,
12.7812500000,1,0.7263031006,,,
12.7968750000,1,0.5065001845,,,
12.8125000000,1,0.3155212104,,,
12.8281250000,1,0.3069458008,,,
12.8437500000,1,0.5488739014,,,
12.8593750000,1,0.9624633789,,,
12.8750000000,1,1.3579560518,,,
12.8906250000,1,1.5475159883,,,
12.9062500000,1,1.4567409754,,,
12.9218750000,1,1.1611789465,,,
12.9375000000,1,0.8103333116,,,
12.9531250000,1,0.5464630127,,,
12.9687500000,1,0.4089660943,,,
12.9843750000,1,0.3135375977,,,
13.0000000000,1,0.1601562947,,,
13.0156250000,1,-0.1161957011,,,
13.0312500000,1,-0.4851531982,,,
13.0468750000,1,-0.8446044922,,,
13.0625000000,1,-1.1047060490,,,
13.0781250000,1,-1.2218480110,,,
13.0937500000,1,-1.2258909941,,,
13.1093750000,1,-1.1830439568,,,
13.1250000000,1,-1.1324770451,,,
13.1406250000,1,-1.0620119572,,,
13.1562500000,1,-0.9224091172,,,
13.1718750000,1,-0.6679688096,,,
13.1875000000,1,-0.3031463921,,,
13.2031250000,1,0.1200103983,,,
13.2187500000,1,0.5124207139,,,
13.2343750000,1,0.7914276123,,,
13.2500000000,1,0.9087830186,,,
13.2656250000,1,0.8637390137,,,
13.2812500000,1,0.7094116211,,,
13.2968750000,1,0.5102844238,,,
13.3125000000,1,0.3502807915,,,
13.3281250000,1,0.2750701904,,,
13.3437500000,1,0.3063353896,,,
13.3593750000,1,0.4199523926,,,
13.3750000000,1,0.5831757188,,,
13.3906250000,1,0.7328032851,,,
13.4062500000,1,0.7941741943,,,
13.4218750000,1,0.7035369873,,,
13.4375000000,1,0.4205474854,,,
13.4531250000,1,-0.0225982703,,,
13.4687500000,1,-0.5257720947,,,
13.4843750000,1,-0.9415587783,,,
13.5000000000,1,-1.1348110437,,,
13.5156250000,1,-1.0335079432,,,
13.5312500000,1,-0.6701354980,,,
13.5468750000,1,-0.1524962932,,,
13.5625000000,1,0.3688353896,,,
13.5781250000,1,0.7529144287,,,
13.5937500000,1,0.9216156006,,,
13.6093750000,1,0.8535004258,,,
13.6250000000,1,0.5909729004,,,
13.6406250000,1,0.2181396037,,,
13.6562500000,1,-0.1371002048,,,
13.6718750000,1,-0.3558959961,,,
13.6875000000,1,-0.3609467149,,,
13.7031250000,1,-0.1495971978,,,
13.7187500000,1,0.1965941936,,,
13.7343750000,1,0.5537108779,,,
13.7500000000,1,0.8141021729,,,
13.7656250000,1,0.9510040283,,,
13.7812500000,1,1.0016020536,,,
13.7968750000,1,1.0116269588,,,
13.8125000000,1,1.0032650232,,,
13.8281250000,1,0.9313353896,,,
13.8437500000,1,0.7571259141,,,
13.8593750000,1,0.4783630073,,,
13.8750000000,1,0.1663970947,,,
13.8906250000,1,-0.0934753418,,,
13.9062500000,1,-0.2516632080,,,
13.9218750000,1,-0.3316344917,,,
13.9375000000,1,-0.4049682915,,,
13.9531250000,1,-0.5246582031,,,
13.9687500000,1,-0.6983184814,,,
13.9843750000,1,-0.8533325195,,,
14.0000000000,1,-0.9078521729,,,
14.0156250000,1,-0.8009185791,,,
14.0312500000,1,-0.5515747070,,,
14.0468750000,1,-0.2339020073,,,
14.0625000000,1,0.0468902588,,,
14.0781250000,1,0.2027588040,,,
14.0937500000,1,0.2008056939,,,
14.1093750000,1,0.0906829834,,,
14.1250000000,1,-0.0323333703,,,
14.1406250000,1,-0.0791320801,,,
14.1562500000,1,-0.0205383301,,,
14.1718750000,1,0.0902404785,,,
14.1875000000,1,0.1506652981,,,
14.2031250000,1,0.0845184326,,,
14.2187500000,1,-0.0968322828,,,
14.2343750000,1,-0.2739715874,,,
14.2500000000,1,-0.3052367866,,,
14.2656250000,1,-0.1066436991,,,
14.2812500000,1,0.2644348145,,,
14.2968750000,1,0.6276702881,,,
14.3125000000,1,0.7875061035,,,
14.3281250000,1,0.6367493272,,,
14.3437500000,1,0.2232055962,,,
14.3593750000,1,-0.2996825874,,,
14.3750000000,1,-0.7490386963,,,
14.3906250000,1,-1.0233759880,,,
14.4062500000,1,-1.1266020536,,,
14.4218750000,1,-1.1191250086,,,
14.4375000000,1,-1.0596469641,,,
14.4531250000,1,-0.9322052002,,,
14.4687500000,1,-0.6990814209,,,
14.4843750000,1,-0.3348999023,,,
14.5000000000,1,0.0993957520,,,
14.5156250000,1,0.4797667861,,,
14.5312500000,1,0.6567078233,,,
14.5468750000,1,0.5555419922,,,
14.5625000000,1,0.2301331013,,,
14.5781250000,1,-0.1366882026,,,
14.5937500000,1,-0.3434601128,,,
14.6093750000,1,-0.2652587891,,,
14.6250000000,1,0.0632781982,,,
14.6406250000,1,0.4625701904,,,
14.6562500000,1,0.7104644775,,,
14.6718750000,1,0.6668395996,,,
14.6875000000,1,0.3471221924,,,
14.7031250000,1,-0.0834655836,,,
14.7187500000,1,-0.4334106147,,,
14.7343750000,1,-0.5784149170,,,
14.7500000000,1,-0.5353698730,,,
14.7656250000,1,-0.4131165147,,,
14.7812500000,1,-0.3181610107,,,
14.7968750000,1,-0.2710418999,,,
14.8125000000,1,-0.2063446045,,,
14.8281250000,1,-0.0464172401,,,
14.8437500000,1,0.2186432034,,,
14.8593750000,1,0.5016937256,,,
14.8750000000,1,0.6708374023,,,
14.8906250000,1,0.6263579726,,,
14.9062500000,1,0.3695374131,,,
14.9218750000,1,0.0009155273,,,
14.9375000000,1,-0.3536530137,,,
14.9531250000,1,-0.6103057861,,,
14.9687500000,1,-0.7465515137,,,
14.9843750000,1,-0.7883300781,,,
15.0000000000,1,-0.7807769775,,,
15.0156250000,1,-0.7499237061,,,
15.0312500000,1,-0.6976013184,,,
15.0468750000,1,-0.6249846816,,,
15.0625000000,1,-0.5313873291,,,
15.0781250000,1,-0.4134674072,,,
15.0937500000,1,-0.2581329048,,,
15.1093750000,1,-0.0711517334,,,
15.1250000000,1,0.1342926025,,,
15.1406250000,1,0.3301239014,,,
15.1562500000,1,0.4987640083,,,
15.1718750000,1,0.6543884277,,,
15.1875000000,1,0.8292083740,,,
15.2031250000,1,1.0436400175,,,
15.2187500000,1,1.2610780001,,,
15.2343750000,1,1.4036409855,,,
15.2500000000,1,1.4099270105,,,
15.2656250000,1,1.2749329805,,,
15.2812500000,1,1.0654449463,,,
15.2968750000,1,0.8730316162,,,
15.3125000000,1,0.7622985840,,,
15.3281250000,1,0.7218933105,,,
15.3437500000,1,0.6721038818,,,
15.3593750000,1,0.5207061768,,,
15.3750000000,1,0.2346038967,,,
15.3906250000,1,-0.1569671929,,,
15.4062500000,1,-0.5613402724,,,
15.4218750000,1,-0.8685759902,,,
15.4375000000,1,-1.0023189783,,,
15.4531250000,1,-0.9491577148,,,
15.4687500000,1,-0.7501220703,,,
15.4843750000,1,-0.4959717095,,,
15.5000000000,1,-0.2756958008,,,
15.5156250000,1,-0.1408081055,,,
15.5312500000,1,-0.0845794678,,,
15.5468750000,1,-0.0536956787,,,
15.5625000000,1,0.0133361798,,,
15.5781250000,1,0.1416779011,,,
15.5937500000,1,0.3013916016,,,
15.6093750000,1,0.4046477973,,,
15.6250000000,1,0.3652038872,,,
15.6406250000,1,0.1499329060,,,
15.6562500000,1,-0.2009429932,,,
15.6718750000,1,-0.6001586914,,,
15.6875000000,1,-0.9642028809,,,
15.7031250000,1,-1.2527159452,,,
15.7187500000,1,-1.4797359705,,,
15.7343750000,1,-1.6772160530,,,
15.7500000000,1,-1.8399349451,,,
15.7656250000,1,-1.8967900276,,,
15.7812500000,1,-1.7487640381,,,
15.7968750000,1,-1.3284909725,,,
15.8125000000,1,-0.6929169297,,,
15.8281250000,1,-0.0060577388,,,
15.8437500000,1,0.5184478760,,,
15.8593750000,1,0.7305908203,,,
15.8750000000,1,0.6454772949,,,
15.8906250000,1,0.4102630913,,,
15.9062500000,1,0.2213439941,,,
15.9218750000,1,0.1948395073,,,
15.9375000000,1,0.2950744927,,,
15.9531250000,1,0.3763122857,,,
15.9687500000,1,0.3053435981,,,
15.9843750000,1,0.0451812707,,,
16.0000000000,2,-0.2997131050,,,
16.0156250000,2,-0.5597838759,,,
16.0312500000,2,-0.6085205078,,,
16.0468750000,2,-0.4169768989,,,
16.0625000000,2,-0.0679473877,,,
16.0781250000,2,0.3193207085,,,
16.0937500000,2,0.6335906982,,,
16.1093750000,2,0.8412322998,,,
16.1250000000,2,0.9569091797,,,
16.1406250000,2,1.0152280331,,,
16.1562500000,2,1.0526429415,,,
16.1718750000,2,1.0813599825,,,
16.1875000000,2,1.0904389620,,,
16.2031250000,2,1.0462189913,,,
16.2187500000,2,0.8980864882,,,
16.2343750000,2,0.5949097276,,,
16.2500000000,2,0.1137389988,,,
16.2656250000,2,-0.5039672852,,,
16.2812500000,2,-1.1578979492,,,
16.2968750000,2,-1.7002110481,,,
16.3125000000,2,-2.0027310848,,,
16.3281250000,2,-1.9934389591,,,
16.3437500000,2,-1.6947779655,,,
16.3593750000,2,-1.2098850012,,,
16.3750000000,2,-0.6776276231,,,
16.3906250000,2,-0.2081604004,,,
16.4062500000,2,0.1391295940,,,
16.4218750000,2,0.3720551133,,,
16.4375000000,2,0.5420532227,,,
16.4531250000,2,0.6980133057,,,
16.4687500000,2,0.8639069200,,,
16.4843750000,2,1.0086669922,,,
16.5000000000,2,1.0760500431,,,
16.5156250000,2,1.0075229406,,,
16.5312500000,2,0.7998198867,,,
16.5468750000,2,0.5116118789,,,
16.5625000000,2,0.2461853027,,,
16.5781250000,2,0.1171265021,,,
16.5937500000,2,0.1621703953,,,
16.6093750000,2,0.3447723091,,,
16.6250000000,2,0.5636138916,,,
16.6406250000,2,0.7226868272,,,
16.6562500000,2,0.7776337266,,,
16.6718750000,2,0.7600250244,,,
16.6875000000,2,0.7301483154,,,
16.7031250000,2,0.7324523926,,,
16.7187500000,2,0.7562561035,,,
16.7343750000,2,0.7277222276,,,
16.7500000000,2,0.5679169297,,,
16.7656250000,2,0.2304839939,,,
16.7812500000,2,-0.2307586968,,,
16.7968750000,2,-0.7093201280,,,
16.8125000000,2,-1.0766450167,,,
16.8281250000,2,-1.2501369715,,,
16.8437500000,2,-1.2069239616,,,
16.8593750000,2,-0.9671021104,,,
16.8750000000,2,-0.5883330703,,,
16.8906250000,2,-0.1250458062,,,
16.9062500000,2,0.3430022895,,,
16.9218750000,2,0.7303314209,,,
16.9375000000,2,0.9520568848,,,
16.9531250000,2,0.9454956055,,,
16.9687500000,2,0.7110748291,,,
16.9843750000,2,0.3165740967,,,
17.0000000000,2,-0.1143035963,,,
17.0156250000,2,-0.4636077881,,,
17.0312500000,2,-0.6384735107,,,
17.0468750000,2,-0.6281127930,,,
17.0625000000,2,-0.4764403999,,,
17.0781250000,2,-0.2640686035,,,
17.0937500000,2,-0.0664215088,,,
17.1093750000,2,0.0679473877,,,
17.1250000000,2,0.1090392992,,,
17.1406250000,2,0.0597534217,,,
17.1562500000,2,-0.0727691725,,,
17.1718750000,2,-0.2536925972,,,
17.1875000000,2,-0.4269104004,,,
17.2031250000,2,-0.5241394043,,,
17.2187500000,2,-0.4803313911,,,
17.2343750000,2,-0.2688446045,,,
17.2500000000,2,0.0932464600,,,
17.2656250000,2,0.5104370117,,,
17.2812500000,2,0.8650054932,,,
17.2968750000,2,1.0366359949,,,
17.3125000000,2,0.9656677246,,,
17.3281250000,2,0.6821135879,,,
17.3437500000,2,0.2928771973,,,
17.3593750000,2,-0.0476226807,,,
17.3750000000,2,-0.2210388035,,,
17.3906250000,2,-0.1960601956,,,
17.4062500000,2,-0.0521697998,,,
17.4218750000,2,0.0841522217,,,
17.4375000000,2,0.1056824028,,,
17.4531250000,2,-0.0093536377,,,
17.4687500000,2,-0.1967162937,,,
17.4843750000,2,-0.3580474854,,,
17.5000000000,2,-0.4232482910,,,
17.5156250000,2,-0.4045563042,,,
17.5312500000,2,-0.3525848091,,,
17.5468750000,2,-0.3223876953,,,
17.5625000000,2,-0.3107300103,,,
17.5781250000,2,-0.2565765083,,,
17.5937500000,2,-0.0844116211,,,
17.6093750000,2,0.2321472019,,,
17.6250000000,2,0.6252747178,,,
17.6406250000,2,0.9763793945,,,
17.6562500000,2,1.1673280001,,,
17.6718750000,2,1.1587220430,,,
17.6875000000,2,0.9880065918,,,
17.7031250000,2,0.7428588867,,,
17.7187500000,2,0.4974518120,,,
17.7343750000,2,0.2860718071,,,
17.7500000000,2,0.1109924018,,,
17.7656250000,2,-0.0394897498,,,
17.7812500000,2,-0.1629485935,,,
17.7968750000,2,-0.2610931098,,,
17.8125000000,2,-0.3295440972,,,
17.8281250000,2,-0.3748931885,,,
17.8437500000,2,-0.4150696099,,,
17.8593750000,2,-0.4517669976,,,
17.8750000000,2,-0.4780273139,,,
17.8906250000,2,-0.4753723145,,,
17.9062500000,2,-0.4423676133,,,
17.9218750000,2,-0.3935393989,,,
17.9375000000,2,-0.3595275879,,,
17.9531250000,2,-0.3673096001,,,
17.9687500000,2,-0.4134520888,,,
17.9843750000,2,-0.4821014106,,,
18.0000000000,2,-0.5319061279,,,
18.0156250000,2,-0.5328217149,,,
18.0312500000,2,-0.4649353027,,,
18.0468750000,2,-0.3179168999,,,
18.0625000000,2,-0.1018676981,,,
18.0781250000,2,0.1452331990,,,
18.0937500000,2,0.3589172065,,,
18.1093750000,2,0.4594878852,,,
18.1250000000,2,0.3888092041,,,
18.1406250000,2,0.1565247029,,,
18.1562500000,2,-0.1601867974,,,
18.1718750000,2,-0.4110412896,,,
18.1875000000,2,-0.4491730034,,,
18.2031250000,2,-0.1850890964,,,
18.2187500000,2,0.3492125869,,,
18.2343750000,2,1.0012049675,,,
18.2500000000,2,1.5606230497,,,
18.2656250000,2,1.8325200081,,,
18.2812500000,2,1.7368320227,,,
18.2968750000,2,1.3345340490,,,
18.3125000000,2,0.8036041260,,,
18.3281250000,2,0.3554077148,,,
18.3437500000,2,0.1358795017,,,
18.3593750000,2,0.1709289998,,,
18.3750000000,2,0.3566437066,,,
18.3906250000,2,0.5275421143,,,
18.4062500000,2,0.5405883789,,,
18.4218750000,2,0.3497771919,,,
18.4375000000,2,0.0426178016,,,
18.4531250000,2,-0.2526398003,,,
18.4687500000,2,-0.4411925972,,,
18.4843750000,2,-0.5419769287,,,
18.5000000000,2,-0.6512145996,,,
18.5156250000,2,-0.8491669297,,,
18.5312500000,2,-1.1287839413,,,
18.5468750000,2,-1.3713990450,,,
18.5625000000,2,-1.4169620275,,,
18.5781250000,2,-1.1886140108,,,
18.5937500000,2,-0.7594298720,,,
18.6093750000,2,-0.3356322944,,,
18.6250000000,2,-0.1339568943,,,
18.6406250000,2,-0.2391815037,,,
18.6562500000,2,-0.5560759902,,,
18.6718750000,2,-0.8664855957,,,
18.6875000000,2,-0.9729003906,,,
18.7031250000,2,-0.8238524795,,,
18.7187500000,2,-0.5249938965,,,
18.7343750000,2,-0.2561950982,,,
18.7500000000,2,-0.1232452020,,,
18.7656250000,2,-0.1103515998,,,
18.7812500000,2,-0.1089171991,,,
18.7968750000,2,-0.0052490230,,,
18.8125000000,2,0.2319335938,,,
18.8281250000,2,0.5225371718,,,
18.8437500000,2,0.7314910889,,,
18.8593750000,2,0.7423552871,,,
18.8750000000,2,0.5256652832,,,
18.8906250000,2,0.1627808064,,,
18.9062500000,2,-0.1985778958,,,
18.9218750000,2,-0.4382934868,,,
18.9375000000,2,-0.4808044136,,,
18.9531250000,2,-0.3483124077,,,
18.9687500000,2,-0.1343993992,,,
18.9843750000,2,0.0452880897,,,
19.0000000000,2,0.0967712402,,,
19.0156250000,2,0.0018768311,,,
19.0312500000,2,-0.1940764934,,,
19.0468750000,2,-0.4163970947,,,
19.0625000000,2,-0.6009520888,,,
19.0781250000,2,-0.7206572890,,,
19.0937500000,2,-0.7679595947,,,
19.1093750000,2,-0.7225341797,,,
19.1250000000,2,-0.5425415039,,,
19.1406250000,2,-0.1753997952,,,
19.1562500000,2,0.3837127984,,,
19.1718750000,2,1.0484919548,,,
19.1875000000,2,1.6616209745,,,
19.2031250000,2,2.0387570858,,,
19.2187500000,2,2.0586850643,,,
19.2343750000,2,1.7112879753,,,
19.2500000000,2,1.0994110107,,,
19.2656250000,2,0.3984985054,,,
19.2812500000,2,-0.2238159031,,,
19.2968750000,2,-0.6428070068,,,
19.3125000000,2,-0.8102722168,,,
19.3281250000,2,-0.7443236709,,,
19.3437500000,2,-0.5159912109,,,
19.3593750000,2,-0.2171020955,,,
19.3750000000,2,0.0564727783,,,
19.3906250000,2,0.2483977973,,,
19.4062500000,2,0.3674621880,,,
19.4218750000,2,0.4530639946,,,
19.4375000000,2,0.5547484756,,,
19.4531250000,2,0.6868895888,,,
19.4687500000,2,0.8235321045,,,
19.4843750000,2,0.8863831162,,,
19.5000000000,2,0.7997894287,,,
19.5156250000,2,0.5351563096,,,
19.5312500000,2,0.1310424954,,,
19.5468750000,2,-0.3148345947,,,
19.5625000000,2,-0.7021636963,,,
19.5781250000,2,-0.9646149278,,,
19.5937500000,2,-1.0998840332,,,
19.6093750000,2,-1.1446690559,,,
19.6250000000,2,-1.1487120390,,,
19.6406250000,2,-1.1151579618,,,
19.6562500000,2,-1.0229489803,,,
19.6718750000,2,-0.8378754258,,,
19.6875000000,2,-0.5462952256,,,
19.7031250000,2,-0.1969299018,,,
19.7187500000,2,0.1266022027,,,
19.7343750000,2,0.3332062066,,,
19.7500000000,2,0.3787384033,,,
19.7656250000,2,0.2652587891,,,
19.7812500000,2,0.0496215783,,,
19.7968750000,2,-0.1875305027,,,
19.8125000000,2,-0.3716582954,,,
19.8281250000,2,-0.4444732964,,,
19.8437500000,2,-0.3753510118,,,
19.8593750000,2,-0.1573639065,,,
19.8750000000,2,0.1513366997,,,
19.8906250000,2,0.4495849907,,,
19.9062500000,2,0.6257628798,,,
19.9218750000,2,0.6115111709,,,
19.9375000000,2,0.4252625108,,,
19.9531250000,2,0.1566009969,,,
19.9687500000,2,-0.0670318604,,,
19.9843750000,2,-0.1803130955,,,
20.0000000000,2,-0.1863556057,,,
20.0156250000,2,-0.1519470066,,,
20.0312500000,2,-0.1363831013,,,
20.0468750000,2,-0.1589965969,,,
20.0625000000,2,-0.1858063042,,,
20.0781250000,2,-0.1696929932,,,
20.0937500000,2,-0.0887603834,,,
20.1093750000,2,0.0285797101,,,
20.1250000000,2,0.1130065992,,,
20.1406250000,2,0.1098480001,,,
20.1562500000,2,-0.0045318599,,,
20.1718750000,2,-0.1977996975,,,
20.1875000000,2,-0.3956451118,,,
20.2031250000,2,-0.5306549072,,,
20.2187500000,2,-0.5460968018,,,
20.2343750000,2,-0.4433440864,,,
20.2500000000,2,-0.2554931939,,,
20.2656250000,2,-0.0766754225,,,
20.2812500000,2,0.0048522949,,,
20.2968750000,2,-0.0731658936,,,
20.3125000000,2,-0.2854919136,,,
20.3281250000,2,-0.5472260118,,,
20.3437500000,2,-0.7487792969,,,
20.3593750000,2,-0.7877045274,,,
20.3750000000,2,-0.6437683105,,,
20.3906250000,2,-0.3735351861,,,
20.4062500000,2,-0.0790405273,,,
20.4218750000,2,0.1270751953,,,
20.4375000000,2,0.1658782959,,,
20.4531250000,2,0.0229644794,,,
20.4687500000,2,-0.2315825969,,,
20.4843750000,2,-0.4751586914,,,
20.5000000000,2,-0.5725250244,,,
20.5156250000,2,-0.4489136040,,,
20.5312500000,2,-0.1092834026,,,
20.5468750000,2,0.3472594917,,,
20.5625000000,2,0.7795562744,,,
20.5781250000,2,1.0702209473,,,
20.5937500000,2,1.1773829460,,,
20.6093750000,2,1.1418149471,,,
20.6250000000,2,1.0385129452,,,
20.6406250000,2,0.9404144287,,,
20.6562500000,2,0.8655701280,,,
20.6718750000,2,0.8181458116,,,
20.6875000000,2,0.7877501845,,,
20.7031250000,2,0.7736052871,,,
20.7187500000,2,0.7880402207,,,
20.7343750000,2,0.8181763291,,,
20.7500000000,2,0.8486022949,,,
20.7656250000,2,0.8624877930,,,
20.7812500000,2,0.8607634902,,,
20.7968750000,2,0.8472595215,,,
20.8125000000,2,0.8383942246,,,
20.8281250000,2,0.8203278184,,,
20.8437500000,2,0.7379760742,,,
20.8593750000,2,0.5437622070,,,
20.8750000000,2,0.2284851074,,,
20.8906250000,2,-0.1495209038,,,
20.9062500000,2,-0.4873504937,,,
20.9218750000,2,-0.7001190186,,,
20.9375000000,2,-0.7589569092,,,
20.9531250000,2,-0.7233275771,,,
20.9687500000,2,-0.6940155029,,,
20.9843750000,2,-0.7540894151,,,
21.0000000000,2,-0.9127960205,,,
21.0156250000,2,-1.1166529655,,,
21.0312500000,2,-1.2742309570,,,
21.0468750000,2,-1.3019100428,,,
21.0625000000,2,-1.1697390079,,,
21.0781250000,2,-0.9135590196,,,
21.0937500000,2,-0.6176300049,,,
21.1093750000,2,-0.3703765869,,,
21.1250000000,2,-0.2364044040,,,
21.1406250000,2,-0.2199707031,,,
21.1562500000,2,-0.2773132026,,,
21.1718750000,2,-0.3201447129,,,
21.1875000000,2,-0.2860260010,,,
21.2031250000,2,-0.1565399021,,,
21.2187500000,2,0.0175933801,,,
21.2343750000,2,0.1382293999,,,
21.2500000000,2,0.1137085035,,,
21.2656250000,2,-0.0721435472,,,
21.2812500000,2,-0.3202362061,,,
21.2968750000,2,-0.4772033989,,,
21.3125000000,2,-0.4022063911,,,
21.3281250000,2,-0.0621795692,,,
21.3437500000,2,0.4503174126,,,
21.3593750000,2,0.9562224746,,,
21.3750000000,2,1.2742309570,,,
21.3906250000,2,1.3136290312,,,
21.4062500000,2,1.1042629480,,,
21.4218750000,2,0.7594298720,,,
21.4375000000,2,0.4235686958,,,
21.4531250000,2,0.1973876953,,,
21.4687500000,2,0.1054230034,,,
21.4843750000,2,0.0993041992,,,
21.5000000000,2,0.1125487983,,,
21.5156250000,2,0.0857086182,,,
21.5312500000,2,-0.0061950679,,,
21.5468750000,2,-0.1580810994,,,
21.5625000000,2,-0.3345184028,,,
21.5781250000,2,-0.4846954048,,,
21.5937500000,2,-0.5647736192,,,
21.6093750000,2,-0.5251007080,,,
21.6250000000,2,-0.3581238091,,,
21.6406250000,2,-0.0951538086,,,
21.6562500000,2,0.1938323975,,,
21.6718750000,2,0.4328612983,,,
21.6875000000,2,0.5584868789,,,
21.7031250000,2,0.5509490967,,,
21.7187500000,2,0.4345397949,,,
21.7343750000,2,0.2703399956,,,
21.7500000000,2,0.1376647949,,,
21.7656250000,2,0.0901184082,,,
21.7812500000,2,0.1632843018,,,
21.7968750000,2,0.3447875977,,,
21.8125000000,2,0.5906677246,,,
21.8281250000,2,0.8112183213,,,
21.8437500000,2,0.9218140244,,,
21.8593750000,2,0.8456879258,,,
21.8750000000,2,0.5785828233,,,
21.8906250000,2,0.1901703030,,,
21.9062500000,2,-0.1869658977,,,
21.9218750000,2,-0.4227294922,,,
21.9375000000,2,-0.4684295952,,,
21.9531250000,2,-0.3808898926,,,
21.9687500000,2,-0.2886199951,,,
21.9843750000,2,-0.3198853135,,,
22.0000000000,2,-0.5199127197,,,
22.0156250000,2,-0.8309478760,,,
22.0312500000,2,-1.1110229492,,,
22.0468750000,2,-1.2351839542,,,
22.0625000000,2,-1.1432039738,,,
22.0781250000,2,-0.8707885742,,,
22.0937500000,2,-0.5272216797,,,
22.1093750000,2,-0.2281647027,,,
22.1250000000,2,-0.0637512207,,,
22.1406250000,2,-0.0538787805,,,
22.1562500000,2,-0.1526947021,,,
22.1718750000,2,-0.2776947021,,,
22.1875000000,2,-0.3458710015,,,
22.2031250000,2,-0.3069916070,,,
22.2187500000,2,-0.1721343994,,,
22.2343750000,2,-0.0001983643,,,
22.2500000000,2,0.1464691013,,,
22.2656250000,2,0.2275695950,,,
22.2812500000,2,0.2611083984,,,
22.2968750000,2,0.2794342041,,,
22.3125000000,2,0.3117065132,,,
22.3281250000,2,0.3505249023,,,
22.3437500000,2,0.3606872857,,,
22.3593750000,2,0.3242188096,,,
22.3750000000,2,0.2628174126,,,
22.3906250000,2,0.2153168023,,,
22.4062500000,2,0.2072906047,,,
22.4218750000,2,0.2196197957,,,
22.4375000000,2,0.1809998006,,,
22.4531250000,2,0.0149536096,,,
22.4687500000,2,-0.3012084961,,,
22.4843750000,2,-0.7040557861,,,
22.5000000000,2,-1.0846409798,,,
22.5156250000,2,-1.3424220085,,,
22.5312500000,2,-1.4293060303,,,
22.5468750000,2,-1.3530880213,,,
22.5625000000,2,-1.1457209587,,,
22.5781250000,2,-0.8423156738,,,
22.5937500000,2,-0.4698638916,,,
22.6093750000,2,-0.0552520789,,,
22.6250000000,2,0.3300018013,,,
22.6406250000,2,0.6129456162,,,
22.6562500000,2,0.7648621202,,,
22.6718750000,2,0.8101348877,,,
22.6875000000,2,0.8219603896,,,
22.7031250000,2,0.8833159804,,,
22.7187500000,2,1.0102540255,,,
22.7343750000,2,1.1567380428,,,
22.7500000000,2,1.2527619600,,,
22.7656250000,2,1.2464449406,,,
22.7812500000,2,1.1463929415,,,
22.7968750000,2,0.9898223877,,,
22.8125000000,2,0.8150023818,,,
22.8281250000,2,0.6310729980,,,
22.8437500000,2,0.4138335884,,,
22.8593750000,2,0.1473083049,,,
22.8750000000,2,-0.1441802979,,,
22.8906250000,2,-0.4018250108,,,
22.9062500000,2,-0.5625916123,,,
22.9218750000,2,-0.6058502197,,,
22.9375000000,2,-0.5759429932,,,
22.9531250000,2,-0.5584716797,,,
22.9687500000,2,-0.6333618164,,,
22.9843750000,2,-0.8132781982,,,
23.0000000000,2,-1.0497889519,,,
23.0156250000,2,-1.2550959587,,,
23.0312500000,2,-1.3476719856,,,
23.0468750000,2,-1.2901610136,,,
23.0625000000,2,-1.0878599882,,,
23.0781250000,2,-0.7767791748,,,
23.0937500000,2,-0.4089508057,,,
23.1093750000,2,-0.0218658391,,,
23.1250000000,2,0.3589324951,,,
23.1406250000,2,0.7147827148,,,
23.1562500000,2,1.0270229578,,,
23.1718750000,2,1.2611540556,,,
23.1875000000,2,1.3728640079,,,
23.2031250000,2,1.3297879696,,,
23.2187500000,2,1.1236419678,,,
23.2343750000,2,0.7802277207,,,
23.2500000000,2,0.3498382866,,,
23.2656250000,2,-0.1061706990,,,
23.2812500000,2,-0.5136566162,,,
23.2968750000,2,-0.8105316162,,,
23.3125000000,2,-0.9408568740,,,
23.3281250000,2,-0.8798676133,,,
23.3437500000,2,-0.6444702148,,,
23.3593750000,2,-0.2940979004,,,
23.3750000000,2,0.0799865723,,,
23.3906250000,2,0.3750000000,,,
23.4062500000,2,0.5319061279,,,
23.4218750000,2,0.5344696045,,,
23.4375000000,2,0.4244079888,,,
23.4531250000,2,0.2551116943,,,
23.4687500000,2,0.0758514404,,,
23.4843750000,2,-0.0818023682,,,
23.5000000000,2,-0.2002716064,,,
23.5156250000,2,-0.2646332085,,,
23.5312500000,2,-0.2368621975,,,
23.5468750000,2,-0.0840911865,,,
23.5625000000,2,0.1900023967,,,
23.5781250000,2,0.5232543945,,,
23.5937500000,2,0.8076782227,,,
23.6093750000,2,0.9362792969,,,
23.6250000000,2,0.8528748155,,,
23.6406250000,2,0.6010437012,,,
23.6562500000,2,0.2830353081,,,
23.6718750000,2,0.0147857703,,,
23.6875000000,2,-0.1353912055,,,
23.7031250000,2,-0.1773986965,,,
23.7187500000,2,-0.1601257026,,,
23.7343750000,2,-0.1344452053,,,
23.7500000000,2,-0.1128387004,,,
23.7656250000,2,-0.0829925537,,,
23.7812500000,2,-0.0283355694,,,
23.7968750000,2,0.0342864990,,,
23.8125000000,2,0.0756225586,,,
23.8281250000,2,0.0791778564,,,
23.8437500000,2,0.0584411584,,,
23.8593750000,2,0.0490417518,,,
23.8750000000,2,0.0824737474,,,
23.8906250000,2,0.1520081013,,,
23.9062500000,2,0.2199096978,,,
23.9218750000,2,0.2518311143,,,
23.9375000000,2,0.2496338040,,,
23.9531250000,2,0.2256011963,,,
23.9687500000,2,0.1823273003,,,
23.9843750000,2,0.0924682617,,,
24.0000000000,3,-0.0831298828,,,
24.0156250000,3,-0.3432616889,,,
24.0312500000,3,-0.6130828857,,,
24.0468750000,3,-0.7646636963,,,
24.0625000000,3,-0.6975250244,,,
24.0781250000,3,-0.4235686958,,,
24.0937500000,3,-0.0880737305,,,
24.1093750000,3,0.1098937988,,,
24.1250000000,3,0.0264129601,,,
24.1406250000,3,-0.3166655898,,,
24.1562500000,3,-0.7403107285,,,
24.1718750000,3,-1.0199129581,,,
24.1875000000,3,-1.0104680061,,,
24.2031250000,3,-0.7274169922,,,
24.2187500000,3,-0.3193817139,,,
24.2343750000,3,0.0376129188,,,
24.2500000000,3,0.2351990044,,,
24.2656250000,3,0.2818450928,,,
24.2812500000,3,0.2522887886,,,
24.2968750000,3,0.2279510051,,,
24.3125000000,3,0.2406464070,,,
24.3281250000,3,0.2778472900,,,
24.3437500000,3,0.3006896973,,,
24.3593750000,3,0.2971954048,,,
24.3750000000,3,0.2777099907,,,
24.3906250000,3,0.2784118950,,,
24.4062500000,3,0.3214569092,,,
24.4218750000,3,0.4175415039,,,
24.4375000000,3,0.5553284287,,,
24.4531250000,3,0.7085723877,,,
24.4687500000,3,0.8383483887,,,
24.4843750000,3,0.9085083008,,,
24.5000000000,3,0.9010314941,,,
24.5156250000,3,0.8166962266,,,
24.5312500000,3,0.6958159804,,,
24.5468750000,3,0.5818787217,,,
24.5625000000,3,0.4953308105,,,
24.5781250000,3,0.4277802110,,,
24.5937500000,3,0.3239136040,,,
24.6093750000,3,0.1256255955,,,
24.6250000000,3,-0.1839293987,,,
24.6406250000,3,-0.5615996718,,,
24.6562500000,3,-0.9089508057,,,
24.6718750000,3,-1.0980679989,,,
24.6875000000,3,-1.0599210262,,,
24.7031250000,3,-0.8014984131,,,
24.7187500000,3,-0.4329071045,,,
24.7343750000,3,-0.1167754978,,,
24.7500000000,3,-0.0068054199,,,
24.7656250000,3,-0.1591338962,,,
24.7812500000,3,-0.5170745850,,,
24.7968750000,3,-0.9258422852,,,
24.8125000000,3,-1.1986999512,,,
24.8281250000,3,-1.2187349796,,,
24.8437500000,3,-0.9892882705,,,
24.8593750000,3,-0.6220703125,,,
24.8750000000,3,-0.2766875923,,,
24.8906250000,3,-0.0695648193,,,
24.9062500000,3,-0.0243835393,,,
24.9218750000,3,-0.0753021166,,,
24.9375000000,3,-0.1368560940,,,
24.9531250000,3,-0.1414031982,,,
24.9687500000,3,-0.0805358887,,,
24.9843750000,3,-0.0029144289,,,
25.0000000000,3,0.0482482910,,,
25.0156250000,3,0.0361938514,,,
25.0312500000,3,-0.0321350098,,,
25.0468750000,3,-0.1213226020,,,
25.0625000000,3,-0.1944275051,,,
25.0781250000,3,-0.2047729045,,,
25.0937500000,3,-0.1209411994,,,
25.1093750000,3,0.0488433801,,,
25.1250000000,3,0.2640990913,,,
25.1406250000,3,0.4623565972,,,
25.1562500000,3,0.5657958984,,,
25.1718750000,3,0.5436248779,,,
25.1875000000,3,0.4060516059,,,
25.2031250000,3,0.2153473049,,,
25.2187500000,3,0.0523529090,,,
25.2343750000,3,-0.0320739709,,,
25.2500000000,3,-0.0361175500,,,
25.2656250000,3,-0.0007629395,,,
25.2812500000,3,0.0211944599,,,
25.2968750000,3,-0.0099334717,,,
25.3125000000,3,-0.0862274170,,,
25.3281250000,3,-0.1721343994,,,
25.3437500000,3,-0.2094116062,,,
25.3593750000,3,-0.1704559028,,,
25.3750000000,3,-0.0534210205,,,
25.3906250000,3,0.1030884013,,,
25.4062500000,3,0.2397460938,,,
25.4218750000,3,0.3041991889,,,
25.4375000000,3,0.2698363960,,,
25.4531250000,3,0.1473845989,,,
25.4687500000,3,-0.0172576904,,,
25.4843750000,3,-0.1840668023,,,
25.5000000000,3,-0.3335418999,,,
25.5156250000,3,-0.4774779975,,,
25.5312500000,3,-0.6324005127,,,
25.5468750000,3,-0.7877501845,,,
25.5625000000,3,-0.9154357910,,,
25.5781250000,3,-0.9733123779,,,
25.5937500000,3,-0.9262999892,,,
25.6093750000,3,-0.7842711806,,,
25.6250000000,3,-0.5900421143,,,
25.6406250000,3,-0.3853302002,,,
25.6562500000,3,-0.1877593994,,,
25.6718750000,3,0.0057678218,,,
25.6875000000,3,0.2029418945,,,
25.7031250000,3,0.3840790093,,,
25.7187500000,3,0.5235291123,,,
25.7343750000,3,0.5862426758,,,
25.7500000000,3,0.5864105225,,,
25.7656250000,3,0.5960388184,,,
25.7812500000,3,0.7068176270,,,
25.7968750000,3,0.9769287109,,,
25.8125000000,3,1.3734439611,,,
25.8281250000,3,1.7738490105,,,
25.8437500000,3,2.0173649788,,,
25.8593750000,3,1.9839780331,,,
25.8750000000,3,1.6605069637,,,
25.8906250000,3,1.1395260096,,,
25.9062500000,3,0.5690917969,,,
25.9218750000,3,0.0731201172,,,
25.9375000000,3,-0.2715302110,,,
25.9531250000,3,-0.4656066895,,,
25.9687500000,3,-0.5329437256,,,
25.9843750000,3,-0.5171967149,,,
26.0000000000,3,-0.4449462891,,,
26.0156250000,3,-0.3479613960,,,
26.0312500000,3,-0.2483063042,,,
26.0468750000,3,-0.1770476997,,,
26.0625000000,3,-0.1617736965,,,
26.0781250000,3,-0.1910858005,,,
26.0937500000,3,-0.2286376953,,,
26.1093750000,3,-0.2106781006,,,
26.1250000000,3,-0.0826873779,,,
26.1406250000,3,0.1453551948,,,
26.1562500000,3,0.3993529975,,,
26.1718750000,3,0.5642241836,,,
26.1875000000,3,0.5356597900,,,
26.2031250000,3,0.2776794136,,,
26.2187500000,3,-0.1422881931,,,
26.2343750000,3,-0.5850219727,,,
26.2500000000,3,-0.9019470215,,,
26.2656250000,3,-0.9891052246,,,
26.2812500000,3,-0.8392943740,,,
26.2968750000,3,-0.5433502197,,,
26.3125000000,3,-0.2492828071,,,
26.3281250000,3,-0.0927276611,,,
26.3437500000,3,-0.1399841011,,,
26.3593750000,3,-0.3509368896,,,
26.3750000000,3,-0.6031035781,,,
26.3906250000,3,-0.7468261719,,,
26.4062500000,3,-0.6883391738,,,
26.4218750000,3,-0.4548340142,,,
26.4375000000,3,-0.1732787937,,,
26.4531250000,3,-0.0078430176,,,
26.4687500000,3,-0.0468902588,,,
26.4843750000,3,-0.2623749077,,,
26.5000000000,3,-0.5164641738,,,
26.5156250000,3,-0.6554871202,,,
26.5312500000,3,-0.6078795791,,,
26.5468750000,3,-0.4174804986,,,
26.5625000000,3,-0.2120056003,,,
26.5781250000,3,-0.0903472900,,,
26.5937500000,3,-0.0706329271,,,
26.6093750000,3,-0.0845184326,,,
26.6250000000,3,-0.0361480713,,,
26.6406250000,3,0.1091156006,,,
26.6562500000,3,0.2969208062,,,
26.6718750000,3,0.4418488145,,,
26.6875000000,3,0.4801177979,,,
26.7031250000,3,0.4089049995,,,
26.7187500000,3,0.2686310112,,,
26.7343750000,3,0.0977020264,,,
26.7500000000,3,-0.1039886028,,,
26.7656250000,3,-0.3501282036,,,
26.7812500000,3,-0.6408234239,,,
26.7968750000,3,-0.9121552110,,,
26.8125000000,3,-1.0567929745,,,
26.8281250000,3,-0.9752349854,,,
26.8437500000,3,-0.6258850098,,,
26.8593750000,3,-0.0615081787,,,
26.8750000000,3,0.6003417969,,,
26.8906250000,3,1.2167210579,,,
26.9062500000,3,1.6710050106,,,
26.9218750000,3,1.9030760527,,,
26.9375000000,3,1.8994899988,,,
26.9531250000,3,1.7039790154,,,
26.9687500000,3,1.3842159510,,,
26.9843750000,3,1.0198520422,,,
27.0000000000,3,0.6796875000,,,
27.0156250000,3,0.4170837104,,,
27.0312500000,3,0.2425536960,,,
27.0468750000,3,0.1513824016,,,
27.0625000000,3,0.1144561991,,,
27.0781250000,3,0.0914916992,,,
27.0937500000,3,0.0450439490,,,
27.1093750000,3,-0.0524291992,,,
27.1250000000,3,-0.1990050972,,,
27.1406250000,3,-0.3602448106,,,
27.1562500000,3,-0.4918670952,,,
27.1718750000,3,-0.5559082031,,,
27.1875000000,3,-0.5382996202,,,
27.2031250000,3,-0.4630737007,,,
27.2187500000,3,-0.3581084907,,,
27.2343750000,3,-0.2306365967,,,
27.2500000000,3,-0.0716857910,,,
27.2656250000,3,0.1440735012,,,
27.2812500000,3,0.3985137939,,,
27.2968750000,3,0.6274260879,,,
27.3125000000,3,0.7509459853,,,
27.3281250000,3,0.7130584717,,,
27.3437500000,3,0.5416564941,,,
27.3593750000,3,0.3210296929,,,
27.3750000000,3,0.1616668999,,,
27.3906250000,3,0.1244964972,,,
27.4062500000,3,0.2094268948,,,
27.4218750000,3,0.3683167100,,,
27.4375000000,3,0.5294951797,,,
27.4531250000,3,0.6251984239,,,
27.4687500000,3,0.5910797119,,,
27.4843750000,3,0.3639220893,,,
27.5000000000,3,-0.1018982008,,,
27.5156250000,3,-0.7833098769,,,
27.5312500000,3,-1.5718690157,,,
27.5468750000,3,-2.2598109245,,,
27.5625000000,3,-2.6416471004,,,
27.5781250000,3,-2.5939788818,,,
27.5937500000,3,-2.1311950684,,,
27.6093750000,3,-1.4064639807,,,
27.6250000000,3,-0.6250153184,,,
27.6406250000,3,0.0498046912,,,
27.6562500000,3,0.5524597168,,,
27.6718750000,3,0.8769379258,,,
27.6875000000,3,1.0608370304,,,
27.7031250000,3,1.1133879423,,,
27.7187500000,3,1.0494689941,,,
27.7343750000,3,0.8881989121,,,
27.7500000000,3,0.6668701172,,,
27.7656250000,3,0.4619903862,,,
27.7812500000,3,0.3372955024,,,
27.7968750000,3,0.3171387017,,,
27.8125000000,3,0.3684082031,,,
27.8281250000,3,0.4098969102,,,
27.8437500000,3,0.3568268120,,,
27.8593750000,3,0.1586304009,,,
27.8750000000,3,-0.1656493992,,,
27.8906250000,3,-0.5400238037,,,
27.9062500000,3,-0.8713530898,,,
27.9218750000,3,-1.0826419592,,,
27.9375000000,3,-1.1303709745,,,
27.9531250000,3,-1.0329899788,,,
27.9687500000,3,-0.8351135254,,,
27.9843750000,3,-0.6148071289,,,
28.0000000000,3,-0.4394226074,,,
28.0156250000,3,-0.3571777046,,,
28.0312500000,3,-0.3807983100,,,
28.0468750000,3,-0.4648742974,,,
28.0625000000,3,-0.5343627930,,,
28.0781250000,3,-0.5086669922,,,
28.0937500000,3,-0.3350067139,,,
28.1093750000,3,-0.0269927997,,,
28.1250000000,3,0.3291473091,,,
28.1406250000,3,0.6252593994,,,
28.1562500000,3,0.7676239014,,,
28.1718750000,3,0.7375183105,,,
28.1875000000,3,0.6033020020,,,
28.2031250000,3,0.4569396973,,,
28.2187500000,3,0.3796539009,,,
28.2343750000,3,0.3837127984,,,
28.2500000000,3,0.3989258111,,,
28.2656250000,3,0.3352661133,,,
28.2812500000,3,0.1304320991,,,
28.2968750000,3,-0.2070769966,,,
28.3125000000,3,-0.5930175781,,,
28.3281250000,3,-0.9103087783,,,
28.3437500000,3,-1.0505219698,,,
28.3593750000,3,-0.9567565918,,,
28.3750000000,3,-0.6425170898,,,
28.3906250000,3,-0.1735839993,,,
28.4062500000,3,0.3572998047,,,
28.4218750000,3,0.8445435166,,,
28.4375000000,3,1.2097469568,,,
28.4531250000,3,1.4009549618,,,
28.4687500000,3,1.3961329460,,,
28.4843750000,3,1.1879730225,,,
28.5000000000,3,0.8137664795,,,
28.5156250000,3,0.3493041992,,,
28.5312500000,3,-0.0956115723,,,
28.5468750000,3,-0.4054565132,,,
28.5625000000,3,-0.5123596191,,,
28.5781250000,3,-0.4380035102,,,
28.5937500000,3,-0.2848663032,,,
28.6093750000,3,-0.1806641072,,,
28.6250000000,3,-0.2173157036,,,
28.6406250000,3,-0.3773193061,,,
28.6562500000,3,-0.5762786865,,,
28.6718750000,3,-0.7110900879,,,
28.6875000000,3,-0.7287445068,,,
28.7031250000,3,-0.6701049805,,,
28.7187500000,3,-0.6234893799,,,
28.7343750000,3,-0.6504821777,,,
28.7500000000,3,-0.7530211806,,,
28.7656250000,3,-0.8650513291,,,
28.7812500000,3,-0.9136199951,,,
28.7968750000,3,-0.8597717285,,,
28.8125000000,3,-0.7051085830,,,
28.8281250000,3,-0.4753876030,,,
28.8437500000,3,-0.1890563965,,,
28.8593750000,3,0.1615906060,,,
28.8750000000,3,0.5936737061,,,
28.8906250000,3,1.0937650204,,,
28.9062500000,3,1.6065829992,,,
28.9218750000,3,2.0304720402,,,
28.9375000000,3,2.2574770451,,,
28.9531250000,3,2.2198181152,,,
28.9687500000,3,1.9123840332,,,
28.9843750000,3,1.3972929716,,,
29.0000000000,3,0.7916564941,,,
29.0156250000,3,0.2425231934,,,
29.0312500000,3,-0.1270904988,,,
29.0468750000,3,-0.2482758015,,,
29.0625000000,3,-0.1660767049,,,
29.0781250000,3,-0.0026092529,,,
29.0937500000,3,0.0946655273,,,
29.1093750000,3,0.0332031287,,,
29.1250000000,3,-0.1778412014,,,
29.1406250000,3,-0.4388428032,,,
29.1562500000,3,-0.6306458116,,,
29.1718750000,3,-0.6856995225,,,
29.1875000000,3,-0.6115570068,,,
29.2031250000,3,-0.4840087891,,,
29.2187500000,3,-0.3638611138,,,
29.2343750000,3,-0.2612456977,,,
29.2500000000,3,-0.1307678074,,,
29.2656250000,3,0.0939025879,,,
29.2812500000,3,0.4153900146,,,
29.2968750000,3,0.7544097900,,,
29.3125000000,3,0.9791259766,,,
29.3281250000,3,0.9917755127,,,
29.3437500000,3,0.7817382813,,,
29.3593750000,3,0.4432677925,,,
29.3750000000,3,0.1107482985,,,
29.3906250000,3,-0.1262816936,,,
29.4062500000,3,-0.2594299018,,,
29.4218750000,3,-0.3611145020,,,
29.4375000000,3,-0.5030974746,,,
29.4531250000,3,-0.7057495117,,,
29.4687500000,3,-0.9138336182,,,
29.4843750000,3,-1.0504909754,,,
29.5000000000,3,-1.0593869686,,,
29.5156250000,3,-0.9770812988,,,
29.5312500000,3,-0.9057006836,,,
29.5468750000,3,-0.9310759902,,,
29.5625000000,3,-1.0871889591,,,
29.5781250000,3,-1.3040469885,,,
29.5937500000,3,-1.4658199549,,,
29.6093750000,3,-1.4836119413,,,
29.6250000000,3,-1.3451999426,,,
29.6406250000,3,-1.1059720516,,,
29.6562500000,3,-0.8372344971,,,
29.6718750000,3,-0.5549315810,,,
29.6875000000,3,-0.2120666951,,,
29.7031250000,3,0.2312317044,,,
29.7187500000,3,0.7435607910,,,
29.7343750000,3,1.1869349480,,,
29.7500000000,3,1.3942569494,,,
29.7656250000,3,1.2692259550,,,
29.7812500000,3,0.8693695068,,,
29.7968750000,3,0.3984070122,,,
29.8125000000,3,0.0973815918,,,
29.8281250000,3,0.1165923998,,,
29.8437500000,3,0.4272156060,,,
29.8593750000,3,0.8564605713,,,
29.8750000000,3,1.1907960176,,,
29.8906250000,3,1.2858120203,,,
29.9062500000,3,1.1236419678,,,
29.9218750000,3,0.7664337158,,,
29.9375000000,3,0.3036499023,,,
29.9531250000,3,-0.1914214939,,,
29.9687500000,3,-0.6722869873,,,
29.9843750000,3,-1.0969699621,,,
30.0000000000,3,-1.3825680017,,,
30.0156250000,3,-1.4435269833,,,
30.0312500000,3,-1.2378230095,,,
30.0468750000,3,-0.8029785156,,,
30.0625000000,3,-0.2793579102,,,
30.0781250000,3,0.1622924954,,,
30.0937500000,3,0.4061127007,,,
30.1093750000,3,0.4403075874,,,
30.1250000000,3,0.3596191108,,,
30.1406250000,3,0.3045653999,,,
30.1562500000,3,0.3747864068,,,
30.1718750000,3,0.5805205703,,,
30.1875000000,3,0.8429108262,,,
30.2031250000,3,1.0560300350,,,
30.2187500000,3,1.1567380428,,,
30.2343750000,3,1.1407170296,,,
30.2500000000,3,1.0578000546,,,
30.2656250000,3,0.9544829726,,,
30.2812500000,3,0.8335723877,,,
30.2968750000,3,0.6754149795,,,
30.3125000000,3,0.4564819038,,,
30.3281250000,3,0.2038726956,,,
30.3437500000,3,-0.0015716550,,,
30.3593750000,3,-0.0778808594,,,
30.3750000000,3,0.0093231201,,,
30.3906250000,3,0.2290191948,,,
30.4062500000,3,0.4871979058,,,
30.4218750000,3,0.6648101807,,,
30.4375000000,3,0.6637421250,,,
30.4531250000,3,0.4618834853,,,
30.4687500000,3,0.1054992974,,,
30.4843750000,3,-0.3036651909,,,
30.5000000000,3,-0.6404265761,,,
30.5156250000,3,-0.8026428223,,,
30.5312500000,3,-0.7555236816,,,
30.5468750000,3,-0.5335692763,,,
30.5625000000,3,-0.2248535007,,,
30.5781250000,3,0.0578460693,,,
30.5937500000,3,0.2257232964,,,
30.6093750000,3,0.2420348972,,,
30.6250000000,3,0.1179504022,,,
30.6406250000,3,-0.1032103971,,,
30.6562500000,3,-0.3594512939,,,
30.6718750000,3,-0.6047058105,,,
30.6875000000,3,-0.7982482910,,,
30.7031250000,3,-0.9188690186,,,
30.7187500000,3,-0.9543610215,,,
30.7343750000,3,-0.9071807861,,,
30.7500000000,3,-0.8069763184,,,
30.7656250000,3,-0.6928405762,,,
30.7812500000,3,-0.6322479248,,,
30.7968750000,3,-0.6534271240,,,
30.8125000000,3,-0.7535095215,,,
30.8281250000,3,-0.8651580811,,,
30.8437500000,3,-0.8752899170,,,
30.8593750000,3,-0.6990203857,,,
30.8750000000,3,-0.3104552925,,,
30.8906250000,3,0.2281952053,,,
30.9062500000,3,0.7872924805,,,
30.9218750000,3,1.2315219641,,,
30.9375000000,3,1.4610439539,,,
30.9531250000,3,1.4442900419,,,
30.9687500000,3,1.2139430046,,,
30.9843750000,3,0.8443756104,,,
31.0000000000,3,0.4255219102,,,
31.0156250000,3,0.0640106201,,,
31.0312500000,3,-0.1349181980,,,
31.0468750000,3,-0.1035766974,,,
31.0625000000,3,0.1602478027,,,
31.0781250000,3,0.5663909912,,,
31.0937500000,3,0.9569702148,,,
31.1093750000,3,1.1772769690,,,
31.1250000000,3,1.1464229822,,,
31.1406250000,3,0.8848419189,,,
31.1562500000,3,0.5108489990,,,
31.1718750000,3,0.1445923001,,,
31.1875000000,3,-0.1233062968,,,
31.2031250000,3,-0.2728728950,,,
31.2187500000,3,-0.3268890083,,,
31.2343750000,3,-0.3219451904,,,
31.2500000000,3,-0.2844542861,,,
31.2656250000,3,-0.2268829048,,,
31.2812500000,3,-0.1777953953,,,
31.2968750000,3,-0.1635895073,,,
31.3125000000,3,-0.1969452053,,,
31.3281250000,3,-0.2536011040,,,
31.3437500000,3,-0.2722473145,,,
31.3593750000,3,-0.1971282959,,,
31.3750000000,3,-0.0085144043,,,
31.3906250000,3,0.2495727986,,,
31.4062500000,3,0.4829407036,,,
31.4218750000,3,0.5924376845,,,
31.4375000000,3,0.5144500732,,,
31.4531250000,3,0.2252655029,,,
31.4687500000,3,-0.2269286960,,,
31.4843750000,3,-0.7500609756,,,
31.5000000000,3,-1.2225339413,,,
31.5156250000,3,-1.5398559570,,,
31.5312500000,3,-1.6380460262,,,
31.5468750000,3,-1.5376590490,,,
31.5625000000,3,-1.3339539766,,,
31.5781250000,3,-1.1519320011,,,
31.5937500000,3,-1.0985109806,,,
31.6093750000,3,-1.1984709501,,,
31.6250000000,3,-1.3777619600,,,
31.6406250000,3,-1.5156400204,,,
31.6562500000,3,-1.4965059757,,,
31.6718750000,3,-1.2874759436,,,
31.6875000000,3,-0.9342957139,,,
31.7031250000,3,-0.5475769043,,,
31.7187500000,3,-0.2211609036,,,
31.7343750000,3,-0.0150299100,,,
31.7500000000,3,0.0751190186,,,
31.7656250000,3,0.0872650072,,,
31.7812500000,3,0.0766296387,,,
31.7968750000,3,0.0943756104,,,
31.8125000000,3,0.1846313030,,,
31.8281250000,3,0.3647614121,,,
31.8437500000,3,0.6070709229,,,
31.8593750000,3,0.8583679199,,,
31.8750000000,3,1.0523680449,,,
31.8906250000,3,1.1527400017,,,
31.9062500000,3,1.1579279900,,,
31.9218750000,3,1.1109770536,,,
31.9375000000,3,1.0685420036,,,
31.9531250000,3,1.0496829748,,,
31.9687500000,3,1.0394740105,,,
31.9843750000,3,0.9695281982,,,
32.0000000000,4,0.7832489014,,,
32.0156250000,4,0.4586639106,,,
32.0312500000,4,0.0531005897,,,
32.0468750000,4,-0.3239288032,,,
32.0625000000,4,-0.5665587783,,,
32.0781250000,4,-0.5935363770,,,
32.0937500000,4,-0.4171448052,,,
32.1093750000,4,-0.1156921014,,,
32.1250000000,4,0.2026367038,,,
32.1406250000,4,0.4498901069,,,
32.1562500000,4,0.5953673720,,,
32.1718750000,4,0.6544188857,,,
32.1875000000,4,0.6872559190,,,
32.2031250000,4,0.7446289063,,,
32.2187500000,4,0.8557739258,,,
32.2343750000,4,0.9963225722,,,
32.2500000000,4,1.1154479980,,,
32.2656250000,4,1.1365050077,,,
32.2812500000,4,1.0153349638,,,
32.2968750000,4,0.7465363145,,,
32.3125000000,4,0.3874053955,,,
32.3281250000,4,0.0476989709,,,
32.3437500000,4,-0.1585541070,,,
32.3593750000,4,-0.1586609036,,,
32.3750000000,4,0.0387115516,,,
32.3906250000,4,0.3497161865,,,
32.4062500000,4,0.6435394287,,,
32.4218750000,4,0.7896575928,,,
32.4375000000,4,0.7076721191,,,
32.4531250000,4,0.3824920952,,,
32.4687500000,4,-0.1194763035,,,
32.4843750000,4,-0.6964569092,,,
32.5000000000,4,-1.2352910042,,,
32.5156250000,4,-1.6450500488,,,
32.5312500000,4,-1.8562619686,,,
32.5468750000,4,-1.8462829590,,,
32.5625000000,4,-1.6445310116,,,
32.5781250000,4,-1.3098909855,,,
32.5937500000,4,-0.9157866836,,,
32.6093750000,4,-0.5249329209,,,
32.6250000000,4,-0.1663818061,,,
32.6406250000,4,0.1697387993,,,
32.6562500000,4,0.5018157959,,,
32.6718750000,4,0.8264160156,,,
32.6875000000,4,1.0902860165,,,
32.7031250000,4,1.2243349552,,,
32.7187500000,4,1.1867979765,,,
32.7343750000,4,0.9760742188,,,
32.7500000000,4,0.6740875244,,,
32.7656250000,4,0.3854064941,,,
32.7812500000,4,0.2034911960,,,
32.7968750000,4,0.1584320068,,,
32.8125000000,4,0.2130737007,,,
32.8281250000,4,0.2811737061,,,
32.8437500000,4,0.2878417969,,,
32.8593750000,4,0.2074737996,,,
32.8750000000,4,0.0708923265,,,
32.8906250000,4,-0.0435180701,,,
32.9062500000,4,-0.0826721191,,,
32.9218750000,4,-0.0450744592,,,
32.9375000000,4,0.0110015897,,,
32.9531250000,4,0.0047149658,,,
32.9687500000,4,-0.1017455980,,,
32.9843750000,4,-0.2805634141,,,
33.0000000000,4,-0.4478454888,,,
33.0156250000,4,-0.5277709961,,,
33.0312500000,4,-0.4877777100,,,
33.0468750000,4,-0.3784484863,,,
33.0625000000,4,-0.3055877984,,,
33.0781250000,4,-0.3545227051,,,
33.0937500000,4,-0.5377349854,,,
33.1093750000,4,-0.7870026231,,,
33.1250000000,4,-0.9893494248,,,
33.1406250000,4,-1.0529170036,,,
33.1562500000,4,-0.9626160264,,,
33.1718750000,4,-0.7545775771,,,
33.1875000000,4,-0.4882355034,,,
33.2031250000,4,-0.2019958049,,,
33.2187500000,4,0.0898437500,,,
33.2343750000,4,0.3643799126,,,
33.2500000000,4,0.5585938096,,,
33.2656250000,4,0.5814971924,,,
33.2812500000,4,0.3647766113,,,
33.2968750000,4,-0.0760955811,,,
33.3125000000,4,-0.6095275879,,,
33.3281250000,4,-1.0290679932,,,
33.3437500000,4,-1.1389009953,,,
33.3593750000,4,-0.8641356826,,,
33.3750000000,4,-0.2995299995,,,
33.3906250000,4,0.3371429145,,,
33.4062500000,4,0.8101044297,,,
33.4218750000,4,0.9924622178,,,
33.4375000000,4,0.9252930284,,,
33.4531250000,4,0.7816162109,,,
33.4687500000,4,0.7650604248,,,
33.4843750000,4,0.9710388184,,,
33.5000000000,4,1.3459780216,,,
33.5156250000,4,1.7108310461,,,
33.5312500000,4,1.8676149845,,,
33.5468750000,4,1.7017819881,,,
33.5625000000,4,1.2254639864,,,
33.5781250000,4,0.5792694092,,,
33.5937500000,4,-0.0574035607,,,
33.6093750000,4,-0.5160675049,,,
33.6250000000,4,-0.7146301270,,,
33.6406250000,4,-0.6681212783,,,
33.6562500000,4,-0.4754944146,,,
33.6718750000,4,-0.2797698975,,,
33.6875000000,4,-0.1966705024,,,
33.7031250000,4,-0.2663115859,,,
33.7187500000,4,-0.4560698867,,,
33.7343750000,4,-0.6654968262,,,
33.7500000000,4,-0.7938994765,,,
33.7656250000,4,-0.8249816895,,,
33.7812500000,4,-0.8128051758,,,
33.7968750000,4,-0.8438262939,,,
33.8125000000,4,-0.9655913711,,,
33.8281250000,4,-1.1373900175,,,
33.8437500000,4,-1.2657619715,,,
33.8593750000,4,-1.2653499842,,,
33.8750000000,4,-1.1329799891,,,
33.8906250000,4,-0.9578093886,,,
33.9062500000,4,-0.8431243896,,,
33.9218750000,4,-0.8306121826,,,
33.9375000000,4,-0.8678284287,,,
33.9531250000,4,-0.8433989882,,,
33.9687500000,4,-0.6630095840,,,
33.9843750000,4,-0.3344726861,,,
34.0000000000,4,0.0512542687,,,
34.0156250000,4,0.3731079102,,,
34.0312500000,4,0.5447540283,,,
34.0468750000,4,0.5629578233,,,
34.0625000000,4,0.4868010879,,,
34.0781250000,4,0.3933868110,,,
34.0937500000,4,0.3286285102,,,
34.1093750000,4,0.3293915093,,,
34.1250000000,4,0.4297027886,,,
34.1406250000,4,0.6584166884,,,
34.1562500000,4,1.0245360136,,,
34.1718750000,4,1.4629210234,,,
34.1875000000,4,1.8431400061,,,
34.2031250000,4,2.0029299259,,,
34.2187500000,4,1.8241729736,,,
34.2343750000,4,1.3132170439,,,
34.2500000000,4,0.6214904785,,,
34.2656250000,4,-0.0285797101,,,
34.2812500000,4,-0.4369507134,,,
34.2968750000,4,-0.5258635879,,,
34.3125000000,4,-0.3688201904,,,
34.3281250000,4,-0.1252593994,,,
34.3437500000,4,0.0437316895,,,
34.3593750000,4,0.0539398193,,,
34.3750000000,4,-0.0723266602,,,
34.3906250000,4,-0.2591094971,,,
34.4062500000,4,-0.4177703857,,,
34.4218750000,4,-0.4952087104,,,
34.4375000000,4,-0.4826965034,,,
34.4531250000,4,-0.4009704888,,,
34.4687500000,4,-0.2677001953,,,
34.4843750000,4,-0.1324463040,,,
34.5000000000,4,-0.0578918494,,,
34.5156250000,4,-0.1104279011,,,
34.5312500000,4,-0.3237152100,,,
34.5468750000,4,-0.6461486816,,,
34.5625000000,4,-0.9544525146,,,
34.5781250000,4,-1.0989840031,,,
34.5937500000,4,-0.9918975830,,,
34.6093750000,4,-0.6506348252,,,
34.6250000000,4,-0.2095489949,,,
34.6406250000,4,0.1563415974,,,
34.6562500000,4,0.3076018989,,,
34.6718750000,4,0.2099152058,,,
34.6875000000,4,-0.0472106896,,,
34.7031250000,4,-0.3212432861,,,
34.7187500000,4,-0.4624023139,,,
34.7343750000,4,-0.3930358887,,,
34.7500000000,4,-0.1208954006,,,
34.7656250000,4,0.2696686089,,,
34.7812500000,4,0.6704254150,,,
34.7968750000,4,0.9836273193,,,
34.8125000000,4,1.1471409798,,,
34.8281250000,4,1.1302800179,,,
34.8437500000,4,0.9145507813,,,
34.8593750000,4,0.5073546767,,,
34.8750000000,4,-0.0261688195,,,
34.8906250000,4,-0.5743560791,,,
34.9062500000,4,-0.9800415039,,,
34.9218750000,4,-1.1042330265,,,
34.9375000000,4,-0.8856505752,,,
34.9531250000,4,-0.4073028862,,,
34.9687500000,4,0.1582794040,,,
34.9843750000,4,0.5957946777,,,
35.0000000000,4,0.7725676894,,,
35.0156250000,4,0.6909943223,,,
35.0312500000,4,0.4548949897,,,
35.0468750000,4,0.2080841064,,,
35.0625000000,4,0.0507812500,,,
35.0781250000,4,0.0010833740,,,
35.0937500000,4,0.0082702637,,,
35.1093750000,4,0.0211486798,,,
35.1250000000,4,0.0117797898,,,
35.1406250000,4,0.0133819599,,,
35.1562500000,4,0.0563812293,,,
35.1718750000,4,0.1470946968,,,
35.1875000000,4,0.2403869927,,,
35.2031250000,4,0.2625885010,,,
35.2187500000,4,0.1459503025,,,
35.2343750000,4,-0.1350861043,,,
35.2500000000,4,-0.5211486816,,,
35.2656250000,4,-0.9058837891,,,
35.2812500000,4,-1.1648249626,,,
35.2968750000,4,-1.2218170166,,,
35.3125000000,4,-1.0708160400,,,
35.3281250000,4,-0.7732086182,,,
35.3437500000,4,-0.4302215874,,,
35.3593750000,4,-0.1394042969,,,
35.3750000000,4,0.0264740009,,,
35.3906250000,4,0.0387725793,,,
35.4062500000,4,-0.1024017036,,,
35.4218750000,4,-0.3618010879,,,
35.4375000000,4,-0.6559906006,,,
35.4531250000,4,-0.8864440918,,,
35.4687500000,4,-0.9524993896,,,
35.4843750000,4,-0.8052979112,,,
35.5000000000,4,-0.4562531114,,,
35.5156250000,4,0.0224609394,,,
35.5312500000,4,0.5406646729,,,
35.5468750000,4,0.9969177246,,,
35.5625000000,4,1.3167270422,,,
35.5781250000,4,1.4458309412,,,
35.5937500000,4,1.3835300207,,,
35.6093750000,4,1.1867829561,,,
35.6250000000,4,0.9473267198,,,
35.6406250000,4,0.7914124131,,,
35.6562500000,4,0.7866821289,,,
35.6718750000,4,0.9503325820,,,
35.6875000000,4,1.2069400549,,,
35.7031250000,4,1.4409790039,,,
35.7187500000,4,1.5353089571,,,
35.7343750000,4,1.4273380041,,,
35.7500000000,4,1.1318210363,,,
35.7656250000,4,0.7094879150,,,
35.7812500000,4,0.2498778999,,,
35.7968750000,4,-0.1711730957,,,
35.8125000000,4,-0.4793395996,,,
35.8281250000,4,-0.6274871826,,,
35.8437500000,4,-0.5966796875,,,
35.8593750000,4,-0.4101409912,,,
35.8750000000,4,-0.1638184041,,,
35.8906250000,4,0.0309448205,,,
35.9062500000,4,0.0632476807,,,
35.9218750000,4,-0.1037598029,,,
35.9375000000,4,-0.4248962104,,,
35.9531250000,4,-0.7977448106,,,
35.9687500000,4,-1.1135250330,,,
35.9843750000,4,-1.2901459932,,,
36.0000000000,4,-1.2939300537,,,
36.0156250000,4,-1.1556550264,,,
36.0312500000,4,-0.9347838759,,,
36.0468750000,4,-0.7028961182,,,
36.0625000000,4,-0.5074005127,,,
36.0781250000,4,-0.3748474121,,,
36.0937500000,4,-0.2933655083,,,
36.1093750000,4,-0.2268065959,,,
36.1250000000,4,-0.1422272027,,,
36.1406250000,4,-0.0047454829,,,
36.1562500000,4,0.1811522990,,,
36.1718750000,4,0.3787231147,,,
36.1875000000,4,0.5283051133,,,
36.2031250000,4,0.5867614746,,,
36.2187500000,4,0.5229033828,,,
36.2343750000,4,0.3430786133,,,
36.2500000000,4,0.0828399733,,,
36.2656250000,4,-0.2132416070,,,
36.2812500000,4,-0.4836578071,,,
36.2968750000,4,-0.6798859239,,,
36.3125000000,4,-0.7586823106,,,
36.3281250000,4,-0.7146912217,,,
36.3437500000,4,-0.5832520127,,,
36.3593750000,4,-0.4214478135,,,
36.3750000000,4,-0.2814177871,,,
36.3906250000,4,-0.1985016018,,,
36.4062500000,4,-0.1830597073,,,
36.4218750000,4,-0.2320251018,,,
36.4375000000,4,-0.3277435005,,,
36.4531250000,4,-0.4440917969,,,
36.4687500000,4,-0.5482482910,,,
36.4843750000,4,-0.5801239014,,,
36.5000000000,4,-0.4865874946,,,
36.5156250000,4,-0.2416381985,,,
36.5312500000,4,0.1160126030,,,
36.5468750000,4,0.4749450982,,,
36.5625000000,4,0.6938170791,,,
36.5781250000,4,0.6748961806,,,
36.5937500000,4,0.4180144966,,,
36.6093750000,4,0.0455169715,,,
36.6250000000,4,-0.2757416070,,,
36.6406250000,4,-0.4089966118,,,
36.6562500000,4,-0.3040009141,,,
36.6718750000,4,-0.0193328895,,,
36.6875000000,4,0.3331756890,,,
36.7031250000,4,0.6466370225,,,
36.7187500000,4,0.8560485840,,,
36.7343750000,4,0.9446105957,,,
36.7500000000,4,0.9308319092,,,
36.7656250000,4,0.8333740234,,,
36.7812500000,4,0.6682280898,,,
36.7968750000,4,0.4571380913,,,
36.8125000000,4,0.2264862061,,,
36.8281250000,4,0.0156555194,,,
36.8437500000,4,-0.1383513957,,,
36.8593750000,4,-0.2154387981,,,
36.8750000000,4,-0.2024230957,,,
36.8906250000,4,-0.1139679030,,,
36.9062500000,4,0.0288238507,,,
36.9218750000,4,0.1890410930,,,
36.9375000000,4,0.3391417861,,,
36.9531250000,4,0.4559325874,,,
36.9687500000,4,0.5404968262,,,
36.9843750000,4,0.6214141846,,,
37.0000000000,4,0.7326354980,,,
37.0156250000,4,0.8682556152,,,
37.0312500000,4,0.9827117920,,,
37.0468750000,4,0.9807128906,,,
37.0625000000,4,0.7873992920,,,
37.0781250000,4,0.3931731880,,,
37.0937500000,4,-0.1203766018,,,
37.1093750000,4,-0.6023101807,,,
37.1250000000,4,-0.9051818848,,,
37.1406250000,4,-0.9642180800,,,
37.1562500000,4,-0.8069458008,,,
37.1718750000,4,-0.5444946289,,,
37.1875000000,4,-0.2966614068,,,
37.2031250000,4,-0.1501006931,,,
37.2187500000,4,-0.1261291951,,,
37.2343750000,4,-0.2175751030,,,
37.2500000000,4,-0.3922728896,,,
37.2656250000,4,-0.6104279160,,,
37.2812500000,4,-0.8274384141,,,
37.2968750000,4,-0.9767150879,,,
37.3125000000,4,-0.9941558838,,,
37.3281250000,4,-0.8268737793,,,
37.3437500000,4,-0.4833984077,,,
37.3593750000,4,-0.0193023700,,,
37.3750000000,4,0.4611358941,,,
37.3906250000,4,0.8294829726,,,
37.4062500000,4,0.9889373779,,,
37.4218750000,4,0.9006958008,,,
37.4375000000,4,0.6123809814,,,
37.4531250000,4,0.2297973931,,,
37.4687500000,4,-0.1020966023,,,
37.4843750000,4,-0.2755432129,,,
37.5000000000,4,-0.2387237996,,,
37.5156250000,4,-0.0346069299,,,
37.5312500000,4,0.2442169040,,,
37.5468750000,4,0.4928588867,,,
37.5625000000,4,0.6460571289,,,
37.5781250000,4,0.6899871826,,,
37.5937500000,4,0.6502075195,,,
37.6093750000,4,0.5674132705,,,
37.6250000000,4,0.4738616943,,,
37.6406250000,4,0.3787384033,,,
37.6562500000,4,0.2789154053,,,
37.6718750000,4,0.1769104004,,,
37.6875000000,4,0.0801849365,,,
37.7031250000,4,-0.0217285194,,,
37.7187500000,4,-0.1368408054,,,
37.7343750000,4,-0.2928161919,,,
37.7500000000,4,-0.5092316270,,,
37.7656250000,4,-0.7807312012,,,
37.7812500000,4,-1.0542140007,,,
37.7968750000,4,-1.2428590059,,,
37.8125000000,4,-1.2390749454,,,
37.8281250000,4,-0.9698792100,,,
37.8437500000,4,-0.4580993950,,,
37.8593750000,4,0.1775512993,,,
37.8750000000,4,0.7466735840,,,
37.8906250000,4,1.0642700195,,,
37.9062500000,4,1.0299530029,,,
37.9218750000,4,0.6727141738,,,
37.9375000000,4,0.1289519966,,,
37.9531250000,4,-0.4248198867,,,
37.9687500000,4,-0.8422089219,,,
37.9843750000,4,-1.0667719841,,,
38.0000000000,4,-1.0982509851,,,
38.0156250000,4,-0.9725646973,,,
38.0312500000,4,-0.7332000732,,,
38.0468750000,4,-0.4138031006,,,
38.0625000000,4,-0.0340270996,,,
38.0781250000,4,0.3585205078,,,
38.0937500000,4,0.6817169189,,,
38.1093750000,4,0.8671112061,,,
38.1250000000,4,0.8607941270,,,
38.1406250000,4,0.6741486192,,,
38.1562500000,4,0.3618010879,,,
38.1718750000,4,0.0126190204,,,
38.1875000000,4,-0.2886962891,,,
38.2031250000,4,-0.4914245903,,,
38.2187500000,4,-0.5885161757,,,
38.2343750000,4,-0.5976409912,,,
38.2500000000,4,-0.5539702773,,,
38.2656250000,4,-0.4868622124,,,
38.2812500000,4,-0.4196319878,,,
38.2968750000,4,-0.3795166016,,,
38.3125000000,4,-0.3832550049,,,
38.3281250000,4,-0.4420166016,,,
38.3437500000,4,-0.5405120850,,,
38.3593750000,4,-0.6487122178,,,
38.3750000000,4,-0.7103270888,,,
38.3906250000,4,-0.6805114746,,,
38.4062500000,4,-0.5402374268,,,
38.4218750000,4,-0.2969818115,,,
38.4375000000,4,0.0075531011,,,
38.4531250000,4,0.3171234131,,,
38.4687500000,4,0.5819396973,,,
38.4843750000,4,0.7738800049,,,
38.5000000000,4,0.8809357285,,,
38.5156250000,4,0.9304656982,,,
38.5312500000,4,0.9568634033,,,
38.5468750000,4,0.9810791016,,,
38.5625000000,4,1.0145720243,,,
38.5781250000,4,1.0364840031,,,
38.5937500000,4,1.0011750460,,,
38.6093750000,4,0.8846588135,,,
38.6250000000,4,0.6961516738,,,
38.6406250000,4,0.4933013916,,,
38.6562500000,4,0.3415375054,,,
38.6718750000,4,0.2694244087,,,
38.6875000000,4,0.2443695068,,,
38.7031250000,4,0.1925812066,,,
38.7187500000,4,0.0569458008,,,
38.7343750000,4,-0.1471251994,,,
38.7500000000,4,-0.3356170952,,,
38.7656250000,4,-0.3845520020,,,
38.7812500000,4,-0.2417449951,,,
38.7968750000,4,0.0553436317,,,
38.8125000000,4,0.3762665093,,,
38.8281250000,4,0.5796508789,,,
38.8437500000,4,0.6029816270,,,
38.8593750000,4,0.4951323867,,,
38.8750000000,4,0.3937531114,,,
38.8906250000,4,0.4141541123,,,
38.9062500000,4,0.5710906982,,,
38.9218750000,4,0.7453156114,,,
38.9375000000,4,0.7583618164,,,
38.9531250000,4,0.4817351997,,,
38.9687500000,4,-0.0741424635,,,
38.9843750000,4,-0.7613068223,,,
39.0000000000,4,-1.3686829805,,,
39.0156250000,4,-1.7319790125,,,
39.0312500000,4,-1.8076020479,,,
39.0468750000,4,-1.6577450037,,,
39.0625000000,4,-1.3941040039,,,
39.0781250000,4,-1.0948640108,,,
39.0937500000,4,-0.7954711914,,,
39.1093750000,4,-0.4936371148,,,
39.1250000000,4,-0.1979217976,,,
39.1406250000,4,0.0558776893,,,
39.1562500000,4,0.1987915039,,,
39.1718750000,4,0.1784667969,,,
39.1875000000,4,-0.0036315920,,,
39.2031250000,4,-0.3005828857,,,
39.2187500000,4,-0.6280364990,,,
39.2343750000,4,-0.9012451172,,,
39.2500000000,4,-1.0687409639,,,
39.2656250000,4,-1.0925749540,,,
39.2812500000,4,-0.9729155898,,,
39.2968750000,4,-0.7357941270,,,
39.3125000000,4,-0.4432525933,,,
39.3281250000,4,-0.1673126072,,,
39.3437500000,4,0.0234680194,,,
39.3593750000,4,0.1103973016,,,
39.3750000000,4,0.1183471978,,,
39.3906250000,4,0.1055907980,,,
39.4062500000,4,0.1145171970,,,
39.4218750000,4,0.1399841011,,,
39.4375000000,4,0.1445617974,,,
39.4531250000,4,0.1012573019,,,
39.4687500000,4,0.0344543494,,,
39.4843750000,4,0.0051269531,,,
39.5000000000,4,0.1018828973,,,
39.5156250000,4,0.3624419868,,,
39.5312500000,4,0.7598267198,,,
39.5468750000,4,1.2120820284,,,
39.5625000000,4,1.6129610538,,,
39.5781250000,4,1.8873749971,,,
39.5937500000,4,1.9890899658,,,
39.6093750000,4,1.9140779972,,,
39.6250000000,4,1.6758270264,,,
39.6406250000,4,1.3121030331,,,
39.6562500000,4,0.8786774278,,,
39.6718750000,4,0.4593200982,,,
39.6875000000,4,0.1364898980,,,
39.7031250000,4,-0.0519409217,,,
39.7187500000,4,-0.1293181926,,,
39.7343750000,4,-0.1728210002,,,
39.7500000000,4,-0.2815552056,,,
39.7656250000,4,-0.4903106987,,,
39.7812500000,4,-0.7514495850,,,
39.7968750000,4,-0.9710540771,,,
39.8125000000,4,-1.0532989502,,,
39.8281250000,4,-0.9738770127,,,
39.8437500000,4,-0.7623596191,,,
39.8593750000,4,-0.4794158936,,,
39.8750000000,4,-0.1509398967,,,
39.8906250000,4,0.2169647068,,,
39.9062500000,4,0.6229094863,,,
39.9218750000,4,1.0150909424,,,
39.9375000000,4,1.2874599695,,,
39.9531250000,4,1.3430019617,,,
39.9687500000,4,1.1441040039,,,
39.9843750000,4,0.7389832139,,,
40.0000000000,5,0.2684173882,,,
40.0156250000,5,-0.1273804009,,,
40.0312500000,5,-0.3668060005,,,
40.0468750000,5,-0.4561462104,,,
40.0625000000,5,-0.4661406875,,,
40.0781250000,5,-0.4779205024,,,
40.0937500000,5,-0.5236968994,,,
40.1093750000,5,-0.5788269043,,,
40.1250000000,5,-0.5863342285,,,
40.1406250000,5,-0.5100554824,,,
40.1562500000,5,-0.3549652100,,,
40.1718750000,5,-0.1856231987,,,
40.1875000000,5,-0.0871582031,,,
40.2031250000,5,-0.1354217976,,,
40.2187500000,5,-0.3535614014,,,
40.2343750000,5,-0.6876984239,,,
40.2500000000,5,-1.0188599825,,,
40.2656250000,5,-1.2180789709,,,
40.2812500000,5,-1.2025909424,,,
40.2968750000,5,-0.9923095703,,,
40.3125000000,5,-0.6978607178,,,
40.3281250000,5,-0.4612121880,,,
40.3437500000,5,-0.3751983941,,,
40.3593750000,5,-0.4577026069,,,
40.3750000000,5,-0.6167755127,,,
40.3906250000,5,-0.7396697998,,,
40.4062500000,5,-0.7330322266,,,
40.4218750000,5,-0.5690001845,,,
40.4375000000,5,-0.2732085884,,,
40.4531250000,5,0.0868225098,,,
40.4687500000,5,0.4524078071,,,
40.4843750000,5,0.7471160889,,,
40.5000000000,5,0.9262238145,,,
40.5156250000,5,0.9618225098,,,
40.5312500000,5,0.8665770888,,,
40.5468750000,5,0.7008666992,,,
40.5625000000,5,0.5585631728,,,
40.5781250000,5,0.5106964111,,,
40.5937500000,5,0.5834807754,,,
40.6093750000,5,0.7474365234,,,
40.6250000000,5,0.9372406006,,,
40.6406250000,5,1.0866999626,,,
40.6562500000,5,1.1494289637,,,
40.6718750000,5,1.0950009823,,,
40.6875000000,5,0.9092407227,,,
40.7031250000,5,0.6018828750,,,
40.7187500000,5,0.2084503025,,,
40.7343750000,5,-0.2048034966,,,
40.7500000000,5,-0.5351104736,,,
40.7656250000,5,-0.6948853135,,,
40.7812500000,5,-0.6555786133,,,
40.7968750000,5,-0.4587860107,,,
40.8125000000,5,-0.2174071968,,,
40.8281250000,5,-0.0353546105,,,
40.8437500000,5,0.0652160570,,,
40.8593750000,5,0.1248627007,,,
40.8750000000,5,0.2196197957,,,
40.8906250000,5,0.3889007866,,,
40.9062500000,5,0.5837097168,,,
40.9218750000,5,0.7010651231,,,
40.9375000000,5,0.6635894775,,,
40.9531250000,5,0.4580993950,,,
40.9687500000,5,0.1578368992,,,
40.9843750000,5,-0.1468964070,,,
41.0000000000,5,-0.3857727051,,,
41.0156250000,5,-0.5410767198,,,
41.0312500000,5,-0.6287841797,,,
41.0468750000,5,-0.6663054824,,,
41.0625000000,5,-0.6568297744,,,
41.0781250000,5,-0.5890656114,,,
41.0937500000,5,-0.4844360054,,,
41.1093750000,5,-0.3809204102,,,
41.1250000000,5,-0.3301391900,,,
41.1406250000,5,-0.3357543945,,,
41.1562500000,5,-0.3552856147,,,
41.1718750000,5,-0.3268280029,,,
41.1875000000,5,-0.2170563042,,,
41.2031250000,5,-0.0637359619,,,
41.2187500000,5,0.0471954308,,,
41.2343750000,5,0.0428772010,,,
41.2500000000,5,-0.0754547119,,,
41.2656250000,5,-0.2214355022,,,
41.2812500000,5,-0.2908630073,,,
41.2968750000,5,-0.2115478963,,,
41.3125000000,5,-0.0090637207,,,
41.3281250000,5,0.2170410007,,,
41.3437500000,5,0.3555144966,,,
41.3593750000,5,0.3301849067,,,
41.3750000000,5,0.1413421929,,,
41.3906250000,5,-0.1536560059,,,
41.4062500000,5,-0.4647369087,,,
41.4218750000,5,-0.7114105225,,,
41.4375000000,5,-0.8274840713,,,
41.4531250000,5,-0.7806854248,,,
41.4687500000,5,-0.5856323242,,,
41.4843750000,5,-0.3009949028,,,
41.5000000000,5,-0.0229950007,,,
41.5156250000,5,0.1536255032,,,
41.5312500000,5,0.1780852973,,,
41.5468750000,5,0.0533447303,,,
41.5625000000,5,-0.1557158977,,,
41.5781250000,5,-0.3599090874,,,
41.5937500000,5,-0.4991149902,,,
41.6093750000,5,-0.5364531875,,,
41.6250000000,5,-0.4635773003,,,
41.6406250000,5,-0.2623595893,,,
41.6562500000,5,0.0795593336,,,
41.6718750000,5,0.5494536757,,,
41.6875000000,5,1.0818480253,,,
41.7031250000,5,1.5411679745,,,
41.7187500000,5,1.7709499598,,,
41.7343750000,5,1.6732330322,,,
41.7500000000,5,1.2652590275,,,
41.7656250000,5,0.6815186143,,,
41.7812500000,5,0.1290131062,,,
41.7968750000,5,-0.2209015042,,,
41.8125000000,5,-0.3045653999,,,
41.8281250000,5,-0.1812285930,,,
41.8437500000,5,0.0393066406,,,
41.8593750000,5,0.2524566948,,,
41.8750000000,5,0.4272002876,,,
41.8906250000,5,0.5832061768,,,
41.9062500000,5,0.7420197129,,,
41.9218750000,5,0.8751525879,,,
41.9375000000,5,0.9154204726,,,
41.9531250000,5,0.7931975722,,,
41.9687500000,5,0.4858246148,,,
41.9843750000,5,0.0630950928,,,
42.0000000000,5,-0.3549804986,,,
42.0156250000,5,-0.6423035264,,,
42.0312500000,5,-0.7201079726,,,
42.0468750000,5,-0.6158599854,,,
42.0625000000,5,-0.4242249131,,,
42.0781250000,5,-0.2690886855,,,
42.0937500000,5,-0.2496490031,,,
42.1093750000,5,-0.4033812881,,,
42.1250000000,5,-0.6825867295,,,
42.1406250000,5,-0.9819030762,,,
42.1562500000,5,-1.1961519718,,,
42.1718750000,5,-1.2597049475,,,
42.1875000000,5,-1.1714019775,,,
42.2031250000,5,-0.9749298096,,,
42.2187500000,5,-0.7319335938,,,
42.2343750000,5,-0.4662781060,,,
42.2500000000,5,-0.1743164063,,,
42.2656250000,5,0.1567077935,,,
42.2812500000,5,0.5035858154,,,
42.2968750000,5,0.7900084853,,,
42.3125000000,5,0.9357604980,,,
42.3281250000,5,0.8844451904,,,
42.3437500000,5,0.6666718125,,,
42.3593750000,5,0.3800658882,,,
42.3750000000,5,0.1446990967,,,
42.3906250000,5,0.0404357910,,,
42.4062500000,5,0.0672607422,,,
42.4218750000,5,0.1452178955,,,
42.4375000000,5,0.1760711968,,,
42.4531250000,5,0.1036377028,,,
42.4687500000,5,-0.0714263916,,,
42.4843750000,5,-0.2813721001,,,
42.5000000000,5,-0.4459075928,,,
42.5156250000,5,-0.5124511719,,,
42.5312500000,5,-0.4804840088,,,
42.5468750000,5,-0.3883971870,,,
42.5625000000,5,-0.2865752876,,,
42.5781250000,5,-0.2093658000,,,
42.5937500000,5,-0.1563110054,,,
42.6093750000,5,-0.1146240011,,,
42.6250000000,5,-0.0803375170,,,
42.6406250000,5,-0.0500946008,,,
42.6562500000,5,-0.0283355694,,,
42.6718750000,5,0.0000915527,,,
42.6875000000,5,0.0689697266,,,
42.7031250000,5,0.2016448975,,,
42.7187500000,5,0.3970336914,,,
42.7343750000,5,0.6181641221,,,
42.7500000000,5,0.7921906114,,,
42.7656250000,5,0.8596801758,,,
42.7812500000,5,0.7900847793,,,
42.7968750000,5,0.5975341797,,,
42.8125000000,5,0.3259125054,,,
42.8281250000,5,0.0476379395,,,
42.8437500000,5,-0.1636658013,,,
42.8593750000,5,-0.2366333008,,,
42.8750000000,5,-0.1449279934,,,
42.8906250000,5,0.0545501709,,,
42.9062500000,5,0.2349091023,,,
42.9218750000,5,0.2564696968,,,
42.9375000000,5,0.0438385010,,,
42.9531250000,5,-0.3329772949,,,
42.9687500000,5,-0.6896666884,,,
42.9843750000,5,-0.8241729736,,,
43.0000000000,5,-0.6327971816,,,
43.0156250000,5,-0.1905670017,,,
43.0312500000,5,0.2911835015,,,
43.0468750000,5,0.6036530137,,,
43.0625000000,5,0.6421813965,,,
43.0781250000,5,0.4615935981,,,
43.0937500000,5,0.2129517049,,,
43.1093750000,5,0.0356903113,,,
43.1250000000,5,-0.0183868408,,,
43.1406250000,5,0.0075531011,,,
43.1562500000,5,0.0386047401,,,
43.1718750000,5,0.0331726111,,,
43.1875000000,5,0.0070495610,,,
43.2031250000,5,0.0084533691,,,
43.2187500000,5,0.0762634277,,,
43.2343750000,5,0.2120971978,,,
43.2500000000,5,0.3675231934,,,
43.2656250000,5,0.4693604112,,,
43.2812500000,5,0.4389190972,,,
43.2968750000,5,0.2444916070,,,
43.3125000000,5,-0.0885620117,,,
43.3281250000,5,-0.4722442925,,,
43.3437500000,5,-0.7935944200,,,
43.3593750000,5,-0.9617462158,,,
43.3750000000,5,-0.9645233154,,,
43.3906250000,5,-0.8657836914,,,
43.4062500000,5,-0.7478333116,,,
43.4218750000,5,-0.6718292236,,,
43.4375000000,5,-0.6241760254,,,
43.4531250000,5,-0.5533295274,,,
43.4687500000,5,-0.4135589898,,,
43.4843750000,5,-0.2185668945,,,
43.5000000000,5,-0.0526580811,,,
43.5156250000,5,-0.0015869139,,,
43.5312500000,5,-0.0995635986,,,
43.5468750000,5,-0.2863616943,,,
43.5625000000,5,-0.4574126899,,,
43.5781250000,5,-0.5158234239,,,
43.5937500000,5,-0.4408111870,,,
43.6093750000,5,-0.2930603027,,,
43.6250000000,5,-0.1387176961,,,
43.6406250000,5,-0.0273742694,,,
43.6562500000,5,0.0304565392,,,
43.6718750000,5,0.0388793908,,,
43.6875000000,5,-0.0094146729,,,
43.7031250000,5,-0.1263580024,,,
43.7187500000,5,-0.3038024902,,,
43.7343750000,5,-0.4879761040,,,
43.7500000000,5,-0.6039124131,,,
43.7656250000,5,-0.5869750977,,,
43.7812500000,5,-0.4433746040,,,
43.7968750000,5,-0.2249756008,,,
43.8125000000,5,0.0046081538,,,
43.8281250000,5,0.2043457031,,,
43.8437500000,5,0.3781281114,,,
43.8593750000,5,0.5434722900,,,
43.8750000000,5,0.6933593750,,,
43.8906250000,5,0.7722625732,,,
43.9062500000,5,0.7362213135,,,
43.9218750000,5,0.5680695176,,,
43.9375000000,5,0.3509978950,,,
43.9531250000,5,0.2114716023,,,
43.9687500000,5,0.2471008003,,,
43.9843750000,5,0.4607391059,,,
44.0000000000,5,0.7447661757,,,
44.0156250000,5,0.9519348145,,,
44.0312500000,5,0.9861754775,,,
44.0468750000,5,0.8387451172,,,
44.0625000000,5,0.5669249892,,,
44.0781250000,5,0.2514496148,,,
44.0937500000,5,-0.0426330604,,,
44.1093750000,5,-0.2837372124,,,
44.1250000000,5,-0.4455108941,,,
44.1406250000,5,-0.5009307861,,,
44.1562500000,5,-0.4427947998,,,
44.1718750000,5,-0.3111267090,,,
44.1875000000,5,-0.1722259969,,,
44.2031250000,5,-0.1053161994,,,
44.2187500000,5,-0.1444701999,,,
44.2343750000,5,-0.2626801133,,,
44.2500000000,5,-0.3875732124,,,
44.2656250000,5,-0.4548186958,,,
44.2812500000,5,-0.4563446045,,,
44.2968750000,5,-0.4376372993,,,
44.3125000000,5,-0.4696502984,,,
44.3281250000,5,-0.5736083984,,,
44.3437500000,5,-0.6952667236,,,
44.3593750000,5,-0.7411956787,,,
44.3750000000,5,-0.6100922227,,,
44.3906250000,5,-0.2838287055,,,
44.4062500000,5,0.1849822998,,,
44.4218750000,5,0.6884613037,,,
44.4375000000,5,1.1051789522,,,
44.4531250000,5,1.3541719913,,,
44.4687500000,5,1.4006350040,,,
44.4843750000,5,1.2596280575,,,
44.5000000000,5,0.9694976807,,,
44.5156250000,5,0.5724030137,,,
44.5312500000,5,0.1316376030,,,
44.5468750000,5,-0.2727814019,,,
44.5625000000,5,-0.5673217773,,,
44.5781250000,5,-0.7129517198,,,
44.5937500000,5,-0.7147368789,,,
44.6093750000,5,-0.6164550781,,,
44.6250000000,5,-0.4678192139,,,
44.6406250000,5,-0.2849121094,,,
44.6562500000,5,-0.0545196496,,,
44.6718750000,5,0.2191925049,,,
44.6875000000,5,0.4924010932,,,
44.7031250000,5,0.6841735840,,,
44.7187500000,5,0.7127686143,,,
44.7343750000,5,0.5598449707,,,
44.7500000000,5,0.2946777046,,,
44.7656250000,5,0.0484771691,,,
44.7812500000,5,-0.0656433105,,,
44.7968750000,5,0.0043182368,,,
44.8125000000,5,0.2140807956,,,
44.8281250000,5,0.4706878960,,,
44.8437500000,5,0.6934967041,,,
44.8593750000,5,0.8269652724,,,
44.8750000000,5,0.8830413818,,,
44.8906250000,5,0.8784636855,,,
44.9062500000,5,0.8189849854,,,
44.9218750000,5,0.7060546875,,,
44.9375000000,5,0.5452271104,,,
44.9531250000,5,0.3623046875,,,
44.9687500000,5,0.1857604980,,,
44.9843750000,5,0.0501708984,,,
45.0000000000,5,-0.0206451397,,,
45.0156250000,5,-0.0293884296,,,
45.0312500000,5,0.0061187739,,,
45.0468750000,5,0.0432739295,,,
45.0625000000,5,0.0196991004,,,
45.0781250000,5,-0.1219481975,,,
45.0937500000,5,-0.4020996094,,,
45.1093750000,5,-0.7785491943,,,
45.1250000000,5,-1.1529999971,,,
45.1406250000,5,-1.4090119600,,,
45.1562500000,5,-1.4535369873,,,
45.1718750000,5,-1.2717590332,,,
45.1875000000,5,-0.9158782959,,,
45.2031250000,5,-0.4673461914,,,
45.2187500000,5,-0.0055999761,,,
45.2343750000,5,0.4227448106,,,
45.2500000000,5,0.7849884033,,,
45.2656250000,5,1.0559079647,,,
45.2812500000,5,1.1830140352,,,
45.2968750000,5,1.1248170137,,,
45.3125000000,5,0.8601378798,,,
45.3281250000,5,0.4289703071,,,
45.3437500000,5,-0.0720367432,,,
45.3593750000,5,-0.5157318115,,,
45.3750000000,5,-0.7760009766,,,
45.3906250000,5,-0.7811279297,,,
45.4062500000,5,-0.5383911133,,,
45.4218750000,5,-0.1612091064,,,
45.4375000000,5,0.1723479927,,,
45.4531250000,5,0.2915039063,,,
45.4687500000,5,0.1186676025,,,
45.4843750000,5,-0.2829895020,,,
45.5000000000,5,-0.7142028809,,,
45.5156250000,5,-0.9646912217,,,
45.5312500000,5,-0.9030457139,,,
45.5468750000,5,-0.5653228760,,,
45.5625000000,5,-0.1207733005,,,
45.5781250000,5,0.2315825969,,,
45.5937500000,5,0.3647766113,,,
45.6093750000,5,0.2962799072,,,
45.6250000000,5,0.1362456977,,,
45.6406250000,5,0.0029449461,,,
45.6562500000,5,-0.0579071008,,,
45.6718750000,5,-0.0825653076,,,
45.6875000000,5,-0.1253204048,,,
45.7031250000,5,-0.1874084026,,,
45.7187500000,5,-0.2041320950,,,
45.7343750000,5,-0.0883941725,,,
45.7500000000,5,0.1826781929,,,
45.7656250000,5,0.5356903076,,,
45.7812500000,5,0.8150482178,,,
45.7968750000,5,0.8954772949,,,
45.8125000000,5,0.7330626845,,,
45.8281250000,5,0.4075928032,,,
45.8437500000,5,0.0740203932,,,
45.8593750000,5,-0.1119994968,,,
45.8750000000,5,-0.0843963623,,,
45.8906250000,5,0.1039429009,,,
45.9062500000,5,0.3265686035,,,
45.9218750000,5,0.4316405952,,,
45.9375000000,5,0.3362273872,,,
45.9531250000,5,0.0594787598,,,
45.9687500000,5,-0.2948302925,,,
45.9843750000,5,-0.6008452773,,,
46.0000000000,5,-0.7600861192,,,
46.0156250000,5,-0.7595977783,,,
46.0312500000,5,-0.6488646865,,,
46.0468750000,5,-0.5246735215,,,
46.0625000000,5,-0.4799804986,,,
46.0781250000,5,-0.5682678223,,,
46.0937500000,5,-0.8004149795,,,
46.1093750000,5,-1.1204680204,,,
46.1250000000,5,-1.4397740364,,,
46.1406250000,5,-1.6389470100,,,
46.1562500000,5,-1.6192779541,,,
46.1718750000,5,-1.3172450066,,,
46.1875000000,5,-0.7560424805,,,
46.2031250000,5,-0.0321502686,,,
46.2187500000,5,0.6800231934,,,
46.2343750000,5,1.2009580135,,,
46.2500000000,5,1.3971710205,,,
46.2656250000,5,1.2367860079,,,
46.2812500000,5,0.7870178223,,,
46.2968750000,5,0.1908569038,,,
46.3125000000,5,-0.3998717964,,,
46.3281250000,5,-0.8710327148,,,
46.3437500000,5,-1.1760100126,,,
46.3593750000,5,-1.3022919893,,,
46.3750000000,5,-1.2718199492,,,
46.3906250000,5,-1.1270450354,,,
46.4062500000,5,-0.9143828750,,,
46.4218750000,5,-0.6965637207,,,
46.4375000000,5,-0.5236815810,,,
46.4531250000,5,-0.4092864990,,,
46.4687500000,5,-0.3177185059,,,
46.4843750000,5,-0.1876067966,,,
46.5000000000,5,0.0292205792,,,
46.5156250000,5,0.3143463135,,,
46.5312500000,5,0.6004332900,,,
46.5468750000,5,0.7825623155,,,
46.5625000000,5,0.7857666016,,,
46.5781250000,5,0.6002808213,,,
46.5937500000,5,0.2780457139,,,
46.6093750000,5,-0.0913238525,,,
46.6250000000,5,-0.4167479873,,,
46.6406250000,5,-0.6179503798,,,
46.6562500000,5,-0.6522368789,,,
46.6718750000,5,-0.4910736084,,,
46.6875000000,5,-0.1604461968,,,
46.7031250000,5,0.2961884141,,,
46.7187500000,5,0.7899780273,,,
46.7343750000,5,1.2180329561,,,
46.7500000000,5,1.4979250431,,,
46.7656250000,5,1.5903470516,,,
46.7812500000,5,1.5098270178,,,
46.7968750000,5,1.3107450008,,,
46.8125000000,5,1.0653380156,,,
46.8281250000,5,0.8498229980,,,
46.8437500000,5,0.7143859863,,,
46.8593750000,5,0.6875916123,,,
46.8750000000,5,0.7413176894,,,
46.8906250000,5,0.8102570176,,,
46.9062500000,5,0.8295441270,,,
46.9218750000,5,0.7803344727,,,
46.9375000000,5,0.7046204209,,,
46.9531250000,5,0.6873168945,,,
46.9687500000,5,0.7808380127,,,
46.9843750000,5,0.9638062119,,,
47.0000000000,5,1.1404570341,,,
47.0156250000,5,1.1956180334,,,
47.0312500000,5,1.0809329748,,,
47.0468750000,5,0.8289337158,,,
47.0625000000,5,0.5358123779,,,
47.0781250000,5,0.2776488960,,,
47.0937500000,5,0.0824127197,,,
47.1093750000,5,-0.0925445631,,,
47.1250000000,5,-0.2886353135,,,
47.1406250000,5,-0.4929961860,,,
47.1562500000,5,-0.6484069824,,,
47.1718750000,5,-0.6666107178,,,
47.1875000000,5,-0.5398101807,,,
47.2031250000,5,-0.3411560059,,,
47.2187500000,5,-0.2051239014,,,
47.2343750000,5,-0.2430877984,,,
47.2500000000,5,-0.4821166992,,,
47.2656250000,5,-0.8558197021,,,
47.2812500000,5,-1.2383879423,,,
47.2968750000,5,-1.5201109648,,,
47.3125000000,5,-1.6446839571,,,
47.3281250000,5,-1.6161040068,,,
47.3437500000,5,-1.4776459932,,,
47.3593750000,5,-1.2569890022,,,
47.3750000000,5,-0.9727478027,,,
47.3906250000,5,-0.6354979873,,,
47.4062500000,5,-0.2738952935,,,
47.4218750000,5,0.0505371094,,,
47.4375000000,5,0.2499846965,,,
47.4531250000,5,0.2751922905,,,
47.4687500000,5,0.1333007962,,,
47.4843750000,5,-0.0851745605,,,
47.5000000000,5,-0.2595824897,,,
47.5156250000,5,-0.2865906060,,,
47.5312500000,5,-0.1330872029,,,
47.5468750000,5,0.1452026069,,,
47.5625000000,5,0.4484406114,,,
47.5781250000,5,0.6586151123,,,
47.5937500000,5,0.7104796767,,,
47.6093750000,5,0.5735474229,,,
47.6250000000,5,0.2500916123,,,
47.6406250000,5,-0.2272339016,,,
47.6562500000,5,-0.8054656982,,,
47.6718750000,5,-1.3650820255,,,
47.6875000000,5,-1.7490229607,,,
47.7031250000,5,-1.8083950281,,,
47.7187500000,5,-1.4918520451,,,
47.7343750000,5,-0.8762360215,,,
47.7500000000,5,-0.1493377984,,,
47.7656250000,5,0.4875487983,,,
47.7812500000,5,0.9083709717,,,
47.7968750000,5,1.0946199894,,,
47.8125000000,5,1.0893249512,,,
47.8281250000,5,0.9334259033,,,
47.8437500000,5,0.6550750732,,,
47.8593750000,5,0.2921142876,,,
47.8750000000,5,-0.0672454834,,,
47.8906250000,5,-0.2812652886,,,
47.9062500000,5,-0.2198029011,,,
47.9218750000,5,0.1308289021,,,
47.9375000000,5,0.6344603896,,,
47.9531250000,5,1.0594179630,,,
47.9687500000,5,1.1986540556,,,
47.9843750000,5,1.0062259436,,,
48.0000000000,6,0.6137542725,,,
48.0156250000,6,0.2390442044,,,
48.0312500000,6,0.0574035607,,,
48.0468750000,6,0.1043853983,,,
48.0625000000,6,0.2825165093,,,
48.0781250000,6,0.4622040093,,,
48.0937500000,6,0.5621796250,,,
48.1093750000,6,0.5917816162,,,
48.1250000000,6,0.6049957275,,,
48.1406250000,6,0.6432800293,,,
48.1562500000,6,0.6902161241,,,
48.1718750000,6,0.6903992295,,,
48.1875000000,6,0.5976104736,,,
48.2031250000,6,0.3989867866,,,
48.2187500000,6,0.1193389967,,,
48.2343750000,6,-0.1809387058,,,
48.2500000000,6,-0.4553374946,,,
48.2656250000,6,-0.6961364746,,,
48.2812500000,6,-0.9220886230,,,
48.2968750000,6,-1.1609950066,,,
48.3125000000,6,-1.4054260254,,,
48.3281250000,6,-1.6167299747,,,
48.3437500000,6,-1.7175899744,,,
48.3593750000,6,-1.6333309412,,,
48.3750000000,6,-1.3564449549,,,
48.3906250000,6,-0.9601439834,,,
48.4062500000,6,-0.5777130127,,,
48.4218750000,6,-0.3462218940,,,
48.4375000000,6,-0.3307648003,,,
48.4531250000,6,-0.5111083984,,,
48.4687500000,6,-0.7716370225,,,
48.4843750000,6,-0.9591063857,,,
48.5000000000,6,-0.9529265761,,,
48.5156250000,6,-0.6997681260,,,
48.5312500000,6,-0.2373504937,,,
48.5468750000,6,0.3102875054,,,
48.5625000000,6,0.7848969102,,,
48.5781250000,6,1.0656280518,,,
48.5937500000,6,1.1157230139,,,
48.6093750000,6,1.0227359533,,,
48.6250000000,6,0.9426879883,,,
48.6406250000,6,1.0173649788,,,
48.6562500000,6,1.2957760096,,,
48.6718750000,6,1.6834559441,,,
48.6875000000,6,2.0067439079,,,
48.7031250000,6,2.1053769588,,,
48.7187500000,6,1.9259029627,,,
48.7343750000,6,1.5595250130,,,
48.7500000000,6,1.1765290499,,,
48.7656250000,6,0.9127197266,,,
48.7812500000,6,0.7911834717,,,
48.7968750000,6,0.7079163194,,,
48.8125000000,6,0.5291290283,,,
48.8281250000,6,0.1810303032,,,
48.8437500000,6,-0.2903136909,,,
48.8593750000,6,-0.7312011719,,,
48.8750000000,6,-0.9757843018,,,
48.8906250000,6,-0.9265593886,,,
48.9062500000,6,-0.6256561279,,,
48.9218750000,6,-0.2302550972,,,
48.9375000000,6,0.0586852990,,,
48.9531250000,6,0.0772552490,,,
48.9687500000,6,-0.2010955960,,,
48.9843750000,6,-0.6510620117,,,
49.0000000000,6,-1.0536650419,,,
49.0156250000,6,-1.2055360079,,,
49.0312500000,6,-1.0017240047,,,
49.0468750000,6,-0.5069274902,,,
49.0625000000,6,0.0953521729,,,
49.0781250000,6,0.5808563232,,,
49.0937500000,6,0.7875977159,,,
49.1093750000,6,0.6763153076,,,
49.1250000000,6,0.3245849907,,,
49.1406250000,6,-0.1366118938,,,
49.1562500000,6,-0.5888214111,,,
49.1718750000,6,-0.9632874131,,,
49.1875000000,6,-1.2450410128,,,
49.2031250000,6,-1.4225009680,,,
49.2187500000,6,-1.4859160185,,,
49.2343750000,6,-1.4115140438,,,
49.2500000000,6,-1.2111049891,,,
49.2656250000,6,-0.9289398193,,,
49.2812500000,6,-0.6331176758,,,
49.2968750000,6,-0.3791199028,,,
49.3125000000,6,-0.1824035943,,,
49.3281250000,6,-0.0332031287,,,
49.3437500000,6,0.0800170898,,,
49.3593750000,6,0.1632232964,,,
49.3750000000,6,0.2204741985,,,
49.3906250000,6,0.2669525146,,,
49.4062500000,6,0.3507232964,,,
49.4218750000,6,0.5214232802,,,
49.4375000000,6,0.7905731201,,,
49.4531250000,6,1.1039429903,,,
49.4687500000,6,1.3599549532,,,
49.4843750000,6,1.4672390223,,,
49.5000000000,6,1.4116519690,,,
49.5156250000,6,1.2565770149,,,
49.5312500000,6,1.1016540527,,,
49.5468750000,6,1.0254210234,,,
49.5625000000,6,1.0254360437,,,
49.5781250000,6,1.0122989416,,,
49.5937500000,6,0.8843535781,,,
49.6093750000,6,0.5646973252,,,
49.6250000000,6,0.0633544922,,,
49.6406250000,6,-0.5228881836,,,
49.6562500000,6,-1.0692290068,,,
49.6718750000,6,-1.4633790255,,,
49.6875000000,6,-1.6575319767,,,
49.7031250000,6,-1.6689909697,,,
49.7187500000,6,-1.5830689669,,,
49.7343750000,6,-1.4826660156,,,
49.7500000000,6,-1.4479830265,,,
49.7656250000,6,-1.5106049776,,,
49.7812500000,6,-1.6383359432,,,
49.7968750000,6,-1.7482759953,,,
49.8125000000,6,-1.7474670410,,,
49.8281250000,6,-1.5461579561,,,
49.8437500000,6,-1.1264189482,,,
49.8593750000,6,-0.5526123047,,,
49.8750000000,6,0.0497589111,,,
49.8906250000,6,0.5274199843,,,
49.9062500000,6,0.7780457139,,,
49.9218750000,6,0.7975311279,,,
49.9375000000,6,0.6821898818,,,
49.9531250000,6,0.5952606201,,,
49.9687500000,6,0.6840515137,,,
49.9843750000,6,0.9826049805,,,
50.0000000000,6,1.4066309929,,,
50.0156250000,6,1.8063199520,,,
50.0312500000,6,2.0501248837,,,
50.0468750000,6,2.1134340763,,,
50.0625000000,6,2.0648040771,,,
50.0781250000,6,1.9914250374,,,
50.0937500000,6,1.9174040556,,,
50.1093750000,6,1.7760310173,,,
50.1250000000,6,1.4560699463,,,
50.1406250000,6,0.9116669297,,,
50.1562500000,6,0.2353210002,,,
50.1718750000,6,-0.3760528862,,,
50.1875000000,6,-0.7206726074,,,
50.2031250000,6,-0.6927794814,,,
50.2187500000,6,-0.3457030952,,,
50.2343750000,6,0.1564635932,,,
50.2500000000,6,0.6183472276,,,
50.2656250000,6,0.8948822021,,,
50.2812500000,6,0.9456635118,,,
50.2968750000,6,0.8211975098,,,
50.3125000000,6,0.5926514268,,,
50.3281250000,6,0.3288727105,,,
50.3437500000,6,0.0675048828,,,
50.3593750000,6,-0.1678618938,,,
50.3750000000,6,-0.3691405952,,,
50.3906250000,6,-0.5365294814,,,
50.4062500000,6,-0.6749877930,,,
50.4218750000,6,-0.7845612168,,,
50.4375000000,6,-0.8685607910,,,
50.4531250000,6,-0.9390258789,,,
50.4687500000,6,-1.0004730225,,,
50.4843750000,6,-1.0589139462,,,
50.5000000000,6,-1.1116789579,,,
50.5156250000,6,-1.1289370060,,,
50.5312500000,6,-1.0586090088,,,
50.5468750000,6,-0.8552094102,,,
50.5625000000,6,-0.5113677979,,,
50.5781250000,6,-0.1038513035,,,
50.5937500000,6,0.2326049954,,,
50.6093750000,6,0.3905945122,,,
50.6250000000,6,0.3258362114,,,
50.6406250000,6,0.0937957764,,,
50.6562500000,6,-0.1802216023,,,
50.6718750000,6,-0.3823395073,,,
50.6875000000,6,-0.4832915962,,,
50.7031250000,6,-0.5262145996,,,
50.7187500000,6,-0.5862885118,,,
50.7343750000,6,-0.7025145888,,,
50.7500000000,6,-0.8301848769,,,
50.7656250000,6,-0.8774414063,,,
50.7812500000,6,-0.7693176270,,,
50.7968750000,6,-0.4920502007,,,
50.8125000000,6,-0.1092682034,,,
50.8281250000,6,0.2806243896,,,
50.8437500000,6,0.6077271104,,,
50.8593750000,6,0.8565216064,,,
50.8750000000,6,1.0347750187,,,
50.8906250000,6,1.1425780058,,,
50.9062500000,6,1.1430660486,,,
50.9218750000,6,1.0065920353,,,
50.9375000000,6,0.7475585938,,,
50.9531250000,6,0.4336090088,,,
50.9687500000,6,0.1639862061,,,
50.9843750000,6,-0.0022583010,,,
51.0000000000,6,-0.0867462233,,,
51.0156250000,6,-0.1813202053,,,
51.0312500000,6,-0.3657226861,,,
51.0468750000,6,-0.6527252197,,,
51.0625000000,6,-0.9529572129,,,
51.0781250000,6,-1.1235200167,,,
51.0937500000,6,-1.0752110481,,,
51.1093750000,6,-0.7928009033,,,
51.1250000000,6,-0.3699950874,,,
51.1406250000,6,0.0534210205,,,
51.1562500000,6,0.3648223877,,,
51.1718750000,6,0.5110778809,,,
51.1875000000,6,0.4916687012,,,
51.2031250000,6,0.3395844102,,,
51.2187500000,6,0.0891723633,,,
51.2343750000,6,-0.2235106975,,,
51.2500000000,6,-0.5344238281,,,
51.2656250000,6,-0.7536315918,,,
51.2812500000,6,-0.7966461182,,,
51.2968750000,6,-0.6310883164,,,
51.3125000000,6,-0.3039551079,,,
51.3281250000,6,0.0483245812,,,
51.3437500000,6,0.2890777886,,,
51.3593750000,6,0.3467560112,,,
51.3750000000,6,0.2517853081,,,
51.3906250000,6,0.1254577935,,,
51.4062500000,6,0.0734558105,,,
51.4218750000,6,0.1224976033,,,
51.4375000000,6,0.2147521973,,,
51.4531250000,6,0.2439880073,,,
51.4687500000,6,0.1510162055,,,
51.4843750000,6,-0.0325012207,,,
51.5000000000,6,-0.1954497993,,,
51.5156250000,6,-0.2501221001,,,
51.5312500000,6,-0.1642456055,,,
51.5468750000,6,0.0004730225,,,
51.5625000000,6,0.1621856987,,,
51.5781250000,6,0.2779388130,,,
51.5937500000,6,0.3527373970,,,
51.6093750000,6,0.4395599067,,,
51.6250000000,6,0.5625000000,,,
51.6406250000,6,0.6948090196,,,
51.6562500000,6,0.7749176025,,,
51.6718750000,6,0.7553710938,,,
51.6875000000,6,0.6157379150,,,
51.7031250000,6,0.3676452935,,,
51.7187500000,6,0.0427703895,,,
51.7343750000,6,-0.3355712891,,,
51.7500000000,6,-0.7337799072,,,
51.7656250000,6,-1.0934909582,,,
51.7812500000,6,-1.3354949951,,,
51.7968750000,6,-1.3867950439,,,
51.8125000000,6,-1.2252039909,,,
51.8281250000,6,-0.9060822129,,,
51.8437500000,6,-0.5372620225,,,
51.8593750000,6,-0.2206878960,,,
51.8750000000,6,-0.0250396691,,,
51.8906250000,6,0.0556182899,,,
51.9062500000,6,0.0651550293,,,
51.9218750000,6,0.0441894494,,,
51.9375000000,6,0.0119628897,,,
51.9531250000,6,-0.0365753211,,,
51.9687500000,6,-0.1127625033,,,
51.9843750000,6,-0.2215117961,,,
52.0000000000,6,-0.3464049995,,,
52.0156250000,6,-0.4703217149,,,
52.0312500000,6,-0.5542144775,,,
52.0468750000,6,-0.5721129775,,,
52.0625000000,6,-0.4809722900,,,
52.0781250000,6,-0.2716675103,,,
52.0937500000,6,0.0184020996,,,
52.1093750000,6,0.3131256104,,,
52.1250000000,6,0.5344086289,,,
52.1406250000,6,0.6279602051,,,
52.1562500000,6,0.5848389268,,,
52.1718750000,6,0.4405364990,,,
52.1875000000,6,0.2372588962,,,
52.2031250000,6,-0.0013275150,,,
52.2187500000,6,-0.2583771050,,,
52.2343750000,6,-0.5108795166,,,
52.2500000000,6,-0.7083129883,,,
52.2656250000,6,-0.7731018066,,,
52.2812500000,6,-0.6448212266,,,
52.2968750000,6,-0.3269805908,,,
52.3125000000,6,0.1091308966,,,
52.3281250000,6,0.5513916016,,,
52.3437500000,6,0.8840332031,,,
52.3593750000,6,1.0583339930,,,
52.3750000000,6,1.0852659941,,,
52.3906250000,6,1.0316619873,,,
52.4062500000,6,0.9555053711,,,
52.4218750000,6,0.8760985732,,,
52.4375000000,6,0.7815856934,,,
52.4531250000,6,0.6590117812,,,
52.4687500000,6,0.5253295898,,,
52.4843750000,6,0.4267578125,,,
52.5000000000,6,0.4128723145,,,
52.5156250000,6,0.4931334853,,,
52.5312500000,6,0.6290131211,,,
52.5468750000,6,0.7300415039,,,
52.5625000000,6,0.7281798720,,,
52.5781250000,6,0.5923004150,,,
52.5937500000,6,0.3693541884,,,
52.6093750000,6,0.1346282959,,,
52.6250000000,6,-0.0260467492,,,
52.6406250000,6,-0.0777282715,,,
52.6562500000,6,-0.0567321815,,,
52.6718750000,6,-0.0440216102,,,
52.6875000000,6,-0.1271515042,,,
52.7031250000,6,-0.3441162109,,,
52.7187500000,6,-0.6439818740,,,
52.7343750000,6,-0.9021453857,,,
52.7500000000,6,-0.9793853760,,,
52.7656250000,6,-0.8190460205,,,
52.7812500000,6,-0.4584197998,,,
52.7968750000,6,-0.0581665002,,,
52.8125000000,6,0.1927337945,,,
52.8281250000,6,0.1912537068,,,
52.8437500000,6,-0.0354309082,,,
52.8593750000,6,-0.3411864936,,,
52.8750000000,6,-0.5543212891,,,
52.8906250000,6,-0.5841063857,,,
52.9062500000,6,-0.4375304878,,,
52.9218750000,6,-0.2096405029,,,
52.9375000000,6,0.0150756799,,,
52.9531250000,6,0.2165070027,,,
52.9687500000,6,0.4362488091,,,
52.9843750000,6,0.7175139785,,,
53.0000000000,6,1.0285799503,,,
53.0156250000,6,1.2514339685,,,
53.0312500000,6,1.2554019690,,,
53.0468750000,6,0.9535980225,,,
53.0625000000,6,0.4099884033,,,
53.0781250000,6,-0.2054291070,,,
53.0937500000,6,-0.6727294922,,,
53.1093750000,6,-0.8329315186,,,
53.1250000000,6,-0.6684265137,,,
53.1406250000,6,-0.3011626899,,,
53.1562500000,6,0.0623474084,,,
53.1718750000,6,0.2447205037,,,
53.1875000000,6,0.1817474067,,,
53.2031250000,6,-0.0485534705,,,
53.2187500000,6,-0.2868652046,,,
53.2343750000,6,-0.3726806939,,,
53.2500000000,6,-0.2351837009,,,
53.2656250000,6,0.0679016113,,,
53.2812500000,6,0.4006499946,,,
53.2968750000,6,0.6307526231,,,
53.3125000000,6,0.6779937744,,,
53.3281250000,6,0.5464171767,,,
53.3437500000,6,0.3067168891,,,
53.3593750000,6,0.0323333703,,,
53.3750000000,6,-0.2160491943,,,
53.3906250000,6,-0.4145202935,,,
53.4062500000,6,-0.5510253906,,,
53.4218750000,6,-0.6143035889,,,
53.4375000000,6,-0.6017150879,,,
53.4531250000,6,-0.5124663711,,,
53.4687500000,6,-0.3576965034,,,
53.4843750000,6,-0.1554718018,,,
53.5000000000,6,0.0595245399,,,
53.5156250000,6,0.2577972114,,,
53.5312500000,6,0.3996429145,,,
53.5468750000,6,0.4310303032,,,
53.5625000000,6,0.3106231987,,,
53.5781250000,6,0.0331115685,,,
53.5937500000,6,-0.3442383111,,,
53.6093750000,6,-0.7073516846,,,
53.6250000000,6,-0.9154663086,,,
53.6406250000,6,-0.8946381211,,,
53.6562500000,6,-0.6602783203,,,
53.6718750000,6,-0.3366240859,,,
53.6875000000,6,-0.0814514235,,,
53.7031250000,6,0.0004577637,,,
53.7187500000,6,-0.1130371019,,,
53.7343750000,6,-0.3251189888,,,
53.7500000000,6,-0.5152282715,,,
53.7656250000,6,-0.5712584853,,,
53.7812500000,6,-0.4674071968,,,
53.7968750000,6,-0.2403258979,,,
53.8125000000,6,0.0229492206,,,
53.8281250000,6,0.2335662991,,,
53.8437500000,6,0.3529205024,,,
53.8593750000,6,0.3949738145,,,
53.8750000000,6,0.4021606147,,,
53.8906250000,6,0.4149017036,,,
53.9062500000,6,0.4386292100,,,
53.9218750000,6,0.4497070014,,,
53.9375000000,6,0.3968352973,,,
53.9531250000,6,0.2566832900,,,
53.9687500000,6,0.0567932092,,,
53.9843750000,6,-0.1483459026,,,
54.0000000000,6,-0.3053894043,,,
54.0156250000,6,-0.3905791938,,,
54.0312500000,6,-0.4485321045,,,
54.0468750000,6,-0.5432891846,,,
54.0625000000,6,-0.7245482802,,,
54.0781250000,6,-0.9807891846,,,
54.0937500000,6,-1.2445369959,,,
54.1093750000,6,-1.4472960234,,,
54.1250000000,6,-1.5526119471,,,
54.1406250000,6,-1.5754549503,,,
54.1562500000,6,-1.5491939783,,,
54.1718750000,6,-1.4802700281,,,
54.1875000000,6,-1.3321230412,,,
54.2031250000,6,-1.0426030159,,,
54.2187500000,6,-0.5839691162,,,
54.2343750000,6,0.0275573693,,,
54.2500000000,6,0.6977385879,,,
54.2656250000,6,1.3059079647,,,
54.2812500000,6,1.7343289852,,,
54.2968750000,6,1.9194489717,,,
54.3125000000,6,1.8478239775,,,
54.3281250000,6,1.5577850342,,,
54.3437500000,6,1.1214599609,,,
54.3593750000,6,0.6388701797,,,
54.3750000000,6,0.2028197944,,,
54.3906250000,6,-0.1209411994,,,
54.4062500000,6,-0.3100739121,,,
54.4218750000,6,-0.3876343071,,,
54.4375000000,6,-0.4065093994,,,
54.4531250000,6,-0.4156799018,,,
54.4687500000,6,-0.4101257026,,,
54.4843750000,6,-0.3615112007,,,
54.5000000000,6,-0.2362518013,,,
54.5156250000,6,-0.0279540997,,,
54.5312500000,6,0.2147064060,,,
54.5468750000,6,0.4241180122,,,
54.5625000000,6,0.5458527207,,,
54.5781250000,6,0.5713043213,,,
54.5937500000,6,0.5266724229,,,
54.6093750000,6,0.4350585938,,,
54.6250000000,6,0.3045653999,,,
54.6406250000,6,0.1349181980,,,
54.6562500000,6,-0.0632018968,,,
54.6718750000,6,-0.2309875041,,,
54.6875000000,6,-0.2882080078,,,
54.7031250000,6,-0.1833495945,,,
54.7187500000,6,0.0411987305,,,
54.7343750000,6,0.2593384087,,,
54.7500000000,6,0.3197784126,,,
54.7656250000,6,0.1437987983,,,
54.7812500000,6,-0.2269745022,,,
54.7968750000,6,-0.6296386719,,,
54.8125000000,6,-0.8718413711,,,
54.8281250000,6,-0.8368073106,,,
54.8437500000,6,-0.5410919189,,,
54.8593750000,6,-0.1037750021,,,
54.8750000000,6,0.3193053901,,,
54.8906250000,6,0.6029204726,,,
54.9062500000,6,0.7116547227,,,
54.9218750000,6,0.6551361084,,,
54.9375000000,6,0.4816741943,,,
54.9531250000,6,0.2494658977,,,
54.9687500000,6,0.0245971698,,,
54.9843750000,6,-0.1062164009,,,
55.0000000000,6,-0.0586395301,,,
55.0156250000,6,0.2131652981,,,
55.0312500000,6,0.6732329726,,,
55.0468750000,6,1.1953890324,,,
55.0625000000,6,1.5898590088,,,
55.0781250000,6,1.7124789953,,,
55.0937500000,6,1.5407710075,,,
55.1093750000,6,1.1684269905,,,
55.1250000000,6,0.7767333984,,,
55.1406250000,6,0.5296630859,,,
55.1562500000,6,0.5018920898,,,
55.1718750000,6,0.6436005235,,,
55.1875000000,6,0.8366240859,,,
55.2031250000,6,0.9612731934,,,
55.2187500000,6,0.9353790283,,,
55.2343750000,6,0.7584686279,,,
55.2500000000,6,0.4730834961,,,
55.2656250000,6,0.1521300972,,,
55.2812500000,6,-0.1397704929,,,
55.2968750000,6,-0.3561859131,,,
55.3125000000,6,-0.4730224907,,,
55.3281250000,6,-0.4895325005,,,
55.3437500000,6,-0.4420013130,,,
55.3593750000,6,-0.4059601128,,,
55.3750000000,6,-0.4456023872,,,
55.3906250000,6,-0.6112061143,,,
55.4062500000,6,-0.8796691895,,,
55.4218750000,6,-1.1705319881,,,
55.4375000000,6,-1.3819580078,,,
55.4531250000,6,-1.4321290255,,,
55.4687500000,6,-1.3141330481,,,
55.4843750000,6,-1.0815730095,,,
55.5000000000,6,-0.8326416016,,,
55.5156250000,6,-0.6507263184,,,
55.5312500000,6,-0.5794373155,,,
55.5468750000,6,-0.5953369141,,,
55.5625000000,6,-0.6455994248,,,
55.5781250000,6,-0.6829376221,,,
55.5937500000,6,-0.6796265244,,,
55.6093750000,6,-0.6385498047,,,
55.6250000000,6,-0.5617827773,,,
55.6406250000,6,-0.4453125000,,,
55.6562500000,6,-0.2677307129,,,
55.6718750000,6,-0.0304717999,,,
55.6875000000,6,0.2331237942,,,
55.7031250000,6,0.4608458877,,,
55.7187500000,6,0.5576630235,,,
55.7343750000,6,0.4804077148,,,
55.7500000000,6,0.2497864068,,,
55.7656250000,6,-0.0225830097,,,
55.7812500000,6,-0.1818847954,,,
55.7968750000,6,-0.0988006592,,,
55.8125000000,6,0.2506104112,,,
55.8281250000,6,0.7575225830,,,
55.8437500000,6,1.2438960075,,,
55.8593750000,6,1.5195620060,,,
55.8750000000,6,1.4868619442,,,
55.8906250000,6,1.1650849581,,,
55.9062500000,6,0.6447905898,,,
55.9218750000,6,0.0322265588,,,
55.9375000000,6,-0.5827484131,,,
55.9531250000,6,-1.1344449520,,,
55.9687500000,6,-1.5618900061,,,
55.9843750000,6,-1.7822879553,,,
56.0000000000,7,-1.7317500114,,,
56.0156250000,7,-1.3989559412,,,
56.0312500000,7,-0.8690795898,,,
56.0468750000,7,-0.3003844917,,,
56.0625000000,7,0.1367798001,,,
56.0781250000,7,0.3344421089,,,
56.0937500000,7,0.2938689888,,,
56.1093750000,7,0.1025390998,,,
56.1250000000,7,-0.0997466967,,,
56.1406250000,7,-0.2111053020,,,
56.1562500000,7,-0.1921997070,,,
56.1718750000,7,-0.0658569336,,,
56.1875000000,7,0.0988311768,,,
