Time:64Hz,Epoch,Channel 1,Event Id,Event Date,Event Duration
0.0000000000,0,0.2346190959,,,
0.0156250000,0,0.3880614936,,,
0.0312500000,0,0.4954833984,,,
0.0468750000,0,0.5010985732,,,
0.0625000000,0,0.3800049126,,,
0.0781250000,0,0.1533202976,,,
0.0937500000,0,-0.1074218974,,,
0.1093750000,0,-0.3275145888,,,
0.1250000000,0,-0.4559325874,,,
0.1406250000,0,-0.5227050781,,,
0.1562500000,0,-0.6113281250,,,
0.1718750000,0,-0.7843018174,,,
0.1875000000,0,-1.0415040255,,,
0.2031250000,0,-1.3061519861,,,
0.2187500000,0,-1.4551999569,,,
0.2343750000,0,-1.3997800350,,,
0.2500000000,0,-1.1292719841,,,
0.2656250000,0,-0.7019042969,,,
0.2812500000,0,-0.2103271037,,,
0.2968750000,0,0.2624512017,,,
0.3125000000,0,0.6562500000,,,
0.3281250000,0,0.9310302734,,,
0.3437500000,0,1.0461430550,,,
0.3593750000,0,0.9899901748,,,
0.3750000000,0,0.7733154297,,,
0.3906250000,0,0.4517821968,,,
0.4062500000,0,0.1149901971,,,
0.4218750000,0,-0.1586914063,,,
0.4375000000,0,-0.3242188096,,,
0.4531250000,0,-0.3568114936,,,
0.4687500000,0,-0.2517090142,,,
0.4843750000,0,-0.0170898400,,,
0.5000000000,0,0.3306885064,,,
0.5156250000,0,0.7279052734,,,
0.5312500000,0,1.0849610567,,,
0.5468750000,0,1.2974849939,,,
0.5625000000,0,1.3002929688,,,
0.5781250000,0,1.0764160156,,,
0.5937500000,0,0.6746826172,,,
0.6093750000,0,0.1739501953,,,
0.6250000000,0,-0.3537597954,,,
0.6406250000,0,-0.8496093750,,,
0.6562500000,0,-1.2685550451,,,
0.6718750000,0,-1.5872800350,,,
0.6875000000,0,-1.7880860567,,,
0.7031250000,0,-1.8850100040,,,
0.7187500000,0,-1.8852540255,,,
0.7343750000,0,-1.8133540154,,,
0.7500000000,0,-1.6754150391,,,
0.7656250000,0,-1.4561769962,,,
0.7812500000,0,-1.1195069551,,,
0.7968750000,0,-0.6607666016,,,
0.8125000000,0,-0.1278076023,,,
0.8281250000,0,0.3956299126,,,
0.8437500000,0,0.7839354873,,,
0.8593750000,0,0.9560546875,,,
0.8750000000,0,0.8983154297,,,
0.8906250000,0,0.6492919922,,,
0.9062500000,0,0.3015137017,,,
0.9218750000,0,-0.0474853516,,,
0.9375000000,0,-0.3243407905,,,
0.9531250000,0,-0.4882813096,,,
0.9687500000,0,-0.5278319716,,,
0.9843750000,0,-0.4637450874,,,
1.0000000000,0,-0.3159179986,,,
1.0156250000,0,-0.1271972954,,,
1.0312500000,0,0.0745849609,,,
1.0468750000,0,0.2496338040,,,
1.0625000000,0,0.3764648139,,,
1.0781250000,0,0.4438476861,,,
1.0937500000,0,0.4587402046,,,
1.1093750000,0,0.4724121094,,,
1.1250000000,0,0.5255126953,,,
1.1406250000,0,0.6303710938,,,
1.1562500000,0,0.7625731826,,,
1.1718750000,0,0.8676757813,,,
1.1875000000,0,0.9051514268,,,
1.2031250000,0,0.8680419922,,,
1.2187500000,0,0.7886962891,,,
1.2343750000,0,0.6879882813,,,
1.2500000000,0,0.5794677734,,,
1.2656250000,0,0.4495849907,,,
1.2812500000,0,0.2844237983,,,
1.2968750000,0,0.1187743992,,,
1.3125000000,0,0.0042724609,,,
1.3281250000,0,0.0043945308,,,
1.3437500000,0,0.1411132962,,,
1.3593750000,0,0.3763428032,,,
1.3750000000,0,0.6171875000,,,
1.3906250000,0,0.7662354112,,,
1.4062500000,0,0.7728270888,,,
1.4218750000,0,0.6235352159,,,
1.4375000000,0,0.3653563857,,,
1.4531250000,0,0.0444335900,,,
1.4687500000,0,-0.2799071968,,,
1.4843750000,0,-0.5520020127,,,
1.5000000000,0,-0.7021483779,,,
1.5156250000,0,-0.6944580078,,,
1.5312500000,0,-0.5330811143,,,
1.5468750000,0,-0.2889403999,,,
1.5625000000,0,-0.0572509803,,,
1.5781250000,0,0.0943603516,,,
1.5937500000,0,0.1407471001,,,
1.6093750000,0,0.1103515998,,,
1.6250000000,0,0.0524902306,,,
1.6406250000,0,0.0032958980,,,
1.6562500000,0,-0.0284423791,,,
1.6718750000,0,-0.0532226600,,,
1.6875000000,0,-0.0804443434,,,
1.7031250000,0,-0.1094971001,,,
1.7187500000,0,-0.1153564006,,,
1.7343750000,0,-0.0887451172,,,
1.7500000000,0,-0.0350341797,,,
1.7656250000,0,0.0247802697,,,
1.7812500000,0,0.0550537109,,,
1.7968750000,0,0.0408935510,,,
1.8125000000,0,-0.0065917969,,,
1.8281250000,0,-0.0585937500,,,
1.8437500000,0,-0.0906982422,,,
1.8593750000,0,-0.0811767578,,,
1.8750000000,0,-0.0401611291,,,
1.8906250000,0,0.0084228516,,,
1.9062500000,0,0.0502929688,,,
1.9218750000,0,0.0639648363,,,
1.9375000000,0,0.0437011681,,,
1.9531250000,0,-0.0090332031,,,
1.9687500000,0,-0.0910644531,,,
1.9843750000,0,-0.2153320014,,,
2.0000000000,0,-0.3815917969,,,
2.0156250000,0,-0.5710449219,,,
2.0312500000,0,-0.7249755859,,,
2.0468750000,0,-0.7788085938,,,
2.0625000000,0,-0.7008057237,,,
2.0781250000,0,-0.5178223252,,,
2.0937500000,0,-0.3261719048,,,
2.1093750000,0,-0.2645263970,,,
2.1250000000,0,-0.4251708984,,,
2.1406250000,0,-0.8037108779,,,
2.1562500000,0,-1.2894289494,,,
2.1718750000,0,-1.7062989473,,,
2.1875000000,0,-1.8831789494,,,
2.2031250000,0,-1.7426760197,,,
2.2187500000,0,-1.3151860237,,,
2.2343750000,0,-0.7260742188,,,
2.2500000000,0,-0.1359862983,,,
2.2656250000,0,0.3389892876,,,
2.2812500000,0,0.6688231826,,,
2.2968750000,0,0.9005126953,,,
2.3125000000,0,1.1134029627,,,
2.3281250000,0,1.3541259766,,,
2.3437500000,0,1.5944819450,,,
2.3593750000,0,1.7655030489,,,
2.3750000000,0,1.8021240234,,,
2.3906250000,0,1.7008060217,,,
2.4062500000,0,1.5382080078,,,
2.4218750000,0,1.4122309685,,,
2.4375000000,0,1.3748780489,,,
2.4531250000,0,1.4046629667,,,
2.4687500000,0,1.4187010527,,,
2.4843750000,0,1.3225100040,,,
2.5000000000,0,1.0819089413,,,
2.5156250000,0,0.7211914063,,,
2.5312500000,0,0.3175049126,,,
2.5468750000,0,-0.0653076172,,,
2.5625000000,0,-0.4014892876,,,
2.5781250000,0,-0.6917725205,,,
2.5937500000,0,-0.9291992188,,,
2.6093750000,0,-1.0994869471,,,
2.6250000000,0,-1.1616209745,,,
2.6406250000,0,-1.0888669491,,,
2.6562500000,0,-0.9042968750,,,
2.6718750000,0,-0.6755371094,,,
2.6875000000,0,-0.4849854112,,,
2.7031250000,0,-0.3891601861,,,
2.7187500000,0,-0.3920898139,,,
2.7343750000,0,-0.4654541016,,,
2.7500000000,0,-0.5483397841,,,
2.7656250000,0,-0.5994873047,,,
2.7812500000,0,-0.5917968750,,,
2.7968750000,0,-0.5242919922,,,
2.8125000000,0,-0.4111328125,,,
2.8281250000,0,-0.2603760064,,,
2.8437500000,0,-0.0992431566,,,
2.8593750000,0,0.0693359375,,,
2.8750000000,0,0.2420653999,,,
2.8906250000,0,0.4082030952,,,
2.9062500000,0,0.5346680284,,,
2.9218750000,0,0.5753173828,,,
2.9375000000,0,0.4880371094,,,
2.9531250000,0,0.2810058892,,,
2.9687500000,0,0.0355224609,,,
2.9843750000,0,-0.1228026971,,,
3.0000000000,0,-0.0888671875,,,
3.0156250000,0,0.1490478963,,,
3.0312500000,0,0.4725342095,,,
3.0468750000,0,0.6877440810,,,
3.0625000000,0,0.6292725205,,,
3.0781250000,0,0.2498778999,,,
3.0937500000,0,-0.3388671875,,,
3.1093750000,0,-0.9337158203,,,
3.1250000000,0,-1.3509520292,,,
3.1406250000,0,-1.5173339844,,,
3.1562500000,0,-1.4946290255,,,
3.1718750000,0,-1.4156490564,,,
3.1875000000,0,-1.4051510096,,,
3.2031250000,0,-1.5113530159,,,
3.2187500000,0,-1.6745610237,,,
3.2343750000,0,-1.8115229607,,,
3.2500000000,0,-1.8292239904,,,
3.2656250000,0,-1.6783449650,,,
3.2812500000,0,-1.3645019531,,,
3.2968750000,0,-0.9429932237,,,
3.3125000000,0,-0.4826659858,,,
3.3281250000,0,-0.0327148400,,,
3.3437500000,0,0.3836669922,,,
3.3593750000,0,0.7764893174,,,
3.3750000000,0,1.1468509436,,,
3.3906250000,0,1.4755860567,,,
3.4062500000,0,1.6972659826,,,
3.4218750000,0,1.7337650061,,,
3.4375000000,0,1.5427249670,,,
3.4531250000,0,1.1738280058,,,
3.4687500000,0,0.7496337891,,,
3.4843750000,0,0.4125976861,,,
3.5000000000,0,0.2546387017,,,
3.5156250000,0,0.2825928032,,,
3.5312500000,0,0.4122313857,,,
3.5468750000,0,0.5318604112,,,
3.5625000000,0,0.5690917969,,,
3.5781250000,0,0.5264893174,,,
3.5937500000,0,0.4570313096,,,
3.6093750000,0,0.4229736030,,,
3.6250000000,0,0.4444580078,,,
3.6406250000,0,0.4913330078,,,
3.6562500000,0,0.4787597954,,,
3.6718750000,0,0.3398438096,,,
3.6875000000,0,0.0592041016,,,
3.7031250000,0,-0.3212890923,,,
3.7187500000,0,-0.6970214844,,,
3.7343750000,0,-0.9766845703,,,
3.7500000000,0,-1.1074219942,,,
3.7656250000,0,-1.0830080509,,,
3.7812500000,0,-0.9510498047,,,
3.7968750000,0,-0.7711182237,,,
3.8125000000,0,-0.5837401748,,,
3.8281250000,0,-0.4201659858,,,
3.8437500000,0,-0.2882080078,,,
3.8593750000,0,-0.1979980022,,,
3.8750000000,0,-0.1750487983,,,
3.8906250000,0,-0.2491454929,,,
3.9062500000,0,-0.4263916016,,,
3.9218750000,0,-0.6944580078,,,
3.9375000000,0,-1.0024410486,,,
3.9531250000,0,-1.2868649960,,,
3.9687500000,0,-1.4877929688,,,
3.9843750000,0,-1.5671390295,,,
4.0000000000,0,-1.5250240564,,,
4.0156250000,0,-1.3862299919,,,
4.0312500000,0,-1.1835939884,,,
4.0468750000,0,-0.9455565810,,,
4.0625000000,0,-0.6911621094,,,
4.0781250000,0,-0.4125976861,,,
4.0937500000,0,-0.0921630934,,,
4.1093750000,0,0.2779541016,,,
4.1250000000,0,0.6839600205,,,
4.1406250000,0,1.1057130098,,,
4.1562500000,0,1.4962160587,,,
4.1718750000,0,1.8208010197,,,
4.1875000000,0,2.0570070744,,,
4.2031250000,0,2.1922609806,,,
4.2187500000,0,2.2503659725,,,
4.2343750000,0,2.2515869141,,,
4.2500000000,0,2.2125239372,,,
4.2656250000,0,2.1113278866,,,
4.2812500000,0,1.8880620003,,,
4.2968750000,0,1.4890140295,,,
4.3125000000,0,0.9136962891,,,
4.3281250000,0,0.2493896037,,,
4.3437500000,0,-0.3680419922,,,
4.3593750000,0,-0.7980957031,,,
4.3750000000,0,-0.9674072266,,,
4.3906250000,0,-0.9014893174,,,
4.4062500000,0,-0.6856688857,,,
4.4218750000,0,-0.4287109077,,,
4.4375000000,0,-0.1916504055,,,
4.4531250000,0,-0.0122070303,,,
4.4687500000,0,0.0828857422,,,
4.4843750000,0,0.0563964806,,,
4.5000000000,0,-0.1236571968,,,
4.5156250000,0,-0.4562987983,,,
4.5312500000,0,-0.8538817763,,,
4.5468750000,0,-1.1649169922,,,
4.5625000000,0,-1.2241209745,,,
4.5781250000,0,-0.9697266221,,,
4.5937500000,0,-0.4857178032,,,
4.6093750000,0,0.0229492206,,,
4.6250000000,0,0.3291015923,,,
4.6406250000,0,0.3295898139,,,
4.6562500000,0,0.0795898363,,,
4.6718750000,0,-0.2194824070,,,
4.6875000000,0,-0.3416748047,,,
4.7031250000,0,-0.1673583984,,,
4.7187500000,0,0.2711181939,,,
4.7343750000,0,0.8084716797,,,
4.7500000000,0,1.2366939783,,,
4.7656250000,0,1.4188230038,,,
4.7812500000,0,1.3292239904,,,
4.7968750000,0,1.0285639763,,,
4.8125000000,0,0.6275634766,,,
4.8281250000,0,0.2214355022,,,
4.8437500000,0,-0.1373291016,,,
4.8593750000,0,-0.4285888970,,,
4.8750000000,0,-0.6367188096,,,
4.8906250000,0,-0.7563477159,,,
4.9062500000,0,-0.7825927734,,,
4.9218750000,0,-0.7385253906,,,
4.9375000000,0,-0.6500244141,,,
4.9531250000,0,-0.5458983779,,,
4.9687500000,0,-0.4456787109,,,
4.9843750000,0,-0.3609619141,,,
5.0000000000,0,-0.2985840142,,,
5.0156250000,0,-0.2495117038,,,
5.0312500000,0,-0.1800536960,,,
5.0468750000,0,-0.0607910194,,,
5.0625000000,0,0.1420897990,,,
5.0781250000,0,0.4045409858,,,
5.0937500000,0,0.6544188857,,,
5.1093750000,0,0.8087158203,,,
5.1250000000,0,0.8020020127,,,
5.1406250000,0,0.6333007813,,,
5.1562500000,0,0.3583984077,,,
5.1718750000,0,0.0566406287,,,
5.1875000000,0,-0.2049560994,,,
5.2031250000,0,-0.3734130859,,,
5.2187500000,0,-0.4166260064,,,
5.2343750000,0,-0.3009032905,,,
5.2500000000,0,-0.0139160203,,,
5.2656250000,0,0.4257813096,,,
5.2812500000,0,0.9571533203,,,
5.2968750000,0,1.4683840275,,,
5.3125000000,0,1.8516850471,,,
5.3281250000,0,2.0368649960,,,
5.3437500000,0,2.0214838982,,,
5.3593750000,0,1.8436280489,,,
5.3750000000,0,1.5715329647,,,
5.3906250000,0,1.2602540255,,,
5.4062500000,0,0.9616699219,,,
5.4218750000,0,0.7170410156,,,
5.4375000000,0,0.5495604873,,,
5.4531250000,0,0.4725342095,,,
5.4687500000,0,0.4543457031,,,
5.4843750000,0,0.4561767876,,,
5.5000000000,0,0.4354248047,,,
5.5156250000,0,0.3869628906,,,
5.5312500000,0,0.3624267876,,,
5.5468750000,0,0.4058837891,,,
5.5625000000,0,0.5241699219,,,
5.5781250000,0,0.6613770127,,,
5.5937500000,0,0.7187500000,,,
5.6093750000,0,0.6134033203,,,
5.6250000000,0,0.3280028999,,,
5.6406250000,0,-0.0886230469,,,
5.6562500000,0,-0.5504149795,,,
5.6718750000,0,-1.0046390295,,,
5.6875000000,0,-1.4608149529,,,
5.7031250000,0,-1.9677729607,,,
5.7187500000,0,-2.5368649960,,,
5.7343750000,0,-3.0906980038,,,
5.7500000000,0,-3.4736330509,,,
5.7656250000,0,-3.5386960506,,,
5.7812500000,0,-3.2238769531,,,
5.7968750000,0,-2.6201169491,,,
5.8125000000,0,-1.9392089844,,,
5.8281250000,0,-1.4022220373,,,
5.8437500000,0,-1.1308590174,,,
5.8593750000,0,-1.1191409826,,,
5.8750000000,0,-1.2603759766,,,
5.8906250000,0,-1.4287110567,,,
5.9062500000,0,-1.5278320313,,,
5.9218750000,0,-1.5213619471,,,
5.9375000000,0,-1.4150389433,,,
5.9531250000,0,-1.2257080078,,,
5.9687500000,0,-0.9743651748,,,
5.9843750000,0,-0.6817626953,,,
6.0000000000,0,-0.3856200874,,,
6.0156250000,0,-0.1401367038,,,
6.0312500000,0,0.0015869139,,,
6.0468750000,0,0.0198974591,,,
6.0625000000,0,-0.0706787109,,,
6.0781250000,0,-0.2045897990,,,
6.0937500000,0,-0.2825928032,,,
6.1093750000,0,-0.2264403999,,,
6.1250000000,0,-0.0093994141,,,
6.1406250000,0,0.3251953125,,,
6.1562500000,0,0.6672363281,,,
6.1718750000,0,0.8923339844,,,
6.1875000000,0,0.9367675781,,,
6.2031250000,0,0.8104248047,,,
6.2187500000,0,0.5930175781,,,
6.2343750000,0,0.3828125000,,,
6.2500000000,0,0.2360839993,,,
6.2656250000,0,0.1468506008,,,
6.2812500000,0,0.0742187500,,,
6.2968750000,0,0.0040283198,,,
6.3125000000,0,-0.0401611291,,,
6.3281250000,0,0.0057373052,,,
6.3437500000,0,0.1806641072,,,
6.3593750000,0,0.4570313096,,,
6.3750000000,0,0.7187500000,,,
6.3906250000,0,0.8193358779,,,
6.4062500000,0,0.6663817763,,,
6.4218750000,0,0.2706299126,,,
6.4375000000,0,-0.2346190959,,,
6.4531250000,0,-0.6575927734,,,
6.4687500000,0,-0.8385009766,,,
6.4843750000,0,-0.7095947266,,,
6.5000000000,0,-0.3073729873,,,
6.5156250000,0,0.2723388970,,,
6.5312500000,0,0.9106444716,,,
6.5468750000,0,1.5035400391,,,
6.5625000000,0,1.9698489904,,,
6.5781250000,0,2.2402338982,,,
6.5937500000,0,2.2591550350,,,
6.6093750000,0,2.0202639103,,,
6.6250000000,0,1.5626219511,,,
6.6406250000,0,0.9984130859,,,
6.6562500000,0,0.4838866889,,,
6.6718750000,0,0.1281737983,,,
6.6875000000,0,-0.0329589806,,,
6.7031250000,0,-0.0632324219,,,
6.7187500000,0,-0.0714111328,,,
6.7343750000,0,-0.1369629055,,,
6.7500000000,0,-0.2612304986,,,
6.7656250000,0,-0.3717041016,,,
6.7812500000,0,-0.3880614936,,,
6.7968750000,0,-0.2607421875,,,
6.8125000000,0,-0.0125732403,,,
6.8281250000,0,0.2877196968,,,
6.8437500000,0,0.5632324219,,,
6.8593750000,0,0.7672119141,,,
6.8750000000,0,0.8732910156,,,
6.8906250000,0,0.8856201172,,,
6.9062500000,0,0.8084716797,,,
6.9218750000,0,0.6434326172,,,
6.9375000000,0,0.3957520127,,,
6.9531250000,0,0.0872802734,,,
6.9687500000,0,-0.2293701023,,,
6.9843750000,0,-0.4979248047,,,
7.0000000000,0,-0.6843261719,,,
7.0156250000,0,-0.7899169922,,,
7.0312500000,0,-0.8354492188,,,
7.0468750000,0,-0.8458251953,,,
7.0625000000,0,-0.8183593750,,,
7.0781250000,0,-0.7279052734,,,
7.0937500000,0,-0.5557860732,,,
7.1093750000,0,-0.3026123047,,,
7.1250000000,0,-0.0014648440,,,
7.1406250000,0,0.2913818061,,,
7.1562500000,0,0.5272216797,,,
7.1718750000,0,0.6745604873,,,
7.1875000000,0,0.7175292969,,,
7.2031250000,0,0.6494141221,,,
7.2187500000,0,0.4443359077,,,
7.2343750000,0,0.0759277269,,,
7.2500000000,0,-0.4521484077,,,
7.2656250000,0,-1.0755620003,,,
7.2812500000,0,-1.6561280489,,,
7.2968750000,0,-2.0209960938,,,
7.3125000000,0,-2.0297849178,,,
7.3281250000,0,-1.6575930119,,,
7.3437500000,0,-1.0242919922,,,
7.3593750000,0,-0.3414306939,,,
7.3750000000,0,0.1605225056,,,
7.3906250000,0,0.3497313857,,,
7.4062500000,0,0.2406006008,,,
7.4218750000,0,-0.0267334003,,,
7.4375000000,0,-0.2650145888,,,
7.4531250000,0,-0.3579101861,,,
7.4687500000,0,-0.2924804986,,,
7.4843750000,0,-0.1489257962,,,
7.5000000000,0,-0.0316162109,,,
7.5156250000,0,-0.0164794903,,,
7.5312500000,0,-0.0897216797,,,
7.5468750000,0,-0.1866454929,,,
7.5625000000,0,-0.2440185994,,,
7.5781250000,0,-0.2287597954,,,
7.5937500000,0,-0.1683350056,,,
7.6093750000,0,-0.1285399944,,,
7.6250000000,0,-0.1502685994,,,
7.6406250000,0,-0.2139893025,,,
7.6562500000,0,-0.2482910007,,,
7.6718750000,0,-0.1647949070,,,
7.6875000000,0,0.0589599609,,,
7.7031250000,0,0.3408203125,,,
7.7187500000,0,0.5456542969,,,
7.7343750000,0,0.5555419922,,,
7.7500000000,0,0.3560791016,,,
7.7656250000,0,0.0488281287,,,
7.7812500000,0,-0.2098388970,,,
7.7968750000,0,-0.3051758111,,,
7.8125000000,0,-0.2268065959,,,
7.8281250000,0,-0.0649414137,,,
7.8437500000,0,0.0426025391,,,
7.8593750000,0,0.0133056603,,,
7.8750000000,0,-0.1182861030,,,
7.8906250000,0,-0.2288818061,,,
7.9062500000,0,-0.1914062947,,,
7.9218750000,0,0.0538330115,,,
7.9375000000,0,0.4440917969,,,
7.9531250000,0,0.8271483779,,,
7.9687500000,0,1.0361330509,,,
7.9843750000,0,0.9844970703,,,
8.0000000000,1,0.7213134766,,,
8.0156250000,1,0.3970946968,,,
8.0312500000,1,0.2202147990,,,
8.0468750000,1,0.3485107124,,,
8.0625000000,1,0.7960205078,,,
8.0781250000,1,1.4228520393,,,
8.0937500000,1,1.9858399630,,,
8.1093750000,1,2.2529299259,,,
8.1250000000,1,2.1058349609,,,
8.1406250000,1,1.5905760527,,,
8.1562500000,1,0.8695067763,,,
8.1718750000,1,0.1495361030,,,
8.1875000000,1,-0.4099121094,,,
8.2031250000,1,-0.7456055284,,,
8.2187500000,1,-0.8732910156,,,
8.2343750000,1,-0.8375244141,,,
8.2500000000,1,-0.6826171875,,,
8.2656250000,1,-0.4426270127,,,
8.2812500000,1,-0.1652832031,,,
8.2968750000,1,0.0533447303,,,
8.3125000000,1,0.1140137017,,,
8.3281250000,1,-0.0384521484,,,
8.3437500000,1,-0.3741455078,,,
8.3593750000,1,-0.7663574219,,,
8.3750000000,1,-1.0557860136,,,
8.3906250000,1,-1.1363530159,,,
8.4062500000,1,-1.0233149529,,,
8.4218750000,1,-0.8403319716,,,
8.4375000000,1,-0.7447509766,,,
8.4531250000,1,-0.8243408203,,,
8.4687500000,1,-1.0377199650,,,
8.4843750000,1,-1.2329100370,,,
8.5000000000,1,-1.2408449650,,,
8.5156250000,1,-0.9743651748,,,
8.5312500000,1,-0.4882813096,,,
8.5468750000,1,0.0433349609,,,
8.5625000000,1,0.4179688096,,,
8.5781250000,1,0.5194091797,,,
8.5937500000,1,0.3612061143,,,
8.6093750000,1,0.0928955078,,,
8.6250000000,1,-0.0899658203,,,
8.6406250000,1,-0.0511474609,,,
8.6562500000,1,0.2097167969,,,
8.6718750000,1,0.5455322266,,,
8.6875000000,1,0.7629395127,,,
8.7031250000,1,0.7385253906,,,
8.7187500000,1,0.4805907905,,,
8.7343750000,1,0.1258545071,,,
8.7500000000,1,-0.1584472954,,,
8.7656250000,1,-0.2761229873,,,
8.7812500000,1,-0.2379149944,,,
8.7968750000,1,-0.1483153999,,,
8.8125000000,1,-0.1022948995,,,
8.8281250000,1,-0.1430664063,,,
8.8437500000,1,-0.2392577976,,,
8.8593750000,1,-0.3216553032,,,
8.8750000000,1,-0.3483887017,,,
8.8906250000,1,-0.3288573921,,,
8.9062500000,1,-0.3222655952,,,
8.9218750000,1,-0.3829346001,,,
8.9375000000,1,-0.5317382813,,,
8.9531250000,1,-0.7387694716,,,
8.9687500000,1,-0.9328613281,,,
8.9843750000,1,-1.0321040154,,,
9.0000000000,1,-0.9814453125,,,
9.0156250000,1,-0.7528076172,,,
9.0312500000,1,-0.3779296875,,,
9.0468750000,1,0.0587158203,,,
9.0625000000,1,0.4371337891,,,
9.0781250000,1,0.6643065810,,,
9.0937500000,1,0.7119141221,,,
9.1093750000,1,0.6287841797,,,
9.1250000000,1,0.5277100205,,,
9.1406250000,1,0.5263671875,,,
9.1562500000,1,0.6932373047,,,
9.1718750000,1,1.0181879997,,,
9.1875000000,1,1.4171140194,,,
9.2031250000,1,1.7602540255,,,
9.2187500000,1,1.9183349609,,,
9.2343750000,1,1.8126219511,,,
9.2500000000,1,1.4335939884,,,
9.2656250000,1,0.8526610732,,,
9.2812500000,1,0.2103271037,,,
9.2968750000,1,-0.3380126953,,,
9.3125000000,1,-0.6578369141,,,
9.3281250000,1,-0.6875000000,,,
9.3437500000,1,-0.4460448921,,,
9.3593750000,1,-0.0410156287,,,
9.3750000000,1,0.3843994141,,,
9.3906250000,1,0.6683350205,,,
9.4062500000,1,0.6959229112,,,
9.4218750000,1,0.4366455078,,,
9.4375000000,1,-0.0557861291,,,
9.4531250000,1,-0.6343994141,,,
9.4687500000,1,-1.1218260527,,,
9.4843750000,1,-1.3660889864,,,
9.5000000000,1,-1.2937010527,,,
9.5156250000,1,-0.9243164063,,,
9.5312500000,1,-0.3666991889,,,
9.5468750000,1,0.2282714993,,,
9.5625000000,1,0.7254639268,,,
9.5781250000,1,1.0270999670,,,
9.5937500000,1,1.1203609705,,,
9.6093750000,1,1.0589599609,,,
9.6250000000,1,0.9162598252,,,
9.6406250000,1,0.7618408203,,,
9.6562500000,1,0.6176757813,,,
9.6718750000,1,0.4560546875,,,
9.6875000000,1,0.2216797024,,,
9.7031250000,1,-0.1132813022,,,
9.7187500000,1,-0.5340576172,,,
9.7343750000,1,-0.9492188096,,,
9.7500000000,1,-1.2329100370,,,
9.7656250000,1,-1.2921140194,,,
9.7812500000,1,-1.1025389433,,,
9.7968750000,1,-0.7304688096,,,
9.8125000000,1,-0.2983398139,,,
9.8281250000,1,0.0843505934,,,
9.8437500000,1,0.3503417969,,,
9.8593750000,1,0.4576416016,,,
9.8750000000,1,0.4267578125,,,
9.8906250000,1,0.2744140923,,,
9.9062500000,1,0.0329589806,,,
9.9218750000,1,-0.2587890923,,,
9.9375000000,1,-0.5551757813,,,
9.9531250000,1,-0.8111572266,,,
9.9687500000,1,-0.9826660156,,,
9.9843750000,1,-1.0364990234,,,
10.0000000000,1,-0.9752197266,,,
10.0156250000,1,-0.8198242188,,,
10.0312500000,1,-0.6333007813,,,
10.0468750000,1,-0.4897460938,,,
10.0625000000,1,-0.4310303032,,,
10.0781250000,1,-0.4677734077,,,
10.0937500000,1,-0.5554199219,,,
10.1093750000,1,-0.6301270127,,,
10.1250000000,1,-0.6146240234,,,
10.1406250000,1,-0.4611816108,,,
10.1562500000,1,-0.1651611030,,,
10.1718750000,1,0.2170410007,,,
10.1875000000,1,0.5798339844,,,
10.2031250000,1,0.8254395127,,,
10.2187500000,1,0.8853759766,,,
10.2343750000,1,0.7630615234,,,
10.2500000000,1,0.5280761719,,,
10.2656250000,1,0.2746582031,,,
10.2812500000,1,0.0783691406,,,
10.2968750000,1,-0.0223388709,,,
10.3125000000,1,-0.0375976600,,,
10.3281250000,1,0.0003662109,,,
10.3437500000,1,0.0571289100,,,
10.3593750000,1,0.1066894978,,,
10.3750000000,1,0.1520995945,,,
10.3906250000,1,0.1905518025,,,
10.4062500000,1,0.2137451023,,,
10.4218750000,1,0.1938477010,,,
10.4375000000,1,0.1339111030,,,
10.4531250000,1,0.0648193434,,,
10.4687500000,1,0.0501708984,,,
10.4843750000,1,0.1523437947,,,
10.5000000000,1,0.3627929986,,,
10.5156250000,1,0.6027832031,,,
10.5312500000,1,0.7309569716,,,
10.5468750000,1,0.6219481826,,,
10.5625000000,1,0.2282714993,,,
10.5781250000,1,-0.3768311143,,,
10.5937500000,1,-1.0202640295,,,
10.6093750000,1,-1.5202640295,,,
10.6250000000,1,-1.7507319450,,,
10.6406250000,1,-1.6905519962,,,
10.6562500000,1,-1.4305419922,,,
10.6718750000,1,-1.0977779627,,,
10.6875000000,1,-0.8125000000,,,
10.7031250000,1,-0.6329345703,,,
10.7187500000,1,-0.5684813857,,,
10.7343750000,1,-0.6005858779,,,
10.7500000000,1,-0.7133789063,,,
10.7656250000,1,-0.8801270127,,,
10.7812500000,1,-1.0667719841,,,
10.7968750000,1,-1.2016600370,,,
10.8125000000,1,-1.1912839413,,,
10.8281250000,1,-0.9805908203,,,
10.8437500000,1,-0.5941162109,,,
10.8593750000,1,-0.1480713040,,,
10.8750000000,1,0.2036132962,,,
10.8906250000,1,0.3419188857,,,
10.9062500000,1,0.2559813857,,,
10.9218750000,1,0.0528564490,,,
10.9375000000,1,-0.0804443434,,,
10.9531250000,1,0.0151367197,,,
10.9687500000,1,0.3768311143,,,
10.9843750000,1,0.8837891221,,,
11.0000000000,1,1.3391109705,,,
11.0156250000,1,1.5599370003,,,
11.0312500000,1,1.4819339514,,,
11.0468750000,1,1.1779789925,,,
11.0625000000,1,0.7851563096,,,
11.0781250000,1,0.4259032905,,,
11.0937500000,1,0.1363524944,,,
11.1093750000,1,-0.1060791016,,,
11.1250000000,1,-0.3325195014,,,
11.1406250000,1,-0.5299072266,,,
11.1562500000,1,-0.6245117188,,,
11.1718750000,1,-0.5075684190,,,
11.1875000000,1,-0.1325684041,,,
11.2031250000,1,0.4677734077,,,
11.2187500000,1,1.1596679688,,,
11.2343750000,1,1.7799069881,,,
11.2500000000,1,2.1887209415,,,
11.2656250000,1,2.3416750431,,,
11.2812500000,1,2.2698969841,,,
11.2968750000,1,2.0635991096,,,
11.3125000000,1,1.7989499569,,,
11.3281250000,1,1.5046390295,,,
11.3437500000,1,1.1674799919,,,
11.3593750000,1,0.7440186143,,,
11.3750000000,1,0.2027588040,,,
11.3906250000,1,-0.4394530952,,,
11.4062500000,1,-1.1136469841,,,
11.4218750000,1,-1.7286380529,,,
11.4375000000,1,-2.2042241096,,,
11.4531250000,1,-2.4986569881,,,
11.4687500000,1,-2.5972900391,,,
11.4843750000,1,-2.5085449219,,,
11.5000000000,1,-2.2392580509,,,
11.5156250000,1,-1.8134770393,,,
11.5312500000,1,-1.2781980038,,,
11.5468750000,1,-0.7172852159,,,
11.5625000000,1,-0.2395019978,,,
11.5781250000,1,0.0740966797,,,
11.5937500000,1,0.1967772990,,,
11.6093750000,1,0.1634521037,,,
11.6250000000,1,0.0770263672,,,
11.6406250000,1,0.0238037091,,,
11.6562500000,1,0.0660400391,,,
11.6718750000,1,0.2086181939,,,
11.6875000000,1,0.4013671875,,,
11.7031250000,1,0.5828856826,,,
11.7187500000,1,0.6889647841,,,
11.7343750000,1,0.7044677734,,,
11.7500000000,1,0.6348876953,,,
11.7656250000,1,0.5202636719,,,
11.7812500000,1,0.4029541016,,,
11.7968750000,1,0.3292236030,,,
11.8125000000,1,0.3377686143,,,
11.8281250000,1,0.4655762017,,,
11.8437500000,1,0.7219238281,,,
11.8593750000,1,1.0625000000,,,
11.8750000000,1,1.3731689453,,,
11.8906250000,1,1.5045169592,,,
11.9062500000,1,1.3214110136,,,
11.9218750000,1,0.7860106826,,,
11.9375000000,1,0.0161132794,,,
11.9531250000,1,-0.7770996094,,,
11.9687500000,1,-1.3518069983,,,
11.9843750000,1,-1.5590820313,,,
12.0000000000,1,-1.4125980139,,,
12.0156250000,1,-1.0645749569,,,
12.0312500000,1,-0.7080078125,,,
12.0468750000,1,-0.4777832031,,,
12.0625000000,1,-0.4000244141,,,
12.0781250000,1,-0.4323729873,,,
12.0937500000,1,-0.5224608779,,,
12.1093750000,1,-0.6762694716,,,
12.1250000000,1,-0.9316406250,,,
12.1406250000,1,-1.3160400391,,,
12.1562500000,1,-1.7723389864,,,
12.1718750000,1,-2.1505129337,,,
12.1875000000,1,-2.2827150822,,,
12.2031250000,1,-2.0538330078,,,
12.2187500000,1,-1.4746090174,,,
12.2343750000,1,-0.6899414063,,,
12.2500000000,1,0.1032714993,,,
12.2656250000,1,0.7293701172,,,
12.2812500000,1,1.1235350370,,,
12.2968750000,1,1.3084720373,,,
12.3125000000,1,1.3635250330,,,
12.3281250000,1,1.3699949980,,,
12.3437500000,1,1.3588869572,,,
12.3593750000,1,1.3181149960,,,
12.3750000000,1,1.2243649960,,,
12.3906250000,1,1.0792239904,,,
12.4062500000,1,0.9033203125,,,
12.4218750000,1,0.7382813096,,,
12.4375000000,1,0.6257324219,,,
12.4531250000,1,0.5362548828,,,
12.4687500000,1,0.4149169922,,,
12.4843750000,1,0.2181396037,,,
12.5000000000,1,-0.0379638709,,,
12.5156250000,1,-0.2825928032,,,
12.5312500000,1,-0.3981933892,,,
12.5468750000,1,-0.3123778999,,,
12.5625000000,1,-0.0441894494,,,
12.5781250000,1,0.2856445014,,,
12.5937500000,1,0.5190430284,,,
12.6093750000,1,0.5417479873,,,
12.6250000000,1,0.3435058892,,,
12.6406250000,1,0.0174560491,,,
12.6562500000,1,-0.3034667969,,,
12.6718750000,1,-0.5115966797,,,
12.6875000000,1,-0.6040039063,,,
12.7031250000,1,-0.6424561143,,,
12.7187500000,1,-0.6928710938,,,
12.7343750000,1,-0.7961425781,,,
12.7500000000,1,-0.9201660156,,,
12.7656250000,1,-1.0001219511,,,
12.7812500000,1,-0.9642333984,,,
12.7968750000,1,-0.7867432237,,,
12.8125000000,1,-0.4824219048,,,
12.8281250000,1,-0.0838622972,,,
12.8437500000,1,0.3670653999,,,
12.8593750000,1,0.8237305284,,,
12.8750000000,1,1.2272950411,,,
12.8906250000,1,1.5422359705,,,
12.9062500000,1,1.7388919592,,,
12.9218750000,1,1.8195799589,,,
12.9375000000,1,1.8309329748,,,
12.9531250000,1,1.8338619471,,,
12.9687500000,1,1.8431400061,,,
12.9843750000,1,1.8079830408,,,
13.0000000000,1,1.6336669922,,,
13.0156250000,1,1.2219239473,,,
13.0312500000,1,0.5726317763,,,
13.0468750000,1,-0.1976318061,,,
13.0625000000,1,-0.8726807237,,,
13.0781250000,1,-1.2702640295,,,
13.0937500000,1,-1.3181149960,,,
13.1093750000,1,-1.0917969942,,,
13.1250000000,1,-0.7518311143,,,
13.1406250000,1,-0.4439696968,,,
13.1562500000,1,-0.2270507962,,,
13.1718750000,1,-0.0620117188,,,
13.1875000000,1,0.0998535231,,,
13.2031250000,1,0.2211914063,,,
13.2187500000,1,0.1999512017,,,
13.2343750000,1,-0.0604248010,,,
13.2500000000,1,-0.5675048828,,,
13.2656250000,1,-1.1802979708,,,
13.2812500000,1,-1.6663819551,,,
13.2968750000,1,-1.8419189453,,,
13.3125000000,1,-1.6633299589,,,
13.3281250000,1,-1.2628170252,,,
13.3437500000,1,-0.8508300781,,,
13.3593750000,1,-0.5865479112,,,
13.3750000000,1,-0.5029296875,,,
13.3906250000,1,-0.4976806939,,,
13.4062500000,1,-0.4302979112,,,
13.4218750000,1,-0.2187500000,,,
13.4375000000,1,0.1003417969,,,
13.4531250000,1,0.4172362983,,,
13.4687500000,1,0.6021729112,,,
13.4843750000,1,0.5811768174,,,
13.5000000000,1,0.3586426079,,,
13.5156250000,1,-0.0085449219,,,
13.5312500000,1,-0.4503174126,,,
13.5468750000,1,-0.9003906250,,,
13.5625000000,1,-1.2758790255,,,
13.5781250000,1,-1.5102540255,,,
13.5937500000,1,-1.5266109705,,,
13.6093750000,1,-1.2960209846,,,
13.6250000000,1,-0.8684082031,,,
13.6406250000,1,-0.3642578125,,,
13.6562500000,1,0.0570068397,,,
13.6718750000,1,0.2731933892,,,
13.6875000000,1,0.2618407905,,,
13.7031250000,1,0.1146240011,,,
13.7187500000,1,-0.0209960900,,,
13.7343750000,1,-0.0035400391,,,
13.7500000000,1,0.2257079929,,,
13.7656250000,1,0.6185302734,,,
13.7812500000,1,1.0667719841,,,
13.7968750000,1,1.4211430550,,,
13.8125000000,1,1.5668950081,,,
13.8281250000,1,1.4538569450,,,
13.8437500000,1,1.1281739473,,,
13.8593750000,1,0.7023925781,,,
13.8750000000,1,0.3450928032,,,
13.8906250000,1,0.2188721001,,,
13.9062500000,1,0.4006347954,,,
13.9218750000,1,0.8385009766,,,
13.9375000000,1,1.3536380529,,,
13.9531250000,1,1.7109379768,,,
13.9687500000,1,1.7418210506,,,
13.9843750000,1,1.4134520292,,,
14.0000000000,1,0.8571776748,,,
14.0156250000,1,0.2791748047,,,
14.0312500000,1,-0.1434326023,,,
14.0468750000,1,-0.3411864936,,,
14.0625000000,1,-0.3563232124,,,
14.0781250000,1,-0.2886962891,,,
14.0937500000,1,-0.2177733928,,,
14.1093750000,1,-0.1560059041,,,
14.1250000000,1,-0.0850830078,,,
14.1406250000,1,0.0164794903,,,
14.1562500000,1,0.1339111030,,,
14.1718750000,1,0.2182617038,,,
14.1875000000,1,0.2286376953,,,
14.2031250000,1,0.1480713040,,,
14.2187500000,1,0.0092773438,,,
14.2343750000,1,-0.1462402046,,,
14.2500000000,1,-0.2934570014,,,
14.2656250000,1,-0.4488525093,,,
14.2812500000,1,-0.6300048828,,,
14.2968750000,1,-0.8359375000,,,
14.3125000000,1,-1.0449219942,,,
14.3281250000,1,-1.2131350040,,,
14.3437500000,1,-1.2967530489,,,
14.3593750000,1,-1.2885739803,,,
14.3750000000,1,-1.2138669491,,,
14.3906250000,1,-1.1060789824,,,
14.4062500000,1,-0.9790039063,,,
14.4218750000,1,-0.7994384766,,,
14.4375000000,1,-0.5007324219,,,
14.4531250000,1,-0.0438232385,,,
14.4687500000,1,0.5543212891,,,
14.4843750000,1,1.1693120003,,,
14.5000000000,1,1.6114499569,,,
14.5156250000,1,1.7109379768,,,
14.5312500000,1,1.4093019962,,,
14.5468750000,1,0.7958983779,,,
14.5625000000,1,0.0751953125,,,
14.5781250000,1,-0.5238037109,,,
14.5937500000,1,-0.8782958984,,,
14.6093750000,1,-0.9932860732,,,
14.6250000000,1,-0.9936522841,,,
14.6406250000,1,-1.0126949549,,,
14.6562500000,1,-1.0928959846,,,
14.6718750000,1,-1.1623539925,,,
14.6875000000,1,-1.0672609806,,,
14.7031250000,1,-0.6909180284,,,
14.7187500000,1,-0.0192871094,,,
14.7343750000,1,0.8085938096,,,
14.7500000000,1,1.5676269531,,,
14.7656250000,1,2.0172119141,,,
14.7812500000,1,2.0234379768,,,
14.7968750000,1,1.6135250330,,,
14.8125000000,1,0.9523925781,,,
14.8281250000,1,0.2706299126,,,
14.8437500000,1,-0.2395019978,,,
14.8593750000,1,-0.5128173828,,,
14.8750000000,1,-0.6169434190,,,
14.8906250000,1,-0.7069091797,,,
14.9062500000,1,-0.9222412109,,,
14.9218750000,1,-1.3007810116,,,
14.9375000000,1,-1.7448730469,,,
14.9531250000,1,-2.1088869572,,,
14.9687500000,1,-2.2780759335,,,
14.9843750000,1,-2.2421879768,,,
15.0000000000,1,-2.0825200081,,,
15.0156250000,1,-1.9057619572,,,
15.0312500000,1,-1.7329100370,,,
15.0468750000,1,-1.4997559786,,,
15.0625000000,1,-1.0996090174,,,
15.0781250000,1,-0.4836426079,,,
15.0937500000,1,0.2725830078,,,
15.1093750000,1,1.0052490234,,,
15.1250000000,1,1.5270999670,,,
15.1406250000,1,1.7154539824,,,
15.1562500000,1,1.5877690315,,,
15.1718750000,1,1.2791750431,,,
15.1875000000,1,0.9748535156,,,
15.2031250000,1,0.8112792969,,,
15.2187500000,1,0.8468018174,,,
15.2343750000,1,1.0285639763,,,
15.2500000000,1,1.2676999569,,,
15.2656250000,1,1.4643549919,,,
15.2812500000,1,1.5632319450,,,
15.2968750000,1,1.5550539494,,,
15.3125000000,1,1.4732669592,,,
15.3281250000,1,1.3552249670,,,
15.3437500000,1,1.2177729607,,,
15.3593750000,1,1.0505369902,,,
15.3750000000,1,0.8385009766,,,
15.3906250000,1,0.5778809190,,,
15.4062500000,1,0.3093262017,,,
15.4218750000,1,0.0767822266,,,
15.4375000000,1,-0.0778808594,,,
15.4531250000,1,-0.1700439006,,,
15.4687500000,1,-0.2478027046,,,
15.4843750000,1,-0.3615722954,,,
15.5000000000,1,-0.5200194716,,,
15.5156250000,1,-0.6691895127,,,
15.5312500000,1,-0.7287598252,,,
15.5468750000,1,-0.6269531250,,,
15.5625000000,1,-0.3475342095,,,
15.5781250000,1,0.0543212891,,,
15.5937500000,1,0.4775390923,,,
15.6093750000,1,0.8128662109,,,
15.6250000000,1,0.9925537109,,,
15.6406250000,1,0.9736328125,,,
15.6562500000,1,0.7502440810,,,
15.6718750000,1,0.3570556939,,,
15.6875000000,1,-0.1448975056,,,
15.7031250000,1,-0.6575927734,,,
15.7187500000,1,-1.0689699650,,,
15.7343750000,1,-1.2861330509,,,
15.7500000000,1,-1.2709959745,,,
15.7656250000,1,-1.0610350370,,,
15.7812500000,1,-0.7463378906,,,
15.7968750000,1,-0.4353027046,,,
15.8125000000,1,-0.1867675930,,,
15.8281250000,1,-0.0172119103,,,
15.8437500000,1,0.0885009766,,,
15.8593750000,1,0.1561278999,,,
15.8750000000,1,0.1895751953,,,
15.8906250000,1,0.1534423977,,,
15.9062500000,1,0.0266113300,,,
15.9218750000,1,-0.2038574070,,,
15.9375000000,1,-0.5128173828,,,
15.9531250000,1,-0.8435059190,,,
15.9687500000,1,-1.1163330078,,,
15.9843750000,1,-1.2462160587,,,
16.0000000000,2,-1.1633299589,,,
16.0156250000,2,-0.8354492188,,,
16.0312500000,2,-0.3133544922,,,
16.0468750000,2,0.2912597954,,,
16.0625000000,2,0.8221436143,,,
16.0781250000,2,1.1503909826,,,
16.0937500000,2,1.2380369902,,,
16.1093750000,2,1.1280519962,,,
16.1250000000,2,0.9370117188,,,
16.1406250000,2,0.7703856826,,,
16.1562500000,2,0.6766356826,,,
16.1718750000,2,0.6425781250,,,
16.1875000000,2,0.6070557237,,,
16.2031250000,2,0.5148925781,,,
16.2187500000,2,0.3378905952,,,
16.2343750000,2,0.0994872972,,,
16.2500000000,2,-0.1392821968,,,
16.2656250000,2,-0.3054198921,,,
16.2812500000,2,-0.3483887017,,,
16.2968750000,2,-0.2656250000,,,
16.3125000000,2,-0.1126708984,,,
16.3281250000,2,0.0181884803,,,
16.3437500000,2,0.0281982403,,,
16.3593750000,2,-0.1297606975,,,
16.3750000000,2,-0.4005126953,,,
16.3906250000,2,-0.6997069716,,,
16.4062500000,2,-0.9340819716,,,
16.4218750000,2,-1.0567630529,,,
16.4375000000,2,-1.0864260197,,,
16.4531250000,2,-1.0738530159,,,
16.4687500000,2,-1.0280760527,,,
16.4843750000,2,-0.9226074219,,,
16.5000000000,2,-0.7077636719,,,
16.5156250000,2,-0.3717041016,,,
16.5312500000,2,0.0153808603,,,
16.5468750000,2,0.3244628906,,,
16.5625000000,2,0.4217528999,,,
16.5781250000,2,0.2650145888,,,
16.5937500000,2,-0.0731201172,,,
16.6093750000,2,-0.4311523139,,,
16.6250000000,2,-0.6333007813,,,
16.6406250000,2,-0.5959473252,,,
16.6562500000,2,-0.3625487983,,,
16.6718750000,2,-0.0620117188,,,
16.6875000000,2,0.1608887017,,,
16.7031250000,2,0.2237548977,,,
16.7187500000,2,0.1226807013,,,
16.7343750000,2,-0.0828857422,,,
16.7500000000,2,-0.2939453125,,,
16.7656250000,2,-0.4364013970,,,
16.7812500000,2,-0.4797362983,,,
16.7968750000,2,-0.4190674126,,,
16.8125000000,2,-0.2803955078,,,
16.8281250000,2,-0.0782470703,,,
16.8437500000,2,0.1701660007,,,
16.8593750000,2,0.4351806939,,,
16.8750000000,2,0.6854248047,,,
16.8906250000,2,0.8728026748,,,
16.9062500000,2,0.9550781250,,,
16.9218750000,2,0.9111328125,,,
16.9375000000,2,0.7655029297,,,
16.9531250000,2,0.5546875000,,,
16.9687500000,2,0.3480224907,,,
16.9843750000,2,0.1761475056,,,
17.0000000000,2,0.0513916016,,,
17.0156250000,2,-0.0605468787,,,
17.0312500000,2,-0.2133789063,,,
17.0468750000,2,-0.4432373047,,,
17.0625000000,2,-0.7331542969,,,
17.0781250000,2,-0.9880371094,,,
17.0937500000,2,-1.0794680119,,,
17.1093750000,2,-0.9207764268,,,
17.1250000000,2,-0.5184326172,,,
17.1406250000,2,0.0111084003,,,
17.1562500000,2,0.4920653999,,,
17.1718750000,2,0.7800292969,,,
17.1875000000,2,0.8253173828,,,
17.2031250000,2,0.6831055284,,,
17.2187500000,2,0.4655762017,,,
17.2343750000,2,0.2703857124,,,
17.2500000000,2,0.1295166016,,,
17.2656250000,2,0.0290527306,,,
17.2812500000,2,-0.0570068397,,,
17.2968750000,2,-0.1171875000,,,
17.3125000000,2,-0.1193848029,,,
17.3281250000,2,-0.0279540997,,,
17.3437500000,2,0.1445312947,,,
17.3593750000,2,0.3210448921,,,
17.3750000000,2,0.4024657905,,,
17.3906250000,2,0.3256835938,,,
17.4062500000,2,0.0926513672,,,
17.4218750000,2,-0.2380370945,,,
17.4375000000,2,-0.5587158203,,,
17.4531250000,2,-0.7935791016,,,
17.4687500000,2,-0.8793944716,,,
17.4843750000,2,-0.8110352159,,,
17.5000000000,2,-0.6092529297,,,
17.5156250000,2,-0.3410645127,,,
17.5312500000,2,-0.1041259989,,,
17.5468750000,2,0.0008544922,,,
17.5625000000,2,-0.0787353516,,,
17.5781250000,2,-0.3178710938,,,
17.5937500000,2,-0.6091309190,,,
17.6093750000,2,-0.8153076172,,,
17.6250000000,2,-0.8458251953,,,
17.6406250000,2,-0.6965332031,,,
17.6562500000,2,-0.4509277046,,,
17.6718750000,2,-0.2342528999,,,
17.6875000000,2,-0.1348876953,,,
17.7031250000,2,-0.1900635064,,,
17.7187500000,2,-0.3753662109,,,
17.7343750000,2,-0.6373291016,,,
17.7500000000,2,-0.9025878906,,,
17.7656250000,2,-1.0949709415,,,
17.7812500000,2,-1.1446529627,,,
17.7968750000,2,-1.0061039925,,,
17.8125000000,2,-0.6895751953,,,
17.8281250000,2,-0.2685546875,,,
17.8437500000,2,0.1635742038,,,
17.8593750000,2,0.5177001953,,,
17.8750000000,2,0.7696533203,,,
17.8906250000,2,0.9659423828,,,
17.9062500000,2,1.1677249670,,,
17.9218750000,2,1.4082030058,,,
17.9375000000,2,1.6923830509,,,
17.9531250000,2,1.9847409725,,,
17.9687500000,2,2.2640380859,,,
17.9843750000,2,2.5216059685,,,
18.0000000000,2,2.7579350471,,,
18.0156250000,2,2.9494628906,,,
18.0312500000,2,3.0332028866,,,
18.0468750000,2,2.9125978947,,,
18.0625000000,2,2.5361330509,,,
18.0781250000,2,1.9300539494,,,
18.0937500000,2,1.2037349939,,,
18.1093750000,2,0.4970703125,,,
18.1250000000,2,-0.0760497972,,,
18.1406250000,2,-0.4719237983,,,
18.1562500000,2,-0.7156981826,,,
18.1718750000,2,-0.8746337891,,,
18.1875000000,2,-0.9943848252,,,
18.2031250000,2,-1.0916750431,,,
18.2187500000,2,-1.1365970373,,,
18.2343750000,2,-1.1055910587,,,
18.2500000000,2,-0.9941406250,,,
18.2656250000,2,-0.8370360732,,,
18.2812500000,2,-0.6916503906,,,
18.2968750000,2,-0.6130371094,,,
18.3125000000,2,-0.6295166016,,,
18.3281250000,2,-0.7396240234,,,
18.3437500000,2,-0.9099121094,,,
18.3593750000,2,-1.1013180017,,,
18.3750000000,2,-1.2705080509,,,
18.3906250000,2,-1.3669430017,,,
18.4062500000,2,-1.3568120003,,,
18.4218750000,2,-1.2325439453,,,
18.4375000000,2,-1.0181879997,,,
18.4531250000,2,-0.7767333984,,,
18.4687500000,2,-0.5655518174,,,
18.4843750000,2,-0.4255371094,,,
18.5000000000,2,-0.3604736030,,,
18.5156250000,2,-0.3464354873,,,
18.5312500000,2,-0.3450928032,,,
18.5468750000,2,-0.3355712891,,,
18.5625000000,2,-0.3129883111,,,
18.5781250000,2,-0.2686767876,,,
18.5937500000,2,-0.1988524944,,,
18.6093750000,2,-0.0977783203,,,
18.6250000000,2,0.0310058594,,,
18.6406250000,2,0.1522216946,,,
18.6562500000,2,0.2359618992,,,
18.6718750000,2,0.2536621094,,,
18.6875000000,2,0.2165527046,,,
18.7031250000,2,0.1501464993,,,
18.7187500000,2,0.0961914137,,,
18.7343750000,2,0.0787353516,,,
18.7500000000,2,0.1051025018,,,
18.7656250000,2,0.1694335938,,,
18.7812500000,2,0.2617188096,,,
18.7968750000,2,0.3780517876,,,
18.8125000000,2,0.5030518174,,,
18.8281250000,2,0.6024169922,,,
18.8437500000,2,0.6274414063,,,
18.8593750000,2,0.5589600205,,,
18.8750000000,2,0.3969726861,,,
18.8906250000,2,0.1840820014,,,
18.9062500000,2,-0.0213622991,,,
18.9218750000,2,-0.1741943061,,,
18.9375000000,2,-0.2543945014,,,
18.9531250000,2,-0.2772217095,,,
18.9687500000,2,-0.2624512017,,,
18.9843750000,2,-0.2171631008,,,
19.0000000000,2,-0.1253661960,,,
19.0156250000,2,0.0174560491,,,
19.0312500000,2,0.2055664063,,,
19.0468750000,2,0.3983153999,,,
19.0625000000,2,0.5339354873,,,
19.0781250000,2,0.5734863281,,,
19.0937500000,2,0.5177001953,,,
19.1093750000,2,0.4130859077,,,
19.1250000000,2,0.3543700874,,,
19.1406250000,2,0.4034424126,,,
19.1562500000,2,0.5720214844,,,
19.1718750000,2,0.7845458984,,,
19.1875000000,2,0.9135742188,,,
19.2031250000,2,0.8251953125,,,
19.2187500000,2,0.4619140923,,,
19.2343750000,2,-0.1138916016,,,
19.2500000000,2,-0.7207031250,,,
19.2656250000,2,-1.1356199980,,,
19.2812500000,2,-1.2016600370,,,
19.2968750000,2,-0.8997802734,,,
19.3125000000,2,-0.3782958984,,,
19.3281250000,2,0.1231689006,,,
19.3437500000,2,0.3824462891,,,
19.3593750000,2,0.3208008111,,,
19.3750000000,2,0.0162353497,,,
19.3906250000,2,-0.3403320014,,,
19.4062500000,2,-0.5825194716,,,
19.4218750000,2,-0.6455078125,,,
19.4375000000,2,-0.5769042969,,,
19.4531250000,2,-0.4877929986,,,
19.4687500000,2,-0.4642333984,,,
19.4843750000,2,-0.5045166016,,,
19.5000000000,2,-0.5349121094,,,
19.5156250000,2,-0.4739989936,,,
19.5312500000,2,-0.2952880859,,,
19.5468750000,2,-0.0643310472,,,
19.5625000000,2,0.1031493992,,,
19.5781250000,2,0.1052246019,,,
19.5937500000,2,-0.0753173828,,,
19.6093750000,2,-0.3649902046,,,
19.6250000000,2,-0.6164550781,,,
19.6406250000,2,-0.7055664063,,,
19.6562500000,2,-0.6021729112,,,
19.6718750000,2,-0.3891601861,,,
19.6875000000,2,-0.2120361030,,,
19.7031250000,2,-0.2089844048,,,
19.7187500000,2,-0.4215087891,,,
19.7343750000,2,-0.7803955078,,,
19.7500000000,2,-1.1390379667,,,
19.7656250000,2,-1.3524169922,,,
19.7812500000,2,-1.3574219942,,,
19.7968750000,2,-1.1688230038,,,
19.8125000000,2,-0.8415526748,,,
19.8281250000,2,-0.4320068061,,,
19.8437500000,2,0.0274658203,,,
19.8593750000,2,0.5056151748,,,
19.8750000000,2,0.9360352159,,,
19.8906250000,2,1.2398680449,,,
19.9062500000,2,1.3532710075,,,
19.9218750000,2,1.2825930119,,,
19.9375000000,2,1.1126710176,,,
19.9531250000,2,0.9594727159,,,
19.9687500000,2,0.8743895888,,,
19.9843750000,2,0.8225098252,,,
20.0000000000,2,0.7010498047,,,
20.0156250000,2,0.4401854873,,,
20.0312500000,2,0.0579833984,,,
20.0468750000,2,-0.3023681939,,,
20.0625000000,2,-0.4743652046,,,
20.0781250000,2,-0.3649902046,,,
20.0937500000,2,0.0035400391,,,
20.1093750000,2,0.4757080078,,,
20.1250000000,2,0.8695067763,,,
20.1406250000,2,1.0479739904,,,
20.1562500000,2,0.9742432237,,,
20.1718750000,2,0.6894531250,,,
20.1875000000,2,0.2885741889,,,
20.2031250000,2,-0.1561278999,,,
20.2187500000,2,-0.5855712891,,,
20.2343750000,2,-0.9440917969,,,
20.2500000000,2,-1.1883540154,,,
20.2656250000,2,-1.2548830509,,,
20.2812500000,2,-1.1138919592,,,
20.2968750000,2,-0.8007813096,,,
20.3125000000,2,-0.3823241889,,,
20.3281250000,2,0.0498046912,,,
20.3437500000,2,0.4359130859,,,
20.3593750000,2,0.7722167969,,,
20.3750000000,2,1.0856930017,,,
20.3906250000,2,1.3917239904,,,
20.4062500000,2,1.6540529728,,,
20.4218750000,2,1.8116459846,,,
20.4375000000,2,1.7974849939,,,
20.4531250000,2,1.6026610136,,,
20.4687500000,2,1.3033449650,,,
20.4843750000,2,1.0136719942,,,
20.5000000000,2,0.8228759766,,,
20.5156250000,2,0.7406005859,,,
20.5312500000,2,0.6645507813,,,
20.5468750000,2,0.4689941108,,,
20.5625000000,2,0.0742187500,,,
20.5781250000,2,-0.4921875000,,,
20.5937500000,2,-1.1010739803,,,
20.6093750000,2,-1.5904539824,,,
20.6250000000,2,-1.8295899630,,,
20.6406250000,2,-1.7967530489,,,
20.6562500000,2,-1.5476069450,,,
20.6718750000,2,-1.1870119572,,,
20.6875000000,2,-0.7845458984,,,
20.7031250000,2,-0.3885498047,,,
20.7187500000,2,-0.0198974591,,,
20.7343750000,2,0.2860107124,,,
20.7500000000,2,0.4666748047,,,
20.7656250000,2,0.4639892876,,,
20.7812500000,2,0.2800292969,,,
20.7968750000,2,-0.0263671894,,,
20.8125000000,2,-0.3398438096,,,
20.8281250000,2,-0.5621337891,,,
20.8437500000,2,-0.6801757813,,,
20.8593750000,2,-0.7489014268,,,
20.8750000000,2,-0.8533936143,,,
20.8906250000,2,-1.0435789824,,,
20.9062500000,2,-1.2886960506,,,
20.9218750000,2,-1.4853520393,,,
20.9375000000,2,-1.5368649960,,,
20.9531250000,2,-1.4124759436,,,
20.9687500000,2,-1.1411130428,,,
20.9843750000,2,-0.8070067763,,,
21.0000000000,2,-0.4819335938,,,
21.0156250000,2,-0.1898193061,,,
21.0312500000,2,0.0698242188,,,
21.0468750000,2,0.2943114936,,,
21.0625000000,2,0.4593505859,,,
21.0781250000,2,0.5230712891,,,
21.0937500000,2,0.4440917969,,,
21.1093750000,2,0.2224120945,,,
21.1250000000,2,-0.0943603516,,,
21.1406250000,2,-0.4357909858,,,
21.1562500000,2,-0.7160645127,,,
21.1718750000,2,-0.8706055284,,,
21.1875000000,2,-0.8659667969,,,
21.2031250000,2,-0.7006835938,,,
21.2187500000,2,-0.3861083984,,,
21.2343750000,2,0.0341796912,,,
21.2500000000,2,0.5198975205,,,
21.2656250000,2,1.0148930550,,,
21.2812500000,2,1.4580080509,,,
21.2968750000,2,1.7849119902,,,
21.3125000000,2,1.9497070313,,,
21.3281250000,2,1.9404300451,,,
21.3437500000,2,1.7763669491,,,
21.3593750000,2,1.5303959846,,,
21.3750000000,2,1.2720949650,,,
21.3906250000,2,1.0406490564,,,
21.4062500000,2,0.8377686143,,,
21.4218750000,2,0.6217041016,,,
21.4375000000,2,0.3697510064,,,
21.4531250000,2,0.0942382813,,,
21.4687500000,2,-0.1461181939,,,
21.4843750000,2,-0.2895508111,,,
21.5000000000,2,-0.3237304986,,,
21.5156250000,2,-0.2978515923,,,
21.5312500000,2,-0.3005371094,,,
21.5468750000,2,-0.4130859077,,,
21.5625000000,2,-0.6492919922,,,
21.5781250000,2,-0.9350585938,,,
21.5937500000,2,-1.1868900061,,,
21.6093750000,2,-1.3333740234,,,
21.6250000000,2,-1.3782960176,,,
21.6406250000,2,-1.3776860237,,,
21.6562500000,2,-1.3842769861,,,
21.6718750000,2,-1.3994139433,,,
21.6875000000,2,-1.3603520393,,,
21.7031250000,2,-1.1818850040,,,
21.7187500000,2,-0.7885742188,,,
21.7343750000,2,-0.1938477010,,,
21.7500000000,2,0.5195313096,,,
21.7656250000,2,1.2192380428,,,
21.7812500000,2,1.7679439783,,,
21.7968750000,2,2.0734860897,,,
21.8125000000,2,2.1138920784,,,
21.8281250000,2,1.9279789925,,,
21.8437500000,2,1.5800780058,,,
21.8593750000,2,1.1479489803,,,
21.8750000000,2,0.6857910156,,,
21.8906250000,2,0.2338867038,,,
21.9062500000,2,-0.1500243992,,,
21.9218750000,2,-0.4071044922,,,
21.9375000000,2,-0.4846191108,,,
21.9531250000,2,-0.3804931939,,,
21.9687500000,2,-0.1463623047,,,
21.9843750000,2,0.1275635064,,,
22.0000000000,2,0.3475342095,,,
22.0156250000,2,0.4566650093,,,
22.0312500000,2,0.4503174126,,,
22.0468750000,2,0.3624267876,,,
22.0625000000,2,0.2226562947,,,
22.0781250000,2,0.0655517578,,,
22.0937500000,2,-0.0971679688,,,
22.1093750000,2,-0.2484131008,,,
22.1250000000,2,-0.3723145127,,,
22.1406250000,2,-0.4667969048,,,
22.1562500000,2,-0.5460205078,,,
22.1718750000,2,-0.6308593750,,,
22.1875000000,2,-0.7260742188,,,
22.2031250000,2,-0.8178710938,,,
22.2187500000,2,-0.8527832031,,,
22.2343750000,2,-0.7980957031,,,
22.2500000000,2,-0.6634520888,,,
22.2656250000,2,-0.5258789063,,,
22.2812500000,2,-0.4722900093,,,
22.2968750000,2,-0.5484619141,,,
22.3125000000,2,-0.7272949219,,,
22.3281250000,2,-0.9265136719,,,
22.3437500000,2,-1.0596920252,,,
22.3593750000,2,-1.1093750000,,,
22.3750000000,2,-1.1225589514,,,
22.3906250000,2,-1.1605219841,,,
22.4062500000,2,-1.2655030489,,,
22.4218750000,2,-1.4077149630,,,
22.4375000000,2,-1.4871829748,,,
22.4531250000,2,-1.4033199549,,,
22.4687500000,2,-1.0986330509,,,
22.4843750000,2,-0.6127930284,,,
22.5000000000,2,-0.0740966797,,,
22.5156250000,2,0.3577880859,,,
22.5312500000,2,0.5616455078,,,
22.5468750000,2,0.5306395888,,,
22.5625000000,2,0.3693847954,,,
22.5781250000,2,0.2592773139,,,
22.5937500000,2,0.3549804986,,,
22.6093750000,2,0.7027587891,,,
22.6250000000,2,1.2139890194,,,
22.6406250000,2,1.7083740234,,,
22.6562500000,2,1.9869379997,,,
22.6718750000,2,1.9603270292,,,
22.6875000000,2,1.6705319881,,,
22.7031250000,2,1.2805180550,,,
22.7187500000,2,0.9667968750,,,
22.7343750000,2,0.8381348252,,,
22.7500000000,2,0.8934326172,,,
22.7656250000,2,1.0368649960,,,
22.7812500000,2,1.1555180550,,,
22.7968750000,2,1.1826169491,,,
22.8125000000,2,1.1109620333,,,
22.8281250000,2,0.9676514268,,,
22.8437500000,2,0.7646483779,,,
22.8593750000,2,0.4859619141,,,
22.8750000000,2,0.1218262017,,,
22.8906250000,2,-0.2812500000,,,
22.9062500000,2,-0.6121826172,,,
22.9218750000,2,-0.7353516221,,,
22.9375000000,2,-0.5545654297,,,
22.9531250000,2,-0.1037598029,,,
22.9687500000,2,0.4671630859,,,
22.9843750000,2,0.9743651748,,,
23.0000000000,2,1.2799069881,,,
23.0156250000,2,1.3710939884,,,
23.0312500000,2,1.3065190315,,,
23.0468750000,2,1.1558840275,,,
23.0625000000,2,0.9171143174,,,
23.0781250000,2,0.5480957031,,,
23.0937500000,2,0.0139160203,,,
23.1093750000,2,-0.6259766221,,,
23.1250000000,2,-1.2027590275,,,
23.1406250000,2,-1.5092769861,,,
23.1562500000,2,-1.4334720373,,,
23.1718750000,2,-1.0223389864,,,
23.1875000000,2,-0.4844971001,,,
23.2031250000,2,-0.0654296875,,,
23.2187500000,2,0.0671386719,,,
23.2343750000,2,-0.0946044922,,,
23.2500000000,2,-0.4101563096,,,
23.2656250000,2,-0.6779785156,,,
23.2812500000,2,-0.7554932237,,,
23.2968750000,2,-0.6142578125,,,
23.3125000000,2,-0.3289794922,,,
23.3281250000,2,-0.0235595703,,,
23.3437500000,2,0.1905518025,,,
23.3593750000,2,0.2719726861,,,
23.3750000000,2,0.2343750000,,,
23.3906250000,2,0.1224365011,,,
23.4062500000,2,-0.0312500000,,,
23.4218750000,2,-0.2239989936,,,
23.4375000000,2,-0.4570313096,,,
23.4531250000,2,-0.7054442763,,,
23.4687500000,2,-0.9167479873,,,
23.4843750000,2,-1.0181879997,,,
23.5000000000,2,-0.9588623047,,,
23.5156250000,2,-0.7445067763,,,
23.5312500000,2,-0.4387207031,,,
23.5468750000,2,-0.1300048977,,,
23.5625000000,2,0.1113281026,,,
23.5781250000,2,0.2858887017,,,
23.5937500000,2,0.4471436143,,,
23.6093750000,2,0.6572266221,,,
23.6250000000,2,0.9195557237,,,
23.6406250000,2,1.1890870333,,,
23.6562500000,2,1.3864749670,,,
23.6718750000,2,1.4641109705,,,
23.6875000000,2,1.4313960075,,,
23.7031250000,2,1.3370360136,,,
23.7187500000,2,1.2033690214,,,
23.7343750000,2,0.9948729873,,,
23.7500000000,2,0.6284180284,,,
23.7656250000,2,0.0623779297,,,
23.7812500000,2,-0.6545410156,,,
23.7968750000,2,-1.3729250431,,,
23.8125000000,2,-1.8925780058,,,
23.8281250000,2,-2.0767819881,,,
23.8437500000,2,-1.9323730469,,,
23.8593750000,2,-1.6000980139,,,
23.8750000000,2,-1.2878420353,,,
23.8906250000,2,-1.1529539824,,,
23.9062500000,2,-1.2200930119,,,
23.9218750000,2,-1.3813480139,,,
23.9375000000,2,-1.4829100370,,,
23.9531250000,2,-1.4013669491,,,
23.9687500000,2,-1.1193850040,,,
23.9843750000,2,-0.7144774795,,,
24.0000000000,3,-0.3104248047,,,
24.0156250000,3,-0.0075683589,,,
24.0312500000,3,0.1617431939,,,
24.0468750000,3,0.2338867038,,,
24.0625000000,3,0.2779541016,,,
24.0781250000,3,0.3441162109,,,
24.0937500000,3,0.4371337891,,,
24.1093750000,3,0.5415039063,,,
24.1250000000,3,0.6243895888,,,
24.1406250000,3,0.6478270888,,,
24.1562500000,3,0.5811768174,,,
24.1718750000,3,0.3962402046,,,
24.1875000000,3,0.0745849609,,,
24.2031250000,3,-0.3553467095,,,
24.2187500000,3,-0.8044434190,,,
24.2343750000,3,-1.1324460506,,,
24.2500000000,3,-1.2152099609,,,
24.2656250000,3,-0.9866942763,,,
24.2812500000,3,-0.4925537109,,,
24.2968750000,3,0.1191406026,,,
24.3125000000,3,0.6741942763,,,
24.3281250000,3,1.0513919592,,,
24.3437500000,3,1.2379150391,,,
24.3593750000,3,1.3217769861,,,
24.3750000000,3,1.4200439453,,,
24.3906250000,3,1.5866700411,,,
24.4062500000,3,1.7864990234,,,
24.4218750000,3,1.9019780159,,,
24.4375000000,3,1.8176269531,,,
24.4531250000,3,1.4963380098,,,
24.4687500000,3,0.9975585938,,,
24.4843750000,3,0.4537354112,,,
24.5000000000,3,0.0043945308,,,
24.5156250000,3,-0.2816162109,,,
24.5312500000,3,-0.4320068061,,,
24.5468750000,3,-0.5484619141,,,
24.5625000000,3,-0.7319335938,,,
24.5781250000,3,-1.0234379768,,,
24.5937500000,3,-1.3669430017,,,
24.6093750000,3,-1.6604000330,,,
24.6250000000,3,-1.7835689783,,,
24.6406250000,3,-1.6942139864,,,
24.6562500000,3,-1.4240720272,,,
24.6718750000,3,-1.0710450411,,,
24.6875000000,3,-0.7406005859,,,
24.7031250000,3,-0.4936523139,,,
24.7187500000,3,-0.3315429986,,,
24.7343750000,3,-0.2250977010,,,
24.7500000000,3,-0.1558838040,,,
24.7656250000,3,-0.1455077976,,,
24.7812500000,3,-0.2524414063,,,
24.7968750000,3,-0.5085449219,,,
24.8125000000,3,-0.8715819716,,,
24.8281250000,3,-1.2110600471,,,
24.8437500000,3,-1.3642580509,,,
24.8593750000,3,-1.2216800451,,,
24.8750000000,3,-0.7976074219,,,
24.8906250000,3,-0.2294922024,,,
24.9062500000,3,0.3088378906,,,
24.9218750000,3,0.6859130859,,,
24.9375000000,3,0.8992919922,,,
24.9531250000,3,1.0214840174,,,
24.9687500000,3,1.1483149529,,,
24.9843750000,3,1.2990720272,,,
25.0000000000,3,1.4083249569,,,
25.0156250000,3,1.3610839844,,,
25.0312500000,3,1.1003420353,,,
25.0468750000,3,0.6774901748,,,
25.0625000000,3,0.2473144978,,,
25.0781250000,3,-0.0253906306,,,
25.0937500000,3,-0.0531005897,,,
25.1093750000,3,0.1174316034,,,
25.1250000000,3,0.3430176079,,,
25.1406250000,3,0.4785155952,,,
25.1562500000,3,0.4680176079,,,
25.1718750000,3,0.3725585938,,,
25.1875000000,3,0.2985840142,,,
25.2031250000,3,0.3349609077,,,
25.2187500000,3,0.4870604873,,,
25.2343750000,3,0.6445313096,,,
25.2500000000,3,0.6784667969,,,
25.2656250000,3,0.5142822266,,,
25.2812500000,3,0.1613769978,,,
25.2968750000,3,-0.2648926079,,,
25.3125000000,3,-0.6331787109,,,
25.3281250000,3,-0.8442382813,,,
25.3437500000,3,-0.8769531250,,,
25.3593750000,3,-0.7773438096,,,
25.3750000000,3,-0.6149901748,,,
25.3906250000,3,-0.4306640923,,,
25.4062500000,3,-0.2172852010,,,
25.4218750000,3,0.0321044885,,,
25.4375000000,3,0.3420409858,,,
25.4531250000,3,0.6856688857,,,
25.4687500000,3,1.0159909725,,,
25.4843750000,3,1.2711180449,,,
25.5000000000,3,1.4047850370,,,
25.5156250000,3,1.3875730038,,,
25.5312500000,3,1.2069089413,,,
25.5468750000,3,0.8637694716,,,
25.5625000000,3,0.3785400093,,,
25.5781250000,3,-0.2094727010,,,
25.5937500000,3,-0.8320313096,,,
25.6093750000,3,-1.3930660486,,,
25.6250000000,3,-1.7985839844,,,
25.6406250000,3,-1.9726560116,,,
25.6562500000,3,-1.8900150061,,,
25.6718750000,3,-1.6021729708,,,
25.6875000000,3,-1.2396240234,,,
25.7031250000,3,-0.9526367188,,,
25.7187500000,3,-0.8444824219,,,
25.7343750000,3,-0.9176024795,,,
25.7500000000,3,-1.0787349939,,,
25.7656250000,3,-1.1844480038,,,
25.7812500000,3,-1.1276860237,,,
25.7968750000,3,-0.8751220703,,,
25.8125000000,3,-0.4997558892,,,
25.8281250000,3,-0.1104736030,,,
25.8437500000,3,0.2202147990,,,
25.8593750000,3,0.4587402046,,,
25.8750000000,3,0.6358643174,,,
25.8906250000,3,0.7829589844,,,
25.9062500000,3,0.9184569716,,,
25.9218750000,3,1.0263669491,,,
25.9375000000,3,1.0841059685,,,
25.9531250000,3,1.0750730038,,,
25.9687500000,3,0.9973145127,,,
25.9843750000,3,0.8471680284,,,
26.0000000000,3,0.6185302734,,,
26.0156250000,3,0.3244628906,,,
26.0312500000,3,-0.0095214844,,,
26.0468750000,3,-0.3216553032,,,
26.0625000000,3,-0.5544434190,,,
26.0781250000,3,-0.6776123047,,,
26.0937500000,3,-0.7098389268,,,
26.1093750000,3,-0.6853026748,,,
26.1250000000,3,-0.6370850205,,,
26.1406250000,3,-0.5799561143,,,
26.1562500000,3,-0.5085449219,,,
26.1718750000,3,-0.4146729112,,,
26.1875000000,3,-0.2946777046,,,
26.2031250000,3,-0.1520995945,,,
26.2187500000,3,0.0003662109,,,
26.2343750000,3,0.1496582031,,,
26.2500000000,3,0.2687987983,,,
26.2656250000,3,0.3325195014,,,
26.2812500000,3,0.3195801079,,,
26.2968750000,3,0.2606200874,,,
26.3125000000,3,0.2061768025,,,
26.3281250000,3,0.2194824070,,,
26.3437500000,3,0.3497313857,,,
26.3593750000,3,0.5793457031,,,
26.3750000000,3,0.8601074219,,,
26.3906250000,3,1.0947270393,,,
26.4062500000,3,1.2065429688,,,
26.4218750000,3,1.1608890295,,,
26.4375000000,3,0.9642333984,,,
26.4531250000,3,0.6627197266,,,
26.4687500000,3,0.3212890923,,,
26.4843750000,3,0.0107421903,,,
26.5000000000,3,-0.1973876953,,,
26.5156250000,3,-0.2569580078,,,
26.5312500000,3,-0.1520995945,,,
26.5468750000,3,0.0755615234,,,
26.5625000000,3,0.3250732124,,,
26.5781250000,3,0.4592284858,,,
26.5937500000,3,0.3485107124,,,
26.6093750000,3,-0.0659179688,,,
26.6250000000,3,-0.7098389268,,,
26.6406250000,3,-1.3883060217,,,
26.6562500000,3,-1.8562010527,,,
26.6718750000,3,-1.9327390194,,,
26.6875000000,3,-1.5932619572,,,
26.7031250000,3,-0.9964600205,,,
26.7187500000,3,-0.4143066108,,,
26.7343750000,3,-0.0982666016,,,
26.7500000000,3,-0.1647949070,,,
26.7656250000,3,-0.5449218750,,,
26.7812500000,3,-1.0550539494,,,
26.7968750000,3,-1.4860839844,,,
26.8125000000,3,-1.7167969942,,,
26.8281250000,3,-1.7269289494,,,
26.8437500000,3,-1.5666500330,,,
26.8593750000,3,-1.2911380529,,,
26.8750000000,3,-0.9101563096,,,
26.8906250000,3,-0.4241943061,,,
26.9062500000,3,0.1462402046,,,
26.9218750000,3,0.7211914063,,,
26.9375000000,3,1.1783449650,,,
26.9531250000,3,1.4228520393,,,
26.9687500000,3,1.4243160486,,,
26.9843750000,3,1.2629389763,,,
27.0000000000,3,1.0759279728,,,
27.0156250000,3,0.9796143174,,,
27.0312500000,3,1.0153809786,,,
27.0468750000,3,1.1217039824,,,
27.0625000000,3,1.1722409725,,,
27.0781250000,3,1.0601810217,,,
27.0937500000,3,0.7752686143,,,
27.1093750000,3,0.3985596001,,,
27.1250000000,3,0.0805664137,,,
27.1406250000,3,-0.0588378906,,,
27.1562500000,3,0.0018310550,,,
27.1718750000,3,0.1833495945,,,
27.1875000000,3,0.3477782905,,,
27.2031250000,3,0.3843994141,,,
27.2187500000,3,0.2620849907,,,
27.2343750000,3,0.0319824181,,,
27.2500000000,3,-0.2169189006,,,
27.2656250000,3,-0.4038085938,,,
27.2812500000,3,-0.4925537109,,,
27.2968750000,3,-0.4932861030,,,
27.3125000000,3,-0.4345703125,,,
27.3281250000,3,-0.3088378906,,,
27.3437500000,3,-0.0955810472,,,
27.3593750000,3,0.2347411960,,,
27.3750000000,3,0.6606444716,,,
27.3906250000,3,1.0972900391,,,
27.4062500000,3,1.4053959846,,,
27.4218750000,3,1.4606930017,,,
27.4375000000,3,1.2044680119,,,
27.4531250000,3,0.6937255859,,,
27.4687500000,3,0.0660400391,,,
27.4843750000,3,-0.5122069716,,,
27.5000000000,3,-0.9196776748,,,
27.5156250000,3,-1.1198730469,,,
27.5312500000,3,-1.1430660486,,,
27.5468750000,3,-1.0482180119,,,
27.5625000000,3,-0.8623046875,,,
27.5781250000,3,-0.5966796875,,,
27.5937500000,3,-0.2536621094,,,
27.6093750000,3,0.1170653999,,,
27.6250000000,3,0.4393311143,,,
27.6406250000,3,0.6307373047,,,
27.6562500000,3,0.6397705078,,,
27.6718750000,3,0.4940186143,,,
27.6875000000,3,0.2622070014,,,
27.7031250000,3,0.0147705097,,,
27.7187500000,3,-0.1964111030,,,
27.7343750000,3,-0.3529053032,,,
27.7500000000,3,-0.4421387017,,,
27.7656250000,3,-0.4422607124,,,
27.7812500000,3,-0.3243407905,,,
27.7968750000,3,-0.0919189528,,,
27.8125000000,3,0.1949463040,,,
27.8281250000,3,0.4472655952,,,
27.8437500000,3,0.5756835938,,,
27.8593750000,3,0.5653076172,,,
27.8750000000,3,0.4512938857,,,
27.8906250000,3,0.3122558892,,,
27.9062500000,3,0.2053222954,,,
27.9218750000,3,0.1442870945,,,
27.9375000000,3,0.0953369066,,,
27.9531250000,3,0.0148925800,,,
27.9687500000,3,-0.1159667969,,,
27.9843750000,3,-0.2586669922,,,
28.0000000000,3,-0.3676758111,,,
28.0156250000,3,-0.4108887017,,,
28.0312500000,3,-0.3992919922,,,
28.0468750000,3,-0.3991698921,,,
28.0625000000,3,-0.4624023139,,,
28.0781250000,3,-0.5983886719,,,
28.0937500000,3,-0.7385253906,,,
28.1093750000,3,-0.7978516221,,,
28.1250000000,3,-0.7126464844,,,
28.1406250000,3,-0.5048828125,,,
28.1562500000,3,-0.2835693061,,,
28.1718750000,3,-0.1809082031,,,
28.1875000000,3,-0.2812500000,,,
28.2031250000,3,-0.5584716797,,,
28.2187500000,3,-0.8842772841,,,
28.2343750000,3,-1.0850830078,,,
28.2500000000,3,-1.0548100471,,,
28.2656250000,3,-0.8126220703,,,
28.2812500000,3,-0.4882813096,,,
28.2968750000,3,-0.2348632962,,,
28.3125000000,3,-0.1187743992,,,
28.3281250000,3,-0.0948486328,,,
28.3437500000,3,-0.0416259803,,,
28.3593750000,3,0.1522216946,,,
28.3750000000,3,0.4770508111,,,
28.3906250000,3,0.8127440810,,,
28.4062500000,3,0.9898682237,,,
28.4218750000,3,0.9147949219,,,
28.4375000000,3,0.6180419922,,,
28.4531250000,3,0.2525635064,,,
28.4687500000,3,-0.0010986330,,,
28.4843750000,3,-0.0339355506,,,
28.5000000000,3,0.1291504055,,,
28.5156250000,3,0.3703612983,,,
28.5312500000,3,0.5505371094,,,
28.5468750000,3,0.5899658203,,,
28.5625000000,3,0.5025634766,,,
28.5781250000,3,0.3741455078,,,
28.5937500000,3,0.3117676079,,,
28.6093750000,3,0.3852539063,,,
28.6250000000,3,0.6048583984,,,
28.6406250000,3,0.8999022841,,,
28.6562500000,3,1.1634520292,,,
28.6718750000,3,1.2974849939,,,
28.6875000000,3,1.2723389864,,,
28.7031250000,3,1.1529539824,,,
28.7187500000,3,1.0518800020,,,
28.7343750000,3,1.0515140295,,,
28.7500000000,3,1.1226810217,,,
28.7656250000,3,1.1247559786,,,
28.7812500000,3,0.8765869141,,,
28.7968750000,3,0.2773438096,,,
28.8125000000,3,-0.5936279297,,,
28.8281250000,3,-1.5118410587,,,
28.8437500000,3,-2.1955571175,,,
28.8593750000,3,-2.4638669491,,,
28.8750000000,3,-2.3154299259,,,
28.8906250000,3,-1.9003909826,,,
28.9062500000,3,-1.4429930449,,,
28.9218750000,3,-1.1055910587,,,
28.9375000000,3,-0.9455565810,,,
28.9531250000,3,-0.9166259766,,,
28.9687500000,3,-0.9285889268,,,
28.9843750000,3,-0.9057617188,,,
29.0000000000,3,-0.8411865234,,,
29.0156250000,3,-0.7596436143,,,
29.0312500000,3,-0.7054442763,,,
29.0468750000,3,-0.7031250000,,,
29.0625000000,3,-0.7315673828,,,
29.0781250000,3,-0.7340087891,,,
29.0937500000,3,-0.6408690810,,,
29.1093750000,3,-0.4134520888,,,
29.1250000000,3,-0.0714111328,,,
29.1406250000,3,0.3040770888,,,
29.1562500000,3,0.6202393174,,,
29.1718750000,3,0.8167725205,,,
29.1875000000,3,0.8791503906,,,
29.2031250000,3,0.8264160156,,,
29.2187500000,3,0.7031250000,,,
29.2343750000,3,0.5308837891,,,
29.2500000000,3,0.3359375000,,,
29.2656250000,3,0.1574707031,,,
29.2812500000,3,0.0426025391,,,
29.2968750000,3,0.0377197303,,,
29.3125000000,3,0.1492920071,,,
29.3281250000,3,0.3347167969,,,
29.3437500000,3,0.5361328125,,,
29.3593750000,3,0.6965332031,,,
29.3750000000,3,0.7947998047,,,
29.3906250000,3,0.8449707031,,,
29.4062500000,3,0.8587645888,,,
29.4218750000,3,0.8410645127,,,
29.4375000000,3,0.7756348252,,,
29.4531250000,3,0.6495360732,,,
29.4687500000,3,0.4731445014,,,
29.4843750000,3,0.2762450874,,,
29.5000000000,3,0.0794677734,,,
29.5156250000,3,-0.0965576172,,,
29.5312500000,3,-0.2473144978,,,
29.5468750000,3,-0.3442383111,,,
29.5625000000,3,-0.3265380859,,,
29.5781250000,3,-0.1468506008,,,
29.5937500000,3,0.1861571968,,,
29.6093750000,3,0.5734863281,,,
29.6250000000,3,0.8455811143,,,
29.6406250000,3,0.8459473252,,,
29.6562500000,3,0.5139160156,,,
29.6718750000,3,-0.0478515588,,,
29.6875000000,3,-0.6352539063,,,
29.7031250000,3,-1.0297850370,,,
29.7187500000,3,-1.1180419922,,,
29.7343750000,3,-0.9318848252,,,
29.7500000000,3,-0.6165770888,,,
29.7656250000,3,-0.3416748047,,,
29.7812500000,3,-0.2050780952,,,
29.7968750000,3,-0.2011719048,,,
29.8125000000,3,-0.2529296875,,,
29.8281250000,3,-0.2775878906,,,
29.8437500000,3,-0.2286376953,,,
29.8593750000,3,-0.1370850056,,,
29.8750000000,3,-0.0789794922,,,
29.8906250000,3,-0.1220702976,,,
29.9062500000,3,-0.2805176079,,,
29.9218750000,3,-0.4865722954,,,
29.9375000000,3,-0.6297606826,,,
29.9531250000,3,-0.6015625000,,,
29.9687500000,3,-0.3527832031,,,
29.9843750000,3,0.0751953125,,,
30.0000000000,3,0.5451660156,,,
30.0156250000,3,0.9107666016,,,
30.0312500000,3,1.0535889864,,,
30.0468750000,3,0.9477539063,,,
30.0625000000,3,0.6687011719,,,
30.0781250000,3,0.3386229873,,,
30.0937500000,3,0.0607910194,,,
30.1093750000,3,-0.1219481975,,,
30.1250000000,3,-0.2408446968,,,
30.1406250000,3,-0.3647460938,,,
30.1562500000,3,-0.5623779297,,,
30.1718750000,3,-0.8699951172,,,
30.1875000000,3,-1.2811280489,,,
30.2031250000,3,-1.7352290154,,,
30.2187500000,3,-2.1459960938,,,
30.2343750000,3,-2.4057619572,,,
30.2500000000,3,-2.4329829216,,,
30.2656250000,3,-2.1966550350,,,
30.2812500000,3,-1.7312010527,,,
30.2968750000,3,-1.1326899529,,,
30.3125000000,3,-0.5120850205,,,
30.3281250000,3,0.0217285194,,,
30.3437500000,3,0.3994140923,,,
30.3593750000,3,0.5816649795,,,
30.3750000000,3,0.5739746094,,,
30.3906250000,3,0.4011229873,,,
30.4062500000,3,0.1354980022,,,
30.4218750000,3,-0.1364745945,,,
30.4375000000,3,-0.3145751953,,,
30.4531250000,3,-0.3282471001,,,
30.4687500000,3,-0.1685791016,,,
30.4843750000,3,0.1340332031,,,
30.5000000000,3,0.5327147841,,,
30.5156250000,3,0.9884033203,,,
30.5312500000,3,1.4727779627,,,
30.5468750000,3,1.9414060116,,,
30.5625000000,3,2.3232419491,,,
30.5781250000,3,2.5289309025,,,
30.5937500000,3,2.4871830940,,,
30.6093750000,3,2.1934809685,,,
30.6250000000,3,1.7247309685,,,
30.6406250000,3,1.2145999670,,,
30.6562500000,3,0.7814940810,,,
30.6718750000,3,0.4626465142,,,
30.6875000000,3,0.2093506008,,,
30.7031250000,3,-0.0781250000,,,
30.7187500000,3,-0.4588623047,,,
30.7343750000,3,-0.8958740234,,,
30.7500000000,3,-1.2719730139,,,
30.7656250000,3,-1.4340209961,,,
30.7812500000,3,-1.2977290154,,,
30.7968750000,3,-0.8956298828,,,
30.8125000000,3,-0.3562012017,,,
30.8281250000,3,0.1614989936,,,
30.8437500000,3,0.5472412109,,,
30.8593750000,3,0.7930908203,,,
30.8750000000,3,0.9776610732,,,
30.8906250000,3,1.1761469841,,,
30.9062500000,3,1.4117430449,,,
30.9218750000,3,1.6073000431,,,
30.9375000000,3,1.6414790154,,,
30.9531250000,3,1.4291989803,,,
30.9687500000,3,0.9783936143,,,
30.9843750000,3,0.4001465142,,,
31.0000000000,3,-0.1293945014,,,
31.0156250000,3,-0.4779053032,,,
31.0312500000,3,-0.5847167969,,,
31.0468750000,3,-0.4987792969,,,
31.0625000000,3,-0.3247070014,,,
31.0781250000,3,-0.1517944038,,,
31.0937500000,3,-0.0270385705,,,
31.1093750000,3,0.0595703088,,,
31.1250000000,3,0.1292725056,,,
31.1406250000,3,0.1945800930,,,
31.1562500000,3,0.2224120945,,,
31.1718750000,3,0.1616210938,,,
31.1875000000,3,-0.0206909198,,,
31.2031250000,3,-0.3239746094,,,
31.2187500000,3,-0.7096558213,,,
31.2343750000,3,-1.1245119572,,,
31.2500000000,3,-1.5246579647,,,
31.2656250000,3,-1.8754880428,,,
31.2812500000,3,-2.1459960938,,,
31.2968750000,3,-2.2896120548,,,
31.3125000000,3,-2.2644650936,,,
31.3281250000,3,-2.0275878906,,,
31.3437500000,3,-1.5714110136,,,
31.3593750000,3,-0.9363402724,,,
31.3750000000,3,-0.2144165039,,,
31.3906250000,3,0.4717406929,,,
31.4062500000,3,1.0114749670,,,
31.4218750000,3,1.3366700411,,,
31.4375000000,3,1.4442139864,,,
31.4531250000,3,1.3981930017,,,
31.4687500000,3,1.2922359705,,,
31.4843750000,3,1.2064820528,,,
31.5000000000,3,1.1811519861,,,
31.5156250000,3,1.1832280159,,,
31.5312500000,3,1.1676030159,,,
31.5468750000,3,1.0733640194,,,
31.5625000000,3,0.8765869141,,,
31.5781250000,3,0.6190795898,,,
31.5937500000,3,0.3563843071,,,
31.6093750000,3,0.1486206055,,,
31.6250000000,3,0.0116577102,,,
31.6406250000,3,-0.0471191406,,,
31.6562500000,3,-0.0665283203,,,
31.6718750000,3,-0.0617065392,,,
31.6875000000,3,-0.0606079102,,,
31.7031250000,3,-0.0812377930,,,
31.7187500000,3,-0.1308594048,,,
31.7343750000,3,-0.2235718071,,,
31.7500000000,3,-0.3491210938,,,
31.7656250000,3,-0.4974975884,,,
31.7812500000,3,-0.6541138291,,,
31.7968750000,3,-0.8008422852,,,
31.8125000000,3,-0.9142456055,,,
31.8281250000,3,-0.9877930284,,,
31.8437500000,3,-1.0032349825,,,
31.8593750000,3,-0.9378051758,,,
31.8750000000,3,-0.7666016221,,,
31.8906250000,3,-0.4849242866,,,
31.9062500000,3,-0.1168212965,,,
31.9218750000,3,0.2708129883,,,
31.9375000000,3,0.6036986709,,,
31.9531250000,3,0.8239135742,,,
31.9687500000,3,0.9172363281,,,
31.9843750000,3,0.9373168945,,,
32.0000000000,4,0.9527587891,,,
32.0156250000,4,0.9841309190,,,
32.0312500000,4,1.0140990019,,,
32.0468750000,4,0.9533081055,,,
32.0625000000,4,0.7177124023,,,
32.0781250000,4,0.2986449897,,,
32.0937500000,4,-0.2368164063,,,
32.1093750000,4,-0.7555541992,,,
32.1250000000,4,-1.1359859705,,,
32.1406250000,4,-1.2905880213,,,
32.1562500000,4,-1.2249759436,,,
32.1718750000,4,-0.9659423828,,,
32.1875000000,4,-0.5595703125,,,
32.2031250000,4,-0.0622558594,,,
32.2187500000,4,0.4662475884,,,
32.2343750000,4,0.9082031250,,,
32.2500000000,4,1.1252440214,,,
32.2656250000,4,1.0068360567,,,
32.2812500000,4,0.5422363281,,,
32.2968750000,4,-0.1409302056,,,
32.3125000000,4,-0.7930908203,,,
32.3281250000,4,-1.1716920137,,,
32.3437500000,4,-1.1231689453,,,
32.3593750000,4,-0.6845703125,,,
32.3750000000,4,-0.0727539137,,,
32.3906250000,4,0.4205321968,,,
32.4062500000,4,0.5520020127,,,
32.4218750000,4,0.2426147014,,,
32.4375000000,4,-0.4093017876,,,
32.4531250000,4,-1.1777950525,,,
32.4687500000,4,-1.8289179802,,,
32.4843750000,4,-2.2166140079,,,
32.5000000000,4,-2.3110349178,,,
32.5156250000,4,-2.1770629883,,,
32.5312500000,4,-1.9049680233,,,
32.5468750000,4,-1.5631099939,,,
32.5625000000,4,-1.1987299919,,,
32.5781250000,4,-0.8372191787,,,
32.5937500000,4,-0.5266113281,,,
32.6093750000,4,-0.3399047852,,,
32.6250000000,4,-0.3336791992,,,
32.6406250000,4,-0.4992065132,,,
32.6562500000,4,-0.7459105849,,,
32.6718750000,4,-0.9345703125,,,
32.6875000000,4,-0.9282227159,,,
32.7031250000,4,-0.6685791016,,,
32.7187500000,4,-0.1959228963,,,
32.7343750000,4,0.3904418945,,,
32.7500000000,4,0.9810791016,,,
32.7656250000,4,1.5048220158,,,
32.7812500000,4,1.9293210506,,,
32.7968750000,4,2.2440800667,,,
32.8125000000,4,2.4277949333,,,
32.8281250000,4,2.4451289177,,,
32.8437500000,4,2.2761230469,,,
32.8593750000,4,1.9686889648,,,
32.8750000000,4,1.6229250431,,,
32.8906250000,4,1.3666379452,,,
32.9062500000,4,1.2886960506,,,
32.9218750000,4,1.3784179688,,,
32.9375000000,4,1.5187989473,,,
32.9531250000,4,1.5375980139,,,
32.9687500000,4,1.3081049919,,,
32.9843750000,4,0.8190308213,,,
33.0000000000,4,0.1806029975,,,
33.0156250000,4,-0.4193114936,,,
33.0312500000,4,-0.8362426758,,,
33.0468750000,4,-1.0294189453,,,
33.0625000000,4,-1.0705569983,,,
33.0781250000,4,-1.0657349825,,,
33.0937500000,4,-1.0828859806,,,
33.1093750000,4,-1.1161500216,,,
33.1250000000,4,-1.1047970057,,,
33.1406250000,4,-1.0177609921,,,
33.1562500000,4,-0.8869628906,,,
33.1718750000,4,-0.7929688096,,,
33.1875000000,4,-0.8109130859,,,
33.2031250000,4,-0.9256591797,,,
33.2187500000,4,-1.0526729822,,,
33.2343750000,4,-1.0780030489,,,
33.2500000000,4,-0.9415283203,,,
33.2656250000,4,-0.6866455078,,,
33.2812500000,4,-0.4306640923,,,
33.2968750000,4,-0.2700195014,,,
33.3125000000,4,-0.2198486030,,,
33.3281250000,4,-0.2039795071,,,
33.3437500000,4,-0.1306762993,,,
33.3593750000,4,0.0457153283,,,
33.3750000000,4,0.2773438096,,,
33.3906250000,4,0.4615479112,,,
33.4062500000,4,0.5341187119,,,
33.4218750000,4,0.5165405273,,,
33.4375000000,4,0.5039063096,,,
33.4531250000,4,0.5982666016,,,
33.4687500000,4,0.8235474229,,,
33.4843750000,4,1.0955810547,,,
33.5000000000,4,1.2616579533,,,
33.5156250000,4,1.1809689999,,,
33.5312500000,4,0.8311157227,,,
33.5468750000,4,0.3056640923,,,
33.5625000000,4,-0.2034302056,,,
33.5781250000,4,-0.5070800781,,,
33.5937500000,4,-0.4968262017,,,
33.6093750000,4,-0.2041625977,,,
33.6250000000,4,0.2414550930,,,
33.6406250000,4,0.6672974229,,,
33.6562500000,4,0.9307860732,,,
33.6718750000,4,0.9634398818,,,
33.6875000000,4,0.7638549805,,,
33.7031250000,4,0.3753052056,,,
33.7187500000,4,-0.1390381008,,,
33.7343750000,4,-0.7036743164,,,
33.7500000000,4,-1.2358399630,,,
33.7656250000,4,-1.6358640194,,,
33.7812500000,4,-1.8075560331,,,
33.7968750000,4,-1.7044680119,,,
33.8125000000,4,-1.3617550135,,,
33.8281250000,4,-0.9006348252,,,
33.8437500000,4,-0.4873046875,,,
33.8593750000,4,-0.2656250000,,,
33.8750000000,4,-0.2707520127,,,
33.8906250000,4,-0.4136353135,,,
33.9062500000,4,-0.5162354112,,,
33.9218750000,4,-0.3889159858,,,
33.9375000000,4,0.0357666016,,,
33.9531250000,4,0.6854857802,,,
33.9687500000,4,1.3602290154,,,
33.9843750000,4,1.8402099609,,,
34.0000000000,4,1.9965820313,,,
34.0156250000,4,1.8178100586,,,
34.0312500000,4,1.4241329432,,,
34.0468750000,4,0.9663085938,,,
34.0625000000,4,0.5653687119,,,
34.0781250000,4,0.2616577148,,,
34.0937500000,4,0.0485229492,,,
34.1093750000,4,-0.1102904975,,,
34.1250000000,4,-0.2230225056,,,
34.1406250000,4,-0.2760620117,,,
34.1562500000,4,-0.2489624023,,,
34.1718750000,4,-0.1621094048,,,
34.1875000000,4,-0.0753784180,,,
34.2031250000,4,-0.0654907227,,,
34.2187500000,4,-0.1832274944,,,
34.2343750000,4,-0.4182128906,,,
34.2500000000,4,-0.6913452148,,,
34.2656250000,4,-0.9060668945,,,
34.2812500000,4,-0.9705200195,,,
34.2968750000,4,-0.8458861709,,,
34.3125000000,4,-0.5607910156,,,
34.3281250000,4,-0.1999512017,,,
34.3437500000,4,0.1386107951,,,
34.3593750000,4,0.3574829102,,,
34.3750000000,4,0.4019775093,,,
34.3906250000,4,0.2716675103,,,
34.4062500000,4,-0.0016479490,,,
34.4218750000,4,-0.3390502930,,,
34.4375000000,4,-0.6678466797,,,
34.4531250000,4,-0.9231566787,,,
34.4687500000,4,-1.0606689453,,,
34.4843750000,4,-1.0823359489,,,
34.5000000000,4,-1.0068969727,,,
34.5156250000,4,-0.8748168945,,,
34.5312500000,4,-0.7111815810,,,
34.5468750000,4,-0.5451049805,,,
34.5625000000,4,-0.2968139946,,,
34.5781250000,4,-0.2872313857,,,
34.5937500000,4,-0.3754271865,,,
34.6093750000,4,-0.5181273818,,,
34.6250000000,4,-0.6237792969,,,
34.6406250000,4,-0.5856934190,,,
34.6562500000,4,-0.3416748047,,,
34.6718750000,4,0.0732421875,,,
34.6875000000,4,0.5466309190,,,
34.7031250000,4,0.9595947266,,,
34.7187500000,4,1.2320560217,,,
34.7343750000,4,1.3679200411,,,
34.7500000000,4,1.4200439453,,,
34.7656250000,4,1.4357910156,,,
34.7812500000,4,1.4200439453,,,
34.7968750000,4,1.3395390511,,,
34.8125000000,4,1.1583859921,,,
34.8281250000,4,0.8942260742,,,
34.8437500000,4,0.6201782227,,,
34.8593750000,4,0.4381104112,,,
34.8750000000,4,0.4288940132,,,
34.8906250000,4,0.5798950195,,,
34.9062500000,4,0.8026732802,,,
34.9218750000,4,0.9476928711,,,
34.9375000000,4,0.8630371094,,,
34.9531250000,4,0.4956054986,,,
34.9687500000,4,-0.1156006008,,,
34.9843750000,4,-0.7992553711,,,
35.0000000000,4,-1.3463129997,,,
35.0156250000,4,-1.5680539608,,,
35.0312500000,4,-1.4024050236,,,
35.0468750000,4,-0.9207764268,,,
35.0625000000,4,-0.3062744141,,,
35.0781250000,4,0.2357178032,,,
35.0937500000,4,0.5764160156,,,
35.1093750000,4,0.7069702148,,,
35.1250000000,4,0.7005615234,,,
35.1406250000,4,0.6390991211,,,
35.1562500000,4,0.5545043945,,,
35.1718750000,4,0.4091796875,,,
35.1875000000,4,0.1469116062,,,
35.2031250000,4,-0.2412108928,,,
35.2187500000,4,-0.7096558213,,,
35.2343750000,4,-1.1476440430,,,
35.2500000000,4,-1.4335329533,,,
35.2656250000,4,-1.5012819767,,,
35.2812500000,4,-1.3624880314,,,
35.2968750000,4,-1.0997309685,,,
35.3125000000,4,-0.8258666992,,,
35.3281250000,4,-0.6151732802,,,
35.3437500000,4,-0.4732055962,,,
35.3593750000,4,-0.3500365913,,,
35.3750000000,4,-0.1765137017,,,
35.3906250000,4,0.0634765625,,,
35.4062500000,4,0.3308716118,,,
35.4218750000,4,0.5500488281,,,
35.4375000000,4,0.6528319716,,,
35.4531250000,4,0.6441649795,,,
35.4687500000,4,0.5828247070,,,
35.4843750000,4,0.5733032227,,,
35.5000000000,4,0.6831665039,,,
35.5156250000,4,0.9132080078,,,
35.5312500000,4,1.1762700081,,,
35.5468750000,4,1.3491820097,,,
35.5625000000,4,1.3438110352,,,
35.5781250000,4,1.1645510197,,,
35.5937500000,4,0.8826293945,,,
35.6093750000,4,0.6090087891,,,
35.6250000000,4,0.4142456055,,,
35.6406250000,4,0.3168945014,,,
35.6562500000,4,0.2860107124,,,
35.6718750000,4,0.2698363960,,,
35.6875000000,4,0.2342528999,,,
35.7031250000,4,0.1663208008,,,
35.7187500000,4,0.0494384803,,,
35.7343750000,4,-0.1305541992,,,
35.7500000000,4,-0.3772583008,,,
35.7656250000,4,-0.6707764268,,,
35.7812500000,4,-0.9485474229,,,
35.7968750000,4,-1.1337889433,,,
35.8125000000,4,-1.1706540585,,,
35.8281250000,4,-1.0598139763,,,
35.8437500000,4,-0.8767089844,,,
35.8593750000,4,-0.7078247070,,,
35.8750000000,4,-0.5942993164,,,
35.8906250000,4,-0.5174561143,,,
35.9062500000,4,-0.3975220025,,,
35.9218750000,4,-0.1891479045,,,
35.9375000000,4,0.0584716797,,,
35.9531250000,4,0.2055664063,,,
35.9687500000,4,0.0991821289,,,
35.9843750000,4,-0.3117676079,,,
36.0000000000,4,-0.9241942763,,,
36.0156250000,4,-1.5289920568,,,
36.0312500000,4,-1.9003909826,,,
36.0468750000,4,-1.9267580509,,,
36.0625000000,4,-1.6480710506,,,
36.0781250000,4,-1.2069089413,,,
36.0937500000,4,-0.7889404297,,,
36.1093750000,4,-0.5295410156,,,
36.1250000000,4,-0.4850463867,,,
36.1406250000,4,-0.6222534180,,,
36.1562500000,4,-0.8617553711,,,
36.1718750000,4,-1.1138310432,,,
36.1875000000,4,-1.2760009766,,,
36.2031250000,4,-1.2631230354,,,
36.2187500000,4,-1.0417480469,,,
36.2343750000,4,-0.6263427734,,,
36.2500000000,4,-0.0922851637,,,
36.2656250000,4,0.4660645127,,,
36.2812500000,4,0.9657592773,,,
36.2968750000,4,1.3816529512,,,
36.3125000000,4,1.7225949764,,,
36.3281250000,4,2.0086059570,,,
36.3437500000,4,2.2213129997,,,
36.3593750000,4,2.2987060547,,,
36.3750000000,4,2.1923220158,,,
36.3906250000,4,1.8931269646,,,
36.4062500000,4,1.4623409510,,,
36.4218750000,4,1.0045169592,,,
36.4375000000,4,0.6422728896,,,
36.4531250000,4,0.4444580078,,,
36.4687500000,4,0.4390869141,,,
36.4843750000,4,0.5746459961,,,
36.5000000000,4,0.7723389268,,,
36.5156250000,4,0.9390258789,,,
36.5312500000,4,1.0106810331,,,
36.5468750000,4,0.9544677734,,,
36.5625000000,4,0.7839354873,,,
36.5781250000,4,0.5439453125,,,
36.5937500000,4,0.2777099907,,,
36.6093750000,4,0.0391845703,,,
36.6250000000,4,-0.1450805962,,,
36.6406250000,4,-0.2438354045,,,
36.6562500000,4,-0.2471923977,,,
36.6718750000,4,-0.1634521037,,,
36.6875000000,4,-0.0164794903,,,
36.7031250000,4,0.1766356975,,,
36.7187500000,4,0.3923340142,,,
36.7343750000,4,0.6013184190,,,
36.7500000000,4,0.7724608779,,,
36.7656250000,4,0.8579711914,,,
36.7812500000,4,0.8041381836,,,
36.7968750000,4,0.5952147841,,,
36.8125000000,4,0.2641601861,,,
36.8281250000,4,-0.0980224609,,,
36.8437500000,4,-0.3561401069,,,
36.8593750000,4,-0.3953857124,,,
36.8750000000,4,-0.1715697944,,,
36.8906250000,4,0.2765502930,,,
36.9062500000,4,0.8336182237,,,
36.9218750000,4,1.3411250114,,,
36.9375000000,4,1.6767580509,,,
36.9531250000,4,1.7572020292,,,
36.9687500000,4,1.5744019747,,,
36.9843750000,4,1.1617430449,,,
37.0000000000,4,0.5897216797,,,
37.0156250000,4,-0.0462036096,,,
37.0312500000,4,-0.6287230849,,,
37.0468750000,4,-1.0653079748,,,
37.0625000000,4,-1.3010250330,,,
37.0781250000,4,-1.3573609591,,,
37.0937500000,4,-1.3197020292,,,
37.1093750000,4,-1.3004759550,,,
37.1250000000,4,-1.3930050135,,,
37.1406250000,4,-1.6026610136,,,
37.1562500000,4,-1.8768919706,,,
37.1718750000,4,-2.1249389648,,,
37.1875000000,4,-2.3015139103,,,
37.2031250000,4,-2.4257199764,,,
37.2187500000,4,-2.5693359375,,,
37.2343750000,4,-2.8110959530,,,
37.2500000000,4,-3.1427609921,,,
37.2656250000,4,-3.4726560116,,,
37.2812500000,4,-3.6551508904,,,
37.2968750000,4,-3.5732419491,,,
37.3125000000,4,-3.2078859806,,,
37.3281250000,4,-2.6410520077,,,
37.3437500000,4,-2.0131840706,,,
37.3593750000,4,-1.4512330294,,,
37.3750000000,4,-1.0183110237,,,
37.3906250000,4,-0.7157592773,,,
37.4062500000,4,-0.5013427734,,,
37.4218750000,4,-0.3315429986,,,
37.4375000000,4,-0.1651000977,,,
37.4531250000,4,0.0307006799,,,
37.4687500000,4,0.2933349907,,,
37.4843750000,4,0.6505126953,,,
37.5000000000,4,1.1053470373,,,
37.5156250000,4,1.6152950525,,,
37.5312500000,4,2.0928959846,,,
37.5468750000,4,2.4217529297,,,
37.5625000000,4,2.5163569450,,,
37.5781250000,4,2.3714599609,,,
37.5937500000,4,2.1007080078,,,
37.6093750000,4,1.8861689568,,,
37.6250000000,4,1.8912349939,,,
37.6406250000,4,2.1845090389,,,
37.6562500000,4,2.6705319881,,,
37.6718750000,4,3.1608889103,,,
37.6875000000,4,3.4427490234,,,
37.7031250000,4,3.3887329102,,,
37.7187500000,4,2.9953610897,,,
37.7343750000,4,2.3423459530,,,
37.7500000000,4,1.5452879667,,,
37.7656250000,4,0.7080687881,,,
37.7812500000,4,-0.0889892578,,,
37.7968750000,4,-0.7716063857,,,
37.8125000000,4,-1.2648930550,,,
37.8281250000,4,-1.5065310001,,,
37.8437500000,4,-1.4971920252,,,
37.8593750000,4,-1.2966309786,,,
37.8750000000,4,-1.0200810432,,,
37.8906250000,4,-0.7826538086,,,
37.9062500000,4,-0.6520385742,,,
37.9218750000,4,-0.6347656250,,,
37.9375000000,4,-0.6839600205,,,
37.9531250000,4,-0.7368164063,,,
37.9687500000,4,-0.7376099229,,,
37.9843750000,4,-0.6565551758,,,
38.0000000000,4,-0.4830321968,,,
38.0156250000,4,-0.2270507962,,,
38.0312500000,4,0.0742797926,,,
38.0468750000,4,0.3645020127,,,
38.0625000000,4,0.5608521104,,,
38.0781250000,4,0.5944213867,,,
38.0937500000,4,0.4321899116,,,
38.1093750000,4,0.0953369066,,,
38.1250000000,4,-0.3405762017,,,
38.1406250000,4,-0.7760009766,,,
38.1562500000,4,-1.1250610352,,,
38.1718750000,4,-1.3283690214,,,
38.1875000000,4,-1.3757319450,,,
38.2031250000,4,-1.3027950525,,,
38.2187500000,4,-1.1508790255,,,
38.2343750000,4,-0.9547119141,,,
38.2500000000,4,-0.7432250977,,,
38.2656250000,4,-0.5338134766,,,
38.2812500000,4,-0.3522338867,,,
38.2968750000,4,-0.2206421047,,,
38.3125000000,4,-0.1600951999,,,
38.3281250000,4,-0.1641235054,,,
38.3437500000,4,-0.2258300930,,,
38.3593750000,4,-0.3272705078,,,
38.3750000000,4,-0.4476318061,,,
38.3906250000,4,-0.5714110732,,,
38.4062500000,4,-0.6697998047,,,
38.4218750000,4,-0.6975708008,,,
38.4375000000,4,-0.6124268174,,,
38.4531250000,4,-0.3886108100,,,
38.4687500000,4,-0.0404663086,,,
38.4843750000,4,0.3638305962,,,
38.5000000000,4,0.7570800781,,,
38.5156250000,4,1.0741579533,,,
38.5312500000,4,1.2849119902,,,
38.5468750000,4,1.4012449980,,,
38.5625000000,4,1.4526369572,,,
38.5781250000,4,1.4747309685,,,
38.5937500000,4,1.4935909510,,,
38.6093750000,4,1.5341190100,,,
38.6250000000,4,1.5995479822,,,
38.6406250000,4,1.6840209961,,,
38.6562500000,4,1.7543950081,,,
38.6718750000,4,1.7526249886,,,
38.6875000000,4,1.6275019646,,,
38.7031250000,4,1.3393549919,,,
38.7187500000,4,0.8957520127,,,
38.7343750000,4,0.3418579102,,,
38.7500000000,4,-0.2582396865,,,
38.7656250000,4,-0.8538208008,,,
38.7812500000,4,-1.4260859489,,,
38.7968750000,4,-1.9591670036,,,
38.8125000000,4,-2.4373779297,,,
38.8281250000,4,-2.8015139103,,,
38.8437500000,4,-2.9700319767,,,
38.8593750000,4,-2.8853149414,,,
38.8750000000,4,-2.5418090820,,,
38.8906250000,4,-2.0159299374,,,
38.9062500000,4,-1.4465329647,,,
38.9218750000,4,-0.9618530273,,,
38.9375000000,4,-0.6292114258,,,
38.9531250000,4,-0.4416503906,,,
38.9687500000,4,-0.3225097954,,,
38.9843750000,4,-0.2203979045,,,
39.0000000000,4,-0.1152954027,,,
39.0156250000,4,-0.0411987305,,,
39.0312500000,4,-0.0303955097,,,
39.0468750000,4,-0.0695800781,,,
39.0625000000,4,-0.0911865234,,,
39.0781250000,4,-0.0092163086,,,
39.0937500000,4,0.2049560994,,,
39.1093750000,4,0.5073853135,,,
39.1250000000,4,0.7913817763,,,
39.1406250000,4,0.9540405273,,,
39.1562500000,4,0.9661865234,,,
39.1718750000,4,0.8803710938,,,
39.1875000000,4,0.8011475205,,,
39.2031250000,4,0.8079224229,,,
39.2187500000,4,0.9018555284,,,
39.2343750000,4,1.0054930449,,,
39.2500000000,4,1.0252079964,,,
39.2656250000,4,0.9114379883,,,
39.2812500000,4,0.7073975205,,,
39.2968750000,4,0.5265502930,,,
39.3125000000,4,0.4832763970,,,
39.3281250000,4,0.6099243164,,,
39.3437500000,4,0.8428955078,,,
39.3593750000,4,1.0508420467,,,
39.3750000000,4,1.0997920036,,,
39.3906250000,4,0.9401245117,,,
39.4062500000,4,0.6015625000,,,
39.4218750000,4,0.2048950046,,,
39.4375000000,4,-0.1069945991,,,
39.4531250000,4,-0.2188110054,,,
39.4687500000,4,-0.0934448168,,,
39.4843750000,4,0.2138061970,,,
39.5000000000,4,0.5844727159,,,
39.5156250000,4,0.8661499023,,,
39.5312500000,4,0.9463500977,,,
39.5468750000,4,0.7869873047,,,
39.5625000000,4,0.4595946968,,,
39.5781250000,4,0.0856933594,,,
39.5937500000,4,-0.2061156929,,,
39.6093750000,4,-0.3601073921,,,
39.6250000000,4,-0.3914184868,,,
39.6406250000,4,-0.3662720025,,,
39.6562500000,4,-0.3444823921,,,
39.6718750000,4,-0.3499146104,,,
39.6875000000,4,-0.3664551079,,,
39.7031250000,4,-0.3678588867,,,
39.7187500000,4,-0.3521729112,,,
39.7343750000,4,-0.3319702148,,,
39.7500000000,4,-0.3202514946,,,
39.7656250000,4,-0.3141478896,,,
39.7812500000,4,-0.3057250977,,,
39.7968750000,4,-0.3044433892,,,
39.8125000000,4,-0.3482055962,,,
39.8281250000,4,-0.4802246094,,,
39.8437500000,4,-0.7108765244,,,
39.8593750000,4,-0.9757080078,,,
39.8750000000,4,-1.1738890409,,,
39.8906250000,4,-1.2162480354,,,
39.9062500000,4,-1.1032099724,,,
39.9218750000,4,-0.9278563857,,,
39.9375000000,4,-0.8079224229,,,
39.9531250000,4,-0.8131104112,,,
39.9687500000,4,-0.9010620117,,,
39.9843750000,4,-0.9520264268,,,
40.0000000000,5,-0.8494263291,,,
40.0156250000,5,-0.5581055284,,,
40.0312500000,5,-0.1559447944,,,
40.0468750000,5,0.2097778022,,,
40.0625000000,5,0.4052734077,,,
40.0781250000,5,0.3709106147,,,
40.0937500000,5,0.1461791992,,,
40.1093750000,5,-0.1731566936,,,
40.1250000000,5,-0.4727782905,,,
40.1406250000,5,-0.6647338867,,,
40.1562500000,5,-0.7045288086,,,
40.1718750000,5,-0.5931395888,,,
40.1875000000,5,-0.3610840142,,,
40.2031250000,5,-0.0678100586,,,
40.2187500000,5,0.2147826999,,,
40.2343750000,5,0.4189453125,,,
40.2500000000,5,0.5059813857,,,
40.2656250000,5,0.4837036133,,,
40.2812500000,5,0.3973388970,,,
40.2968750000,5,0.3247070014,,,
40.3125000000,5,0.3307495117,,,
40.3281250000,5,0.4522705078,,,
40.3437500000,5,0.6644896865,,,
40.3593750000,5,0.9212036133,,,
40.3750000000,5,1.1545410156,,,
40.3906250000,5,1.3052979708,,,
40.4062500000,5,1.3557130098,,,
40.4218750000,5,1.2987060547,,,
40.4375000000,5,1.1607060432,,,
40.4531250000,5,0.9533081055,,,
40.4687500000,5,0.6806030273,,,
40.4843750000,5,0.3425292969,,,
40.5000000000,5,-0.0413818397,,,
40.5156250000,5,-0.4082030952,,,
40.5312500000,5,-0.6904296875,,,
40.5468750000,5,-0.8278809190,,,
40.5625000000,5,-0.8264771104,,,
40.5781250000,5,-0.7469481826,,,
40.5937500000,5,-0.6671752930,,,
40.6093750000,5,-0.6159058213,,,
40.6250000000,5,-0.5554810166,,,
40.6406250000,5,-0.4008789063,,,
40.6562500000,5,-0.1045532003,,,
40.6718750000,5,0.2933349907,,,
40.6875000000,5,0.6408690810,,,
40.7031250000,5,0.7517089844,,,
40.7187500000,5,0.5278931260,,,
40.7343750000,5,0.0125732403,,,
40.7500000000,5,-0.5963134766,,,
40.7656250000,5,-1.0479739904,,,
40.7812500000,5,-1.1591800451,,,
40.7968750000,5,-0.9080811143,,,
40.8125000000,5,-0.4415893853,,,
40.8281250000,5,0.0132446298,,,
40.8437500000,5,0.2440796047,,,
40.8593750000,5,0.1806029975,,,
40.8750000000,5,-0.1123047024,,,
40.8906250000,5,-0.4571532905,,,
40.9062500000,5,-0.6693726182,,,
40.9218750000,5,-0.6401978135,,,
40.9375000000,5,-0.3873291016,,,
40.9531250000,5,-0.0455322303,,,
40.9687500000,5,0.2019042969,,,
40.9843750000,5,0.1996459961,,,
41.0000000000,5,-0.0748901367,,,
41.0156250000,5,-0.5117188096,,,
41.0312500000,5,-0.9205933213,,,
41.0468750000,5,-1.1195679903,,,
41.0625000000,5,-1.0324100256,,,
41.0781250000,5,-0.7155150771,,,
41.0937500000,5,-0.3106688857,,,
41.1093750000,5,0.0610351600,,,
41.1250000000,5,0.3358764946,,,
41.1406250000,5,0.5395507813,,,
41.1562500000,5,0.7043457031,,,
41.1718750000,5,0.8562622070,,,
41.1875000000,5,0.9583129883,,,
41.2031250000,5,0.9521483779,,,
41.2187500000,5,0.7979125977,,,
41.2343750000,5,0.5362548828,,,
41.2500000000,5,0.2786254883,,,
41.2656250000,5,0.1428833008,,,
41.2812500000,5,0.1941528022,,,
41.2968750000,5,0.4104003906,,,
41.3125000000,5,0.6810302734,,,
41.3281250000,5,0.8875731826,,,
41.3437500000,5,0.9611206055,,,
41.3593750000,5,0.9132689834,,,
41.3750000000,5,0.8295897841,,,
41.3906250000,5,0.8118895888,,,
41.4062500000,5,0.9057006836,,,
41.4218750000,5,1.0807499886,,,
41.4375000000,5,1.2405400276,,,
41.4531250000,5,1.2749019861,,,
41.4687500000,5,1.1234129667,,,
41.4843750000,5,0.8133544922,,,
41.5000000000,5,0.4291991889,,,
41.5156250000,5,0.0856323168,,,
41.5312500000,5,-0.1680908054,,,
41.5468750000,5,-0.3487549126,,,
41.5625000000,5,-0.5191040039,,,
41.5781250000,5,-0.7420654297,,,
41.5937500000,5,-1.0244139433,,,
41.6093750000,5,-1.2987669706,,,
41.6250000000,5,-1.4558110237,,,
41.6406250000,5,-1.4182740450,,,
41.6562500000,5,-1.2031250000,,,
41.6718750000,5,-0.9162598252,,,
41.6875000000,5,-0.7059937119,,,
41.7031250000,5,-0.6572875977,,,
41.7187500000,5,-0.7730103135,,,
41.7343750000,5,-0.9398192763,,,
41.7500000000,5,-1.0117800236,,,
41.7656250000,5,-0.8875731826,,,
41.7812500000,5,-0.5598754883,,,
41.7968750000,5,-0.1082763970,,,
41.8125000000,5,0.3233031929,,,
41.8281250000,5,0.6091918945,,,
41.8437500000,5,0.6813353896,,,
41.8593750000,5,0.5183715820,,,
41.8750000000,5,0.1651611030,,,
41.8906250000,5,-0.3131713867,,,
41.9062500000,5,-0.8263549805,,,
41.9218750000,5,-1.2797850370,,,
41.9375000000,5,-1.5655519962,,,
41.9531250000,5,-1.6065670252,,,
41.9687500000,5,-1.3886719942,,,
41.9843750000,5,-0.9715576172,,,
42.0000000000,5,-0.5016478896,,,
42.0156250000,5,-0.1429443061,,,
42.0312500000,5,-0.0278930701,,,
42.0468750000,5,-0.2019653022,,,
42.0625000000,5,-0.5774536133,,,
42.0781250000,5,-0.9796143174,,,
42.0937500000,5,-1.2214360237,,,
42.1093750000,5,-1.1837160587,,,
42.1250000000,5,-0.8623046875,,,
42.1406250000,5,-0.3806152046,,,
42.1562500000,5,0.0960083008,,,
42.1718750000,5,0.4428100884,,,
42.1875000000,5,0.6220092773,,,
42.2031250000,5,0.6864014268,,,
42.2187500000,5,0.7138062119,,,
42.2343750000,5,0.7624511719,,,
42.2500000000,5,0.8252562881,,,
42.2656250000,5,0.8519896865,,,
42.2812500000,5,0.7954711914,,,
42.2968750000,5,0.6452636719,,,
42.3125000000,5,0.4429931939,,,
42.3281250000,5,0.2359008938,,,
42.3437500000,5,0.0709838867,,,
42.3593750000,5,-0.0529174805,,,
42.3750000000,5,-0.1563110054,,,
42.3906250000,5,-0.2715454102,,,
42.4062500000,5,-0.4034424126,,,
42.4218750000,5,-0.5423583984,,,
42.4375000000,5,-0.6634520888,,,
42.4531250000,5,-0.7539672852,,,
42.4687500000,5,-0.8070067763,,,
42.4843750000,5,-0.8012084961,,,
42.5000000000,5,-0.6910399795,,,
42.5156250000,5,-0.4240112007,,,
42.5312500000,5,0.0294799805,,,
42.5468750000,5,0.6298828125,,,
42.5625000000,5,1.2732540369,,,
42.5781250000,5,1.8186650276,,,
42.5937500000,5,2.1576540470,,,
42.6093750000,5,2.2548830509,,,
42.6250000000,5,2.1389160156,,,
42.6406250000,5,1.8663330078,,,
42.6562500000,5,1.4862060547,,,
42.6718750000,5,1.0192259550,,,
42.6875000000,5,0.4895629883,,,
42.7031250000,5,-0.0433349609,,,
42.7187500000,5,-0.4870604873,,,
42.7343750000,5,-0.7403563857,,,
42.7500000000,5,-0.7557982802,,,
42.7656250000,5,-0.5832520127,,,
42.7812500000,5,-0.3402099907,,,
42.7968750000,5,-0.1635131985,,,
42.8125000000,5,-0.1358643025,,,
42.8281250000,5,-0.2546387017,,,
42.8437500000,5,-0.4487915039,,,
42.8593750000,5,-0.6439208984,,,
42.8750000000,5,-0.7972412109,,,
42.8906250000,5,-0.9188231826,,,
42.9062500000,5,-1.0200810432,,,
42.9218750000,5,-1.0983890295,,,
42.9375000000,5,-1.0949709415,,,
42.9531250000,5,-0.9409790039,,,
42.9687500000,5,-0.5934448242,,,
42.9843750000,5,-0.0660400391,,,
43.0000000000,5,0.5440062881,,,
43.0156250000,5,1.1279300451,,,
43.0312500000,5,1.5814210176,,,
43.0468750000,5,1.8745729923,,,
43.0625000000,5,2.0436398983,,,
43.0781250000,5,2.1417849064,,,
43.0937500000,5,2.1986689568,,,
43.1093750000,5,2.1999509335,,,
43.1250000000,5,2.0866088867,,,
43.1406250000,5,1.8148800135,,,
43.1562500000,5,1.3917239904,,,
43.1718750000,5,0.8878173828,,,
43.1875000000,5,0.4020386040,,,
43.2031250000,5,0.0354003906,,,
43.2187500000,5,-0.1651611030,,,
43.2343750000,5,-0.2174683064,,,
43.2500000000,5,-0.2061156929,,,
43.2656250000,5,-0.2434082031,,,
43.2812500000,5,-0.4356688857,,,
43.2968750000,5,-0.8068236709,,,
43.3125000000,5,-1.2863769531,,,
43.3281250000,5,-1.7069699764,,,
43.3437500000,5,-1.8912960291,,,
43.3593750000,5,-1.7386469841,,,
43.3750000000,5,-1.2880860567,,,
43.3906250000,5,-0.7379760742,,,
43.4062500000,5,-0.3136596978,,,
43.4218750000,5,-0.1732178032,,,
43.4375000000,5,-0.3129883111,,,
43.4531250000,5,-0.5725098252,,,
43.4687500000,5,-0.7448120117,,,
43.4843750000,5,-0.6905518174,,,
43.5000000000,5,-0.4246216118,,,
43.5156250000,5,-0.0576171912,,,
43.5312500000,5,0.2784424126,,,
43.5468750000,5,0.5439453125,,,
43.5625000000,5,0.7934569716,,,
43.5781250000,5,1.1078490019,,,
43.5937500000,5,1.4954830408,,,
43.6093750000,5,1.8450930119,,,
43.6250000000,5,1.9769289494,,,
43.6406250000,5,1.7582399845,,,
43.6562500000,5,1.2027590275,,,
43.6718750000,5,0.4812622070,,,
43.6875000000,5,-0.1599730998,,,
43.7031250000,5,-0.5458374023,,,
43.7187500000,5,-0.6447144151,,,
43.7343750000,5,-0.5681151748,,,
43.7500000000,5,-0.5082396865,,,
43.7656250000,5,-0.6035767198,,,
43.7812500000,5,-0.8912963867,,,
43.7968750000,5,-1.2825930119,,,
43.8125000000,5,-1.6376340389,,,
43.8281250000,5,-1.8344119787,,,
43.8437500000,5,-1.8231810331,,,
43.8593750000,5,-1.6466059685,,,
43.8750000000,5,-1.3797609806,,,
43.8906250000,5,-1.0874630213,,,
43.9062500000,5,-0.7799072266,,,
43.9218750000,5,-0.4254761040,,,
43.9375000000,5,0.0115356399,,,
43.9531250000,5,0.5203856826,,,
43.9687500000,5,1.0224610567,,,
43.9843750000,5,1.3947139978,,,
44.0000000000,5,1.5325930119,,,
44.0156250000,5,1.3906860352,,,
44.0312500000,5,1.0020140409,,,
44.0468750000,5,0.4711914063,,,
44.0625000000,5,-0.0948486328,,,
44.0781250000,5,-0.6008300781,,,
44.0937500000,5,-0.9669799805,,,
44.1093750000,5,-1.1270140409,,,
44.1250000000,5,-1.0310059786,,,
44.1406250000,5,-0.6815795898,,,
44.1562500000,5,-0.1666869968,,,
44.1718750000,5,0.3539429009,,,
44.1875000000,5,0.7212523818,,,
44.2031250000,5,0.8502197266,,,
44.2187500000,5,0.7725830078,,,
44.2343750000,5,0.6092529297,,,
44.2500000000,5,0.4896850884,,,
44.2656250000,5,0.4896850884,,,
44.2812500000,5,0.5855103135,,,
44.2968750000,5,0.6661986709,,,
44.3125000000,5,0.6055908203,,,
44.3281250000,5,0.3135375977,,,
44.3437500000,5,-0.1798096001,,,
44.3593750000,5,-0.7658081055,,,
44.3750000000,5,-1.2630620003,,,
44.3906250000,5,-1.5083620548,,,
44.4062500000,5,-1.4241939783,,,
44.4218750000,5,-1.0776369572,,,
44.4375000000,5,-0.6215209961,,,
44.4531250000,5,-0.2462769002,,,
44.4687500000,5,-0.0671997070,,,
44.4843750000,5,-0.0863647535,,,
44.5000000000,5,-0.2010498047,,,
44.5156250000,5,-0.2760010064,,,
44.5312500000,5,-0.2336425930,,,
44.5468750000,5,-0.0862426832,,,
44.5625000000,5,0.0883178711,,,
44.5781250000,5,0.2272339016,,,
44.5937500000,5,0.3129883111,,,
44.6093750000,5,0.3804931939,,,
44.6250000000,5,0.4753417969,,,
44.6406250000,5,0.6090698242,,,
44.6562500000,5,0.7509155273,,,
44.6718750000,5,0.8588867188,,,
44.6875000000,5,0.9095458984,,,
44.7031250000,5,0.8950194716,,,
44.7187500000,5,0.8182373047,,,
44.7343750000,5,0.6671143174,,,
44.7500000000,5,0.4056395888,,,
44.7656250000,5,0.0333251990,,,
44.7812500000,5,-0.4186401069,,,
44.7968750000,5,-0.8593140244,,,
44.8125000000,5,-1.1622309685,,,
44.8281250000,5,-1.2532349825,,,
44.8437500000,5,-1.1343990564,,,
44.8593750000,5,-0.9138793945,,,
44.8750000000,5,-0.7498168945,,,
44.8906250000,5,-0.7664185166,,,
44.9062500000,5,-0.9581298828,,,
44.9218750000,5,-1.2058720589,,,
44.9375000000,5,-1.3197629452,,,
44.9531250000,5,-1.1583249569,,,
44.9687500000,5,-0.7052611709,,,
44.9843750000,5,-0.0780029297,,,
45.0000000000,5,0.5307617188,,,
45.0156250000,5,0.9500731826,,,
45.0312500000,5,1.1110839844,,,
45.0468750000,5,1.0528559685,,,
45.0625000000,5,0.8726807237,,,
45.0781250000,5,0.6560668945,,,
45.0937500000,5,0.4204711914,,,
45.1093750000,5,0.1375731975,,,
45.1250000000,5,-0.2163085938,,,
45.1406250000,5,-0.5955811143,,,
45.1562500000,5,-0.8963013291,,,
45.1718750000,5,-1.0106810331,,,
45.1875000000,5,-0.8992919922,,,
45.2031250000,5,-0.6277465820,,,
45.2187500000,5,-0.3339844048,,,
45.2343750000,5,-0.1565552056,,,
45.2500000000,5,-0.1696166992,,,
45.2656250000,5,-0.3239136040,,,
45.2812500000,5,-0.5083618164,,,
45.2968750000,5,-0.6145020127,,,
45.3125000000,5,-0.5952147841,,,
45.3281250000,5,-0.4963988960,,,
45.3437500000,5,-0.4035033882,,,
45.3593750000,5,-0.3916625977,,,
45.3750000000,5,-0.4612427056,,,
45.3906250000,5,-0.5494995117,,,
45.4062500000,5,-0.5666503906,,,
45.4218750000,5,-0.4341430962,,,
45.4375000000,5,-0.1290283054,,,
45.4531250000,5,0.3099975884,,,
45.4687500000,5,0.7944946289,,,
45.4843750000,5,1.2135009766,,,
45.5000000000,5,1.4726560116,,,
45.5156250000,5,1.5253299475,,,
45.5312500000,5,1.3836059570,,,
45.5468750000,5,1.1127320528,,,
45.5625000000,5,0.8055419922,,,
45.5781250000,5,0.5451049805,,,
45.5937500000,5,0.3698729873,,,
45.6093750000,5,0.2818604112,,,
45.6250000000,5,0.2536621094,,,
45.6406250000,5,0.2544555962,,,
45.6562500000,5,0.2828978896,,,
45.6718750000,5,0.3521729112,,,
45.6875000000,5,0.4786376953,,,
45.7031250000,5,0.6317749023,,,
45.7187500000,5,0.7347412109,,,
45.7343750000,5,0.7081909180,,,
45.7500000000,5,0.5203247070,,,
45.7656250000,5,0.2235718071,,,
45.7812500000,5,-0.0581665002,,,
45.7968750000,5,-0.1988524944,,,
45.8125000000,5,-0.1338500977,,,
45.8281250000,5,0.0932006836,,,
45.8437500000,5,0.3607178032,,,
45.8593750000,5,0.5357666016,,,
45.8750000000,5,0.5474854112,,,
45.8906250000,5,0.4124755859,,,
45.9062500000,5,0.2101439983,,,
45.9218750000,5,0.0245361291,,,
45.9375000000,5,-0.0960083008,,,
45.9531250000,5,-0.1546631008,,,
45.9687500000,5,-0.1697387993,,,
45.9843750000,5,-0.1559447944,,,
46.0000000000,5,-0.1204224005,,,
46.0156250000,5,-0.0836181566,,,
46.0312500000,5,-0.0764770508,,,
46.0468750000,5,-0.1275023967,,,
46.0625000000,5,-0.2075805962,,,
46.0781250000,5,-0.2384644002,,,
46.0937500000,5,-0.1213989034,,,
46.1093750000,5,0.1957397014,,,
46.1250000000,5,0.6806030273,,,
46.1406250000,5,1.1951290369,,,
46.1562500000,5,1.5715329647,,,
46.1718750000,5,1.6821290255,,,
46.1875000000,5,1.5028079748,,,
46.2031250000,5,1.1265259981,,,
46.2187500000,5,0.7135620117,,,
46.2343750000,5,0.4357300103,,,
46.2500000000,5,0.3931885064,,,
46.2656250000,5,0.5893555284,,,
46.2812500000,5,0.9205322266,,,
46.2968750000,5,1.2144169807,,,
46.3125000000,5,1.2987669706,,,
46.3281250000,5,1.0759890079,,,
46.3437500000,5,0.5583496094,,,
46.3593750000,5,-0.1286011040,,,
46.3750000000,5,-0.8015136719,,,
46.3906250000,5,-1.3139040470,,,
46.4062500000,5,-1.6082760096,,,
46.4218750000,5,-1.7283940315,,,
46.4375000000,5,-1.7692259550,,,
46.4531250000,5,-1.8223880529,,,
46.4687500000,5,-1.9255369902,,,
46.4843750000,5,-2.0598750114,,,
46.5000000000,5,-2.1693730354,,,
46.5156250000,5,-2.2055048943,,,
46.5312500000,5,-2.1495969296,,,
46.5468750000,5,-2.0339360237,,,
46.5625000000,5,-1.8959350586,,,
46.5781250000,5,-1.7702640295,,,
46.5937500000,5,-1.6610109806,,,
46.6093750000,5,-1.5356450081,,,
46.6250000000,5,-1.3330689669,,,
46.6406250000,5,-1.0247189999,,,
46.6562500000,5,-0.6317749023,,,
46.6718750000,5,-0.2322998047,,,
46.6875000000,5,0.0574340783,,,
46.7031250000,5,0.1611938030,,,
46.7187500000,5,0.0661010668,,,
46.7343750000,5,-0.1410522014,,,
46.7500000000,5,-0.3325195014,,,
46.7656250000,5,-0.3783569038,,,
46.7812500000,5,-0.2307129055,,,
46.7968750000,5,0.0822753906,,,
46.8125000000,5,0.4617309868,,,
46.8281250000,5,0.8062133789,,,
46.8437500000,5,1.0488280058,,,
46.8593750000,5,1.1782840490,,,
46.8750000000,5,1.2305910587,,,
46.8906250000,5,1.2407230139,,,
46.9062500000,5,1.2257690430,,,
46.9218750000,5,1.1652829647,,,
46.9375000000,5,1.0180050135,,,
46.9531250000,5,0.7604370117,,,
46.9687500000,5,0.4161376953,,,
46.9843750000,5,0.0642700195,,,
47.0000000000,5,-0.1876221001,,,
47.0156250000,5,-0.2526245117,,,
47.0312500000,5,-0.1118163988,,,
47.0468750000,5,0.1813354045,,,
47.0625000000,5,0.5288085938,,,
47.0781250000,5,0.8334351182,,,
47.0937500000,5,1.0612180233,,,
47.1093750000,5,1.2197270393,,,
47.1250000000,5,1.3301999569,,,
47.1406250000,5,1.3861080408,,,
47.1562500000,5,1.3353270292,,,
47.1718750000,5,1.1262819767,,,
47.1875000000,5,0.7396240234,,,
47.2031250000,5,0.2230225056,,,
47.2187500000,5,-0.3251953125,,,
47.2343750000,5,-0.8110961914,,,
47.2500000000,5,-1.1910400391,,,
47.2656250000,5,-1.4570920467,,,
47.2812500000,5,-1.6276860237,,,
47.2968750000,5,-1.6829830408,,,
47.3125000000,5,-1.5833129883,,,
47.3281250000,5,-1.2992550135,,,
47.3437500000,5,-0.8692626953,,,
47.3593750000,5,-0.3973388970,,,
47.3750000000,5,-0.0126342801,,,
47.3906250000,5,0.1969604045,,,
47.4062500000,5,0.2482299954,,,
47.4218750000,5,0.2418822944,,,
47.4375000000,5,0.3034057915,,,
47.4531250000,5,0.5206298828,,,
47.4687500000,5,0.8832396865,,,
47.4843750000,5,1.3120729923,,,
47.5000000000,5,1.7036739588,,,
47.5156250000,5,1.9882199764,,,
47.5312500000,5,2.1196899414,,,
47.5468750000,5,2.0729370117,,,
47.5625000000,5,1.8328249454,,,
47.5781250000,5,1.3838499784,,,
47.5937500000,5,0.7632446289,,,
47.6093750000,5,0.0643310472,,,
47.6250000000,5,-0.5701904297,,,
47.6406250000,5,-0.9996948242,,,
47.6562500000,5,-1.1582030058,,,
47.6718750000,5,-1.0942989588,,,
47.6875000000,5,-0.9191895127,,,
47.7031250000,5,-0.7535399795,,,
47.7187500000,5,-0.6731566787,,,
47.7343750000,5,-0.6779174805,,,
47.7500000000,5,-0.7383422852,,,
47.7656250000,5,-0.8332520127,,,
47.7812500000,5,-0.9763184190,,,
47.7968750000,5,-1.1764529943,,,
47.8125000000,5,-1.3925169706,,,
47.8281250000,5,-1.5225219727,,,
47.8437500000,5,-1.4353640079,,,
47.8593750000,5,-1.0502929688,,,
47.8750000000,5,-0.4077759087,,,
47.8906250000,5,0.3214721978,,,
47.9062500000,5,0.9205322266,,,
47.9218750000,5,1.2200930119,,,
47.9375000000,5,1.1807860136,,,
47.9531250000,5,0.8940430284,,,
47.9687500000,5,0.5020751953,,,
47.9843750000,5,0.1582030952,,,
48.0000000000,6,-0.0565795898,,,
48.0156250000,6,-0.1325072944,,,
48.0312500000,6,-0.1115112007,,,
48.0468750000,6,-0.0646972731,,,
48.0625000000,6,-0.0667724609,,,
48.0781250000,6,-0.1745605022,,,
48.0937500000,6,-0.3925170898,,,
48.1093750000,6,-0.6706542969,,,
48.1250000000,6,-0.9141845703,,,
48.1406250000,6,-1.0383909941,,,
48.1562500000,6,-1.0009160042,,,
48.1718750000,6,-0.8413085938,,,
48.1875000000,6,-0.6230468750,,,
48.2031250000,6,-0.3919067085,,,
48.2187500000,6,-0.1428833008,,,
48.2343750000,6,0.1555175930,,,
48.2500000000,6,0.5122681260,,,
48.2656250000,6,0.8684691787,,,
48.2812500000,6,1.0953979492,,,
48.2968750000,6,1.1021120548,,,
48.3125000000,6,0.8817749023,,,
48.3281250000,6,0.5413208008,,,
48.3437500000,6,0.2300415039,,,
48.3593750000,6,0.0580444299,,,
48.3750000000,6,0.0531005897,,,
48.3906250000,6,0.1635742038,,,
48.4062500000,6,0.3212279975,,,
48.4218750000,6,0.5004271865,,,
48.4375000000,6,0.7070313096,,,
48.4531250000,6,0.9458007813,,,
48.4687500000,6,1.1646120548,,,
48.4843750000,6,1.2835689783,,,
48.5000000000,6,1.2360839844,,,
48.5156250000,6,1.0207519531,,,
48.5312500000,6,0.6889647841,,,
48.5468750000,6,0.3092651069,,,
48.5625000000,6,-0.0905151367,,,
48.5781250000,6,-0.5086669922,,,
48.5937500000,6,-0.9403076172,,,
48.6093750000,6,-1.3242800236,,,
48.6250000000,6,-1.5358890295,,,
48.6406250000,6,-1.4707640409,,,
48.6562500000,6,-1.1233520508,,,
48.6718750000,6,-0.6405029297,,,
48.6875000000,6,-0.2326049954,,,
48.7031250000,6,-0.0757446289,,,
48.7187500000,6,-0.1998291016,,,
48.7343750000,6,-0.4896239936,,,
48.7500000000,6,-0.7632446289,,,
48.7656250000,6,-0.8937377930,,,
48.7812500000,6,-0.8780518174,,,
48.7968750000,6,-0.8071898818,,,
48.8125000000,6,-0.7877197266,,,
48.8281250000,6,-0.8458251953,,,
48.8437500000,6,-0.9224243164,,,
48.8593750000,6,-0.9176024795,,,
48.8750000000,6,-0.7655029297,,,
48.8906250000,6,-0.4731445014,,,
48.9062500000,6,-0.1323852986,,,
48.9218750000,6,0.1579589993,,,
48.9375000000,6,0.3211669922,,,
48.9531250000,6,0.3380126953,,,
48.9687500000,6,0.2161864936,,,
48.9843750000,6,-0.0263061505,,,
49.0000000000,6,-0.3696899116,,,
49.0156250000,6,-0.7922363281,,,
49.0312500000,6,-1.2430419922,,,
49.0468750000,6,-1.6388549805,,,
49.0625000000,6,-1.8785400391,,,
49.0781250000,6,-1.8801269531,,,
49.0937500000,6,-1.6085209846,,,
49.1093750000,6,-1.1152950525,,,
49.1250000000,6,-0.4943237007,,,
49.1406250000,6,0.1403809041,,,
49.1562500000,6,0.6898803711,,,
49.1718750000,6,1.1011960506,,,
49.1875000000,6,1.3574219942,,,
49.2031250000,6,1.4697270393,,,
49.2187500000,6,1.4520260096,,,
49.2343750000,6,1.3397220373,,,
49.2500000000,6,1.1964110136,,,
49.2656250000,6,1.0995479822,,,
49.2812500000,6,1.1293330193,,,
49.2968750000,6,1.2987669706,,,
49.3125000000,6,1.5443120003,,,
49.3281250000,6,1.7335209846,,,
49.3437500000,6,1.7549439669,,,
49.3593750000,6,1.5769040585,,,
49.3750000000,6,1.2703859806,,,
49.3906250000,6,0.9816284180,,,
49.4062500000,6,0.8278809190,,,
49.4218750000,6,0.8431395888,,,
49.4375000000,6,0.9531250000,,,
49.4531250000,6,1.0472409725,,,
49.4687500000,6,1.0306400061,,,
49.4843750000,6,0.8620604873,,,
49.5000000000,6,0.5549315810,,,
49.5156250000,6,0.1615601033,,,
49.5312500000,6,-0.2534179986,,,
49.5468750000,6,-0.6218872070,,,
49.5625000000,6,-0.8700562119,,,
49.5781250000,6,-0.9545897841,,,
49.5937500000,6,-0.8807373047,,,
49.6093750000,6,-0.7277222276,,,
49.6250000000,6,-0.6199340820,,,
49.6406250000,6,-0.6577147841,,,
49.6562500000,6,-0.8605957031,,,
49.6718750000,6,-1.1366579533,,,
49.6875000000,6,-1.3452759981,,,
49.7031250000,6,-1.3701169491,,,
49.7187500000,6,-1.1937869787,,,
49.7343750000,6,-0.9084473252,,,
49.7500000000,6,-0.6424561143,,,
49.7656250000,6,-0.4920043945,,,
49.7812500000,6,-0.4629516900,,,
49.7968750000,6,-0.4845581055,,,
49.8125000000,6,-0.4727782905,,,
49.8281250000,6,-0.3900145888,,,
49.8437500000,6,-0.2626343071,,,
49.8593750000,6,-0.1485596001,,,
49.8750000000,6,-0.0917968825,,,
49.8906250000,6,-0.0858764574,,,
49.9062500000,6,-0.0723877028,,,
49.9218750000,6,0.0180664100,,,
49.9375000000,6,0.2003173977,,,
49.9531250000,6,0.4164429009,,,
49.9687500000,6,0.5770264268,,,
49.9843750000,6,0.5998535156,,,
50.0000000000,6,0.4472045898,,,
50.0156250000,6,0.1621703953,,,
50.0312500000,6,-0.1636963040,,,
50.0468750000,6,-0.4289551079,,,
50.0625000000,6,-0.5661621094,,,
50.0781250000,6,-0.5563353896,,,
50.0937500000,6,-0.4334106147,,,
50.1093750000,6,-0.2445068061,,,
50.1250000000,6,-0.0319213904,,,
50.1406250000,6,0.1854248047,,,
50.1562500000,6,0.3997192085,,,
50.1718750000,6,0.5876464844,,,
50.1875000000,6,0.7184448242,,,
50.2031250000,6,0.7705687881,,,
50.2187500000,6,0.7585449219,,,
50.2343750000,6,0.7171021104,,,
50.2500000000,6,0.7037963867,,,
50.2656250000,6,0.7318726182,,,
50.2812500000,6,0.7546997070,,,
50.2968750000,6,0.6826782227,,,
50.3125000000,6,0.4422607124,,,
50.3281250000,6,0.0545654297,,,
50.3437500000,6,-0.3627929986,,,
50.3593750000,6,-0.6416016221,,,
50.3750000000,6,-0.6533203125,,,
50.3906250000,6,-0.3956908882,,,
50.4062500000,6,-0.0031127930,,,
50.4218750000,6,0.3262938857,,,
50.4375000000,6,0.4412231147,,,
50.4531250000,6,0.3057861030,,,
50.4687500000,6,0.0351562500,,,
50.4843750000,6,-0.1908569038,,,
50.5000000000,6,-0.2387084961,,,
50.5156250000,6,-0.0705566406,,,
50.5312500000,6,0.2158202976,,,
50.5468750000,6,0.4645386040,,,
50.5625000000,6,0.5491942763,,,
50.5781250000,6,0.4265137017,,,
50.5937500000,6,0.1545410007,,,
50.6093750000,6,-0.1582642049,,,
50.6250000000,6,-0.4268799126,,,
50.6406250000,6,-0.6213989258,,,
50.6562500000,6,-0.7506713867,,,
50.6718750000,6,-0.8353270888,,,
50.6875000000,6,-0.8800048828,,,
50.7031250000,6,-0.8598021865,,,
50.7187500000,6,-0.7440795898,,,
50.7343750000,6,-0.5452271104,,,
50.7500000000,6,-0.3235473931,,,
50.7656250000,6,-0.1710204929,,,
50.7812500000,6,-0.1472167969,,,
50.7968750000,6,-0.2623901069,,,
50.8125000000,6,-0.4785155952,,,
50.8281250000,6,-0.7277832031,,,
50.8437500000,6,-0.9539794922,,,
50.8593750000,6,-1.1083979607,,,
50.8750000000,6,-1.1633299589,,,
50.8906250000,6,-1.0899660587,,,
50.9062500000,6,-0.8824462891,,,
50.9218750000,6,-0.5680541992,,,
50.9375000000,6,-0.2230225056,,,
50.9531250000,6,0.0488281287,,,
50.9687500000,6,0.1802368015,,,
50.9843750000,6,0.1816405952,,,
51.0000000000,6,0.1353148967,,,
51.0156250000,6,0.1563110054,,,
51.0312500000,6,0.3187255859,,,
51.0468750000,6,0.5944824219,,,
51.0625000000,6,0.8605957031,,,
51.0781250000,6,0.9639282227,,,
51.0937500000,6,0.8245850205,,,
51.1093750000,6,0.4924316108,,,
51.1250000000,6,0.1072997972,,,
51.1406250000,6,-0.1774291992,,,
51.1562500000,6,-0.2843017876,,,
51.1718750000,6,-0.2399902046,,,
51.1875000000,6,-0.1411132962,,,
51.2031250000,6,-0.0668335035,,,
51.2187500000,6,-0.0195922907,,,
51.2343750000,6,0.0618286096,,,
51.2500000000,6,0.2243041992,,,
51.2656250000,6,0.4382934868,,,
51.2812500000,6,0.5926514268,,,
51.2968750000,6,0.5646361709,,,
51.3125000000,6,0.3020020127,,,
51.3281250000,6,-0.1088866964,,,
51.3437500000,6,-0.4880371094,,,
51.3593750000,6,-0.6471558213,,,
51.3750000000,6,-0.4935913086,,,
51.3906250000,6,-0.0720214769,,,
51.4062500000,6,0.4694213867,,,
51.4218750000,6,0.9661254883,,,
51.4375000000,6,1.2984009981,,,
51.4531250000,6,1.4463499784,,,
51.4687500000,6,1.4629520178,,,
51.4843750000,6,1.4465939999,,,
51.5000000000,6,1.4735109806,,,
51.5156250000,6,1.5689699650,,,
51.5312500000,6,1.6947020292,,,
51.5468750000,6,1.7756350040,,,
51.5625000000,6,1.7160029411,,,
51.5781250000,6,1.4566650391,,,
51.5937500000,6,1.0170290470,,,
51.6093750000,6,0.5026245117,,,
51.6250000000,6,0.0548706092,,,
51.6406250000,6,-0.2117920071,,,
51.6562500000,6,-0.2661742866,,,
51.6718750000,6,-0.1773070991,,,
51.6875000000,6,-0.0595092811,,,
51.7031250000,6,-0.0380248986,,,
51.7187500000,6,-0.1891479045,,,
51.7343750000,6,-0.5233154297,,,
51.7500000000,6,-0.9963989258,,,
51.7656250000,6,-1.4998170137,,,
51.7812500000,6,-1.8913569450,,,
51.7968750000,6,-2.0282590389,,,
51.8125000000,6,-1.8461910486,,,
51.8281250000,6,-1.3825069666,,,
51.8437500000,6,-0.7932739258,,,
51.8593750000,6,-0.3048096001,,,
51.8750000000,6,-0.1077881008,,,
51.8906250000,6,-0.2640380859,,,
51.9062500000,6,-0.6666870117,,,
51.9218750000,6,-1.0968630314,,,
51.9375000000,6,-1.3384399414,,,
51.9531250000,6,-1.2948000431,,,
51.9687500000,6,-1.0407099724,,,
51.9843750000,6,-0.7440795898,,,
52.0000000000,6,-0.5604857802,,,
52.0156250000,6,-0.5252075195,,,
52.0312500000,6,-0.5447388291,,,
52.0468750000,6,-0.4744262993,,,
52.0625000000,6,-0.2465209961,,,
52.0781250000,6,0.0664672926,,,
52.0937500000,6,0.2741088867,,,
52.1093750000,6,0.2059936970,,,
52.1250000000,6,-0.1700439006,,,
52.1406250000,6,-0.6763306260,,,
52.1562500000,6,-1.0161130428,,,
52.1718750000,6,-0.9416503906,,,
52.1875000000,6,-0.4075317085,,,
52.2031250000,6,0.4013671875,,,
52.2187500000,6,1.1594849825,,,
52.2343750000,6,1.5996700525,,,
52.2500000000,6,1.6455689669,,,
52.2656250000,6,1.4294430017,,,
52.2812500000,6,1.1929320097,,,
52.2968750000,6,1.1021120548,,,
52.3125000000,6,1.1500240564,,,
52.3281250000,6,1.1835939884,,,
52.3437500000,6,1.0175780058,,,
52.3593750000,6,0.5880126953,,,
52.3750000000,6,-0.0096435547,,,
52.3906250000,6,-0.5736693740,,,
52.4062500000,6,-0.9249268174,,,
52.4218750000,6,-1.0034790039,,,
52.4375000000,6,-0.8832396865,,,
52.4531250000,6,-0.6925659180,,,
52.4687500000,6,-0.5177611709,,,
52.4843750000,6,-0.3505859077,,,
52.5000000000,6,-0.1040038988,,,
52.5156250000,6,0.2728270888,,,
52.5312500000,6,0.7514038086,,,
52.5468750000,6,1.2080080509,,,
52.5625000000,6,1.4878540039,,,
52.5781250000,6,1.5084229708,,,
52.5937500000,6,1.2773439884,,,
52.6093750000,6,0.9055786133,,,
52.6250000000,6,0.5144042969,,,
52.6406250000,6,0.1976318061,,,
52.6562500000,6,-0.0364379883,,,
52.6718750000,6,-0.2056885064,,,
52.6875000000,6,-0.3538208008,,,
52.7031250000,6,-0.4769896865,,,
52.7187500000,6,-0.5278319716,,,
52.7343750000,6,-0.4627686143,,,
52.7500000000,6,-0.2651978135,,,
52.7656250000,6,-0.0039672852,,,
52.7812500000,6,0.2038574070,,,
52.7968750000,6,0.2332153022,,,
52.8125000000,6,0.0491333008,,,
52.8281250000,6,-0.2763062119,,,
52.8437500000,6,-0.5856934190,,,
52.8593750000,6,-0.7117310166,,,
52.8750000000,6,-0.5579833984,,,
52.8906250000,6,-0.1488647014,,,
52.9062500000,6,0.3783569038,,,
52.9218750000,6,0.8343505859,,,
52.9375000000,6,1.0497440100,,,
52.9531250000,6,0.9699097276,,,
52.9687500000,6,0.6446533203,,,
52.9843750000,6,0.2072144002,,,
53.0000000000,6,-0.1655883938,,,
53.0156250000,6,-0.3417358100,,,
53.0312500000,6,-0.2858887017,,,
53.0468750000,6,-0.0533447303,,,
53.0625000000,6,0.2061768025,,,
53.0781250000,6,0.3305054009,,,
53.0937500000,6,0.2003784031,,,
53.1093750000,6,-0.1930541992,,,
53.1250000000,6,-0.7579956055,,,
53.1406250000,6,-1.3405760527,,,
53.1562500000,6,-1.8197629452,,,
53.1718750000,6,-2.1462399960,,,
53.1875000000,6,-2.3344120979,,,
53.2031250000,6,-2.4210820198,,,
53.2187500000,6,-2.4251708984,,,
53.2343750000,6,-2.3368530273,,,
53.2500000000,6,-2.1514279842,,,
53.2656250000,6,-1.8955080509,,,
53.2812500000,6,-1.6238399744,,,
53.2968750000,6,-1.4105830193,,,
53.3125000000,6,-1.2787480354,,,
53.3281250000,6,-1.2041020393,,,
53.3437500000,6,-1.1195679903,,,
53.3593750000,6,-0.9640502930,,,
53.3750000000,6,-0.7008666992,,,
53.3906250000,6,-0.3574219048,,,
53.4062500000,6,0.0156250000,,,
53.4218750000,6,0.3554688096,,,
53.4375000000,6,0.6069946289,,,
53.4531250000,6,0.7503662109,,,
53.4687500000,6,0.8113402724,,,
53.4843750000,6,0.8493041992,,,
53.5000000000,6,0.9368286133,,,
53.5156250000,6,1.1245729923,,,
53.5312500000,6,1.3867189884,,,
53.5468750000,6,1.6426390409,,,
53.5625000000,6,1.7890009880,,,
53.5781250000,6,1.7832640409,,,
53.5937500000,6,1.6585689783,,,
53.6093750000,6,1.5157469511,,,
53.6250000000,6,1.4429320097,,,
53.6406250000,6,1.4573969841,,,
53.6562500000,6,1.4929200411,,,
53.6718750000,6,1.4360350370,,,
53.6875000000,6,1.2265629768,,,
53.7031250000,6,0.8761597276,,,
53.7187500000,6,0.4680176079,,,
53.7343750000,6,0.0894164965,,,
53.7500000000,6,-0.2109375000,,,
53.7656250000,6,-0.4481200874,,,
53.7812500000,6,-0.6498413086,,,
53.7968750000,6,-0.8478394151,,,
53.8125000000,6,-1.0388790369,,,
53.8281250000,6,-1.2103270292,,,
53.8437500000,6,-1.3380130529,,,
53.8593750000,6,-1.3942259550,,,
53.8750000000,6,-1.3392330408,,,
53.8906250000,6,-1.1458129883,,,
53.9062500000,6,-0.8076782227,,,
53.9218750000,6,-0.3639526069,,,
53.9375000000,6,0.0919799805,,,
53.9531250000,6,0.4469603896,,,
53.9687500000,6,0.6417235732,,,
53.9843750000,6,0.6819458008,,,
54.0000000000,6,0.6279296875,,,
54.0156250000,6,0.5517578125,,,
54.0312500000,6,0.4899291992,,,
54.0468750000,6,0.4325562119,,,
54.0625000000,6,0.3424071968,,,
54.0781250000,6,0.2081909031,,,
54.0937500000,6,0.0546875000,,,
54.1093750000,6,-0.0656127930,,,
54.1250000000,6,-0.1339111030,,,
54.1406250000,6,-0.1630249023,,,
54.1562500000,6,-0.2109985054,,,
54.1718750000,6,-0.3096924126,,,
54.1875000000,6,-0.4429931939,,,
54.2031250000,6,-0.5646973252,,,
54.2187500000,6,-0.6192626953,,,
54.2343750000,6,-0.6075438857,,,
54.2500000000,6,-0.5574951172,,,
54.2656250000,6,-0.5154418945,,,
54.2812500000,6,-0.4786987007,,,
54.2968750000,6,-0.4029541016,,,
54.3125000000,6,-0.2110596001,,,
54.3281250000,6,0.1286620945,,,
54.3437500000,6,0.5786132813,,,
54.3593750000,6,1.0411380529,,,
54.3750000000,6,1.4078370333,,,
54.3906250000,6,1.6147459745,,,
54.4062500000,6,1.6599730253,,,
54.4218750000,6,1.5978389978,,,
54.4375000000,6,1.4827879667,,,
54.4531250000,6,1.3522950411,,,
54.4687500000,6,1.2344969511,,,
54.4843750000,6,1.1276249886,,,
54.5000000000,6,1.0258790255,,,
54.5156250000,6,0.9005736709,,,
54.5312500000,6,0.7166748047,,,
54.5468750000,6,0.4431152046,,,
54.5625000000,6,0.0966796875,,,
54.5781250000,6,-0.2470702976,,,
54.5937500000,6,-0.4804077148,,,
54.6093750000,6,-0.5045775771,,,
54.6250000000,6,-0.3031615913,,,
54.6406250000,6,0.0629272535,,,
54.6562500000,6,0.4520874023,,,
54.6718750000,6,0.7271729112,,,
54.6875000000,6,0.7941284180,,,
54.7031250000,6,0.6494750977,,,
54.7187500000,6,0.3403930962,,,
54.7343750000,6,-0.0608520508,,,
54.7500000000,6,-0.4955444038,,,
54.7656250000,6,-0.9351807237,,,
54.7812500000,6,-1.3448489904,,,
54.7968750000,6,-1.6676030159,,,
54.8125000000,6,-1.8173830509,,,
54.8281250000,6,-1.7489620447,,,
54.8437500000,6,-1.4710079432,,,
54.8593750000,6,-1.0803220272,,,
54.8750000000,6,-0.7171021104,,,
54.8906250000,6,-0.4977416992,,,
54.9062500000,6,-0.4512938857,,,
54.9218750000,6,-0.4993895888,,,
54.9375000000,6,-0.5203247070,,,
54.9531250000,6,-0.4154663086,,,
54.9687500000,6,-0.1780395955,,,
54.9843750000,6,0.0922241211,,,
55.0000000000,6,0.2506104112,,,
55.0156250000,6,0.1801147014,,,
55.0312500000,6,-0.1209105998,,,
55.0468750000,6,-0.5466309190,,,
55.0625000000,6,-0.9201049805,,,
55.0781250000,6,-1.0889279842,,,
55.0937500000,6,-0.9895629883,,,
55.1093750000,6,-0.6705933213,,,
55.1250000000,6,-0.2703247070,,,
55.1406250000,6,0.0657348633,,,
55.1562500000,6,0.2556762993,,,
55.1718750000,6,0.3253174126,,,
55.1875000000,6,0.3556518853,,,
55.2031250000,6,0.4387207031,,,
55.2187500000,6,0.5944824219,,,
55.2343750000,6,0.7655029297,,,
55.2500000000,6,0.8566284180,,,
55.2656250000,6,0.8109741211,,,
55.2812500000,6,0.6362915039,,,
55.2968750000,6,0.4115600884,,,
55.3125000000,6,0.2462769002,,,
55.3281250000,6,0.1925048977,,,
55.3437500000,6,0.2432250977,,,
55.3593750000,6,0.3176879883,,,
55.3750000000,6,0.3296509087,,,
55.3906250000,6,0.2401732951,,,
55.4062500000,6,0.0794067383,,,
55.4218750000,6,-0.0687866211,,,
55.4375000000,6,-0.1222534031,,,
55.4531250000,6,-0.0494995117,,,
55.4687500000,6,0.0982055664,,,
55.4843750000,6,0.2225341946,,,
55.5000000000,6,0.2414550930,,,
55.5156250000,6,0.1166991964,,,
55.5312500000,6,-0.1218262017,,,
55.5468750000,6,-0.4135741889,,,
55.5625000000,6,-0.7067871094,,,
55.5781250000,6,-0.9957274795,,,
55.5937500000,6,-1.2913210392,,,
55.6093750000,6,-1.5846560001,,,
55.6250000000,6,-1.8203740120,,,
55.6406250000,6,-1.8945920467,,,
55.6562500000,6,-1.7348020077,,,
55.6718750000,6,-1.3395999670,,,
55.6875000000,6,-0.8146973252,,,
55.7031250000,6,-0.3304443061,,,
55.7187500000,6,-0.0305786096,,,
55.7343750000,6,0.0477294885,,,
55.7500000000,6,-0.0380248986,,,
55.7656250000,6,-0.1555785984,,,
55.7812500000,6,-0.1990355998,,,
55.7968750000,6,-0.1242064983,,,
55.8125000000,6,0.0410156287,,,
55.8281250000,6,0.2182006985,,,
55.8437500000,6,0.3439941108,,,
55.8593750000,6,0.3852539063,,,
55.8750000000,6,0.3502807915,,,
55.8906250000,6,0.2790527046,,,
55.9062500000,6,0.2296143025,,,
55.9218750000,6,0.2493896037,,,
55.9375000000,6,0.3682861030,,,
55.9531250000,6,0.5931395888,,,
55.9687500000,6,0.8986206055,,,
55.9843750000,6,1.2368769646,,,
56.0000000000,7,1.5687869787,,,
56.0156250000,7,1.8480830193,,,
56.0312500000,7,2.0336909294,,,
56.0468750000,7,2.0861821175,,,
56.0625000000,7,1.9775999784,,,
56.0781250000,7,1.6942139864,,,
56.0937500000,7,1.2639160156,,,
56.1093750000,7,0.7819824219,,,
56.1250000000,7,0.3680419922,,,
56.1406250000,7,0.1535034031,,,
56.1562500000,7,0.1896362007,,,
56.1718750000,7,0.4121094048,,,
56.1875000000,7,0.6834716797,,,
