Time:64Hz,Epoch,Channel 1,Event Id,Event Date,Event Duration
0.0000000000,0,-0.0615234412,,,
0.0156250000,0,-0.2092285007,,,
0.0312500000,0,-0.2463379055,,,
0.0468750000,0,-0.3282471001,,,
0.0625000000,0,-0.5851439834,,,
0.0781250000,0,-1.0204470158,,,
0.0937500000,0,-1.5156250000,,,
0.1093750000,0,-1.8869019747,,,
0.1250000000,0,-2.0034790039,,,
0.1406250000,0,-1.8463129997,,,
0.1562500000,0,-1.5115970373,,,
0.1718750000,0,-1.1181639433,,,
0.1875000000,0,-0.7494506836,,,
0.2031250000,0,-0.4166870117,,,
0.2187500000,0,-0.1055907980,,,
0.2343750000,0,0.1965941936,,,
0.2500000000,0,0.4489136040,,,
0.2656250000,0,0.5878295898,,,
0.2812500000,0,0.5560302734,,,
0.2968750000,0,0.3320922852,,,
0.3125000000,0,-0.0632324219,,,
0.3281250000,0,-0.5551757813,,,
0.3437500000,0,-1.0215450525,,,
0.3593750000,0,-1.3192139864,,,
0.3750000000,0,-1.3310550451,,,
0.3906250000,0,-1.0231930017,,,
0.4062500000,0,-0.4959106147,,,
0.4218750000,0,0.0533447303,,,
0.4375000000,0,0.4163208008,,,
0.4531250000,0,0.4729003906,,,
0.4687500000,0,0.2612304986,,,
0.4843750000,0,-0.0535888709,,,
0.5000000000,0,-0.2984009087,,,
0.5156250000,0,-0.3796387017,,,
0.5312500000,0,-0.3200072944,,,
0.5468750000,0,-0.2227173001,,,
0.5625000000,0,-0.1630249023,,,
0.5781250000,0,-0.1300659031,,,
0.5937500000,0,-0.0594482385,,,
0.6093750000,0,0.1024779975,,,
0.6250000000,0,0.3443604112,,,
0.6406250000,0,0.5868530273,,,
0.6562500000,0,0.7418212891,,,
0.6718750000,0,0.7614135742,,,
0.6875000000,0,0.6681519151,,,
0.7031250000,0,0.5447998047,,,
0.7187500000,0,0.4420166016,,,
0.7343750000,0,0.3930054009,,,
0.7500000000,0,0.3850097954,,,
0.7656250000,0,0.4047240913,,,
0.7812500000,0,0.4318237007,,,
0.7968750000,0,0.4628905952,,,
0.8125000000,0,0.4822998047,,,
0.8281250000,0,0.4616088867,,,
0.8437500000,0,0.3646850884,,,
0.8593750000,0,0.1770019978,,,
0.8750000000,0,-0.0916747972,,,
0.8906250000,0,-0.3910521865,,,
0.9062500000,0,-0.6597290039,,,
0.9218750000,0,-0.8432006836,,,
0.9375000000,0,-0.9061279297,,,
0.9531250000,0,-0.8475341797,,,
0.9687500000,0,-0.6956176758,,,
0.9843750000,0,-0.4902954102,,,
1.0000000000,0,-0.2752074897,,,
1.0156250000,0,-0.0789794922,,,
1.0312500000,0,0.0777587891,,,
1.0468750000,0,0.1884154975,,,
1.0625000000,0,0.2630614936,,,
1.0781250000,0,0.3140259087,,,
1.0937500000,0,0.3483887017,,,
1.1093750000,0,0.3510741889,,,
1.1250000000,0,0.2886353135,,,
1.1406250000,0,0.0996093825,,,
1.1562500000,0,-0.2246094048,,,
1.1718750000,0,-0.6383666992,,,
1.1875000000,0,-1.0092769861,,,
1.2031250000,0,-1.1848750114,,,
1.2187500000,0,-1.0785520077,,,
1.2343750000,0,-0.7171021104,,,
1.2500000000,0,-0.2716063857,,,
1.2656250000,0,0.0432739295,,,
1.2812500000,0,0.0816039965,,,
1.2968750000,0,-0.1467895955,,,
1.3125000000,0,-0.4891357124,,,
1.3281250000,0,-0.7269287109,,,
1.3437500000,0,-0.7215576172,,,
1.3593750000,0,-0.4677734077,,,
1.3750000000,0,-0.0963745117,,,
1.3906250000,0,0.2317505032,,,
1.4062500000,0,0.3978882134,,,
1.4218750000,0,0.3787231147,,,
1.4375000000,0,0.2315673977,,,
1.4531250000,0,0.0258789100,,,
1.4687500000,0,-0.1790160984,,,
1.4843750000,0,-0.3434447944,,,
1.5000000000,0,-0.4381104112,,,
1.5156250000,0,-0.4271850884,,,
1.5312500000,0,-0.2875976861,,,
1.5468750000,0,-0.0104980497,,,
1.5625000000,0,0.3804320991,,,
1.5781250000,0,0.8236693740,,,
1.5937500000,0,1.2334589958,,,
1.6093750000,0,1.5307010412,,,
1.6250000000,0,1.6575930119,,,
1.6406250000,0,1.5838010311,,,
1.6562500000,0,1.3280639648,,,
1.6718750000,0,0.9248046875,,,
1.6875000000,0,0.4634399116,,,
1.7031250000,0,0.0294799805,,,
1.7187500000,0,-0.2982178032,,,
1.7343750000,0,-0.4626465142,,,
1.7500000000,0,-0.4464721978,,,
1.7656250000,0,-0.2893066108,,,
1.7812500000,0,-0.0589599609,,,
1.7968750000,0,0.1577147990,,,
1.8125000000,0,0.2650145888,,,
1.8281250000,0,0.2051392049,,,
1.8437500000,0,-0.0397949181,,,
1.8593750000,0,-0.4048461914,,,
1.8750000000,0,-0.7832031250,,,
1.8906250000,0,-1.0487060547,,,
1.9062500000,0,-1.1277470589,,,
1.9218750000,0,-1.0056760311,,,
1.9375000000,0,-0.7377930284,,,
1.9531250000,0,-0.4102782905,,,
1.9687500000,0,-0.1020508036,,,
1.9843750000,0,0.1503905952,,,
2.0000000000,0,0.3552246094,,,
2.0156250000,0,0.5411986709,,,
2.0312500000,0,0.7230834961,,,
2.0468750000,0,0.8837280273,,,
2.0625000000,0,0.9981688857,,,
2.0781250000,0,1.0433959961,,,
2.0937500000,0,1.0098270178,,,
2.1093750000,0,0.9260253906,,,
2.1250000000,0,0.8120117188,,,
2.1406250000,0,0.7024536133,,,
2.1562500000,0,0.6358032227,,,
2.1718750000,0,0.6312866211,,,
2.1875000000,0,0.6912230849,,,
2.2031250000,0,0.7741088867,,,
2.2187500000,0,0.8083496094,,,
2.2343750000,0,0.6923217773,,,
2.2500000000,0,0.3499755859,,,
2.2656250000,0,-0.2336425930,,,
2.2812500000,0,-0.9804688096,,,
2.2968750000,0,-1.7358399630,,,
2.3125000000,0,-2.3224489689,,,
2.3281250000,0,-2.5817260742,,,
2.3437500000,0,-2.4718630314,,,
2.3593750000,0,-2.0506589413,,,
2.3750000000,0,-1.4600219727,,,
2.3906250000,0,-0.8644409180,,,
2.4062500000,0,-0.4072265923,,,
2.4218750000,0,-0.1514281929,,,
2.4375000000,0,-0.0913085863,,,
2.4531250000,0,-0.1724853963,,,
2.4687500000,0,-0.3100585938,,,
2.4843750000,0,-0.4372558892,,,
2.5000000000,0,-0.5303344727,,,
2.5156250000,0,-0.5985106826,,,
2.5312500000,0,-0.6584473252,,,
2.5468750000,0,-0.7258300781,,,
2.5625000000,0,-0.7690430284,,,
2.5781250000,0,-0.7394409180,,,
2.5937500000,0,-0.5991210938,,,
2.6093750000,0,-0.3361206055,,,
2.6250000000,0,0.0003051758,,,
2.6406250000,0,0.3174437881,,,
2.6562500000,0,0.5389404297,,,
2.6718750000,0,0.6259155273,,,
2.6875000000,0,0.6066895127,,,
2.7031250000,0,0.5416870117,,,
2.7187500000,0,0.4901733100,,,
2.7343750000,0,0.4763183892,,,
2.7500000000,0,0.4938965142,,,
2.7656250000,0,0.5220947266,,,
2.7812500000,0,0.5412598252,,,
2.7968750000,0,0.5343018174,,,
2.8125000000,0,0.4790039063,,,
2.8281250000,0,0.3793945014,,,
2.8437500000,0,0.2423706055,,,
2.8593750000,0,0.0959472731,,,
2.8750000000,0,-0.0048828130,,,
2.8906250000,0,-0.0094604492,,,
2.9062500000,0,0.1146851033,,,
2.9218750000,0,0.3651123047,,,
2.9375000000,0,0.6987915039,,,
2.9531250000,0,1.0169680119,,,
2.9687500000,0,1.2144169807,,,
2.9843750000,0,1.2314449549,,,
3.0000000000,0,1.0651860237,,,
3.0156250000,0,0.8013306260,,,
3.0312500000,0,0.5717163086,,,
3.0468750000,0,0.4885863960,,,
3.0625000000,0,0.5993041992,,,
3.0781250000,0,0.8414916992,,,
3.0937500000,0,1.0728149414,,,
3.1093750000,0,1.1689449549,,,
3.1250000000,0,1.0911250114,,,
3.1406250000,0,0.8994141221,,,
3.1562500000,0,0.7192993164,,,
3.1718750000,0,0.6318969727,,,
3.1875000000,0,0.6397094727,,,
3.2031250000,0,0.6424561143,,,
3.2187500000,0,0.5426024795,,,
3.2343750000,0,0.3027344048,,,
3.2500000000,0,-0.0203857403,,,
3.2656250000,0,-0.3134154975,,,
3.2812500000,0,-0.4785155952,,,
3.2968750000,0,-0.4877929986,,,
3.3125000000,0,-0.3839721978,,,
3.3281250000,0,-0.2487183064,,,
3.3437500000,0,-0.1599120945,,,
3.3593750000,0,-0.1519774944,,,
3.3750000000,0,-0.2227783054,,,
3.3906250000,0,-0.3286742866,,,
3.4062500000,0,-0.4420776069,,,
3.4218750000,0,-0.5282592773,,,
3.4375000000,0,-0.5653076172,,,
3.4531250000,0,-0.5454711914,,,
3.4687500000,0,-0.4835815132,,,
3.4843750000,0,-0.3997803032,,,
3.5000000000,0,-0.3383789063,,,
3.5156250000,0,-0.3228760064,,,
3.5312500000,0,-0.3707275093,,,
3.5468750000,0,-0.4748534858,,,
3.5625000000,0,-0.6014404297,,,
3.5781250000,0,-0.7168579102,,,
3.5937500000,0,-0.8114014268,,,
3.6093750000,0,-0.8921508789,,,
3.6250000000,0,-0.9653931260,,,
3.6406250000,0,-1.0438840389,,,
3.6562500000,0,-1.1161500216,,,
3.6718750000,0,-1.1732790470,,,
3.6875000000,0,-1.1848750114,,,
3.7031250000,0,-1.1392819881,,,
3.7187500000,0,-1.0217289925,,,
3.7343750000,0,-0.8480225205,,,
3.7500000000,0,-0.6274414063,,,
3.7656250000,0,-0.3634643853,,,
3.7812500000,0,-0.0399169885,,,
3.7968750000,0,0.3508301079,,,
3.8125000000,0,0.8141478896,,,
3.8281250000,0,1.2866209745,,,
3.8437500000,0,1.6696170568,,,
3.8593750000,0,1.8509520292,,,
3.8750000000,0,1.7395629883,,,
3.8906250000,0,1.3423459530,,,
3.9062500000,0,0.7479857802,,,
3.9218750000,0,0.1033935994,,,
3.9375000000,0,-0.4433594048,,,
3.9531250000,0,-0.7888184190,,,
3.9687500000,0,-0.9061279297,,,
3.9843750000,0,-0.8291625977,,,
4.0000000000,0,-0.6358032227,,,
4.0156250000,0,-0.4158324897,,,
4.0312500000,0,-0.2407837063,,,
4.0468750000,0,-0.1578979045,,,
4.0625000000,0,-0.1586914063,,,
4.0781250000,0,-0.1985473931,,,
4.0937500000,0,-0.2160644978,,,
4.1093750000,0,-0.1760863960,,,
4.1250000000,0,-0.1011962965,,,
4.1406250000,0,-0.0627441406,,,
4.1562500000,0,-0.1303101033,,,
4.1718750000,0,-0.2958984077,,,
4.1875000000,0,-0.4706420898,,,
4.2031250000,0,-0.5281372070,,,
4.2187500000,0,-0.4014892876,,,
4.2343750000,0,-0.1414185017,,,
4.2500000000,0,0.1288451999,,,
4.2656250000,0,0.2609252930,,,
4.2812500000,0,0.2078247070,,,
4.2968750000,0,0.0112915002,,,
4.3125000000,0,-0.1967772990,,,
4.3281250000,0,-0.3099975884,,,
4.3437500000,0,-0.2808228135,,,
4.3593750000,0,-0.1541748047,,,
4.3750000000,0,0.0034179690,,,
4.3906250000,0,0.1453856975,,,
4.4062500000,0,0.2811278999,,,
4.4218750000,0,0.4434813857,,,
4.4375000000,0,0.6436768174,,,
4.4531250000,0,0.8523560166,,,
4.4687500000,0,0.9973754883,,,
4.4843750000,0,1.0140990019,,,
4.5000000000,0,0.8972167969,,,
4.5156250000,0,0.7111815810,,,
4.5312500000,0,0.5593872070,,,
4.5468750000,0,0.5372313857,,,
4.5625000000,0,0.6808472276,,,
4.5781250000,0,0.9263916016,,,
4.5937500000,0,1.1485600471,,,
4.6093750000,0,1.2131350040,,,
4.6250000000,0,1.0355219841,,,
4.6406250000,0,0.6694946289,,,
4.6562500000,0,0.2501831055,,,
4.6718750000,0,-0.0700683594,,,
4.6875000000,0,-0.2022095025,,,
4.7031250000,0,-0.1563721001,,,
4.7187500000,0,-0.0479736291,,,
4.7343750000,0,-0.0191650409,,,
4.7500000000,0,-0.1377563030,,,
4.7656250000,0,-0.3709106147,,,
4.7812500000,0,-0.5950927734,,,
4.7968750000,0,-0.6889038086,,,
4.8125000000,0,-0.6171265244,,,
4.8281250000,0,-0.4610596001,,,
4.8437500000,0,-0.3725585938,,,
4.8593750000,0,-0.4748534858,,,
4.8750000000,0,-0.7666625977,,,
4.8906250000,0,-1.1211550236,,,
4.9062500000,0,-1.3412480354,,,
4.9218750000,0,-1.2890009880,,,
4.9375000000,0,-0.9498291016,,,
4.9531250000,0,-0.4556274116,,,
4.9687500000,0,-0.0026855471,,,
4.9843750000,0,0.2367554009,,,
5.0000000000,0,0.1937256008,,,
5.0156250000,0,-0.0491333008,,,
5.0312500000,0,-0.3349609077,,,
5.0468750000,0,-0.5079345703,,,
5.0625000000,0,-0.4959106147,,,
5.0781250000,0,-0.3594360054,,,
5.0937500000,0,-0.2332763970,,,
5.1093750000,0,-0.2396851033,,,
5.1250000000,0,-0.4237670898,,,
5.1406250000,0,-0.6887207031,,,
5.1562500000,0,-0.8633422852,,,
5.1718750000,0,-0.7896729112,,,
5.1875000000,0,-0.4126586914,,,
5.2031250000,0,0.1723022014,,,
5.2187500000,0,0.7790526748,,,
5.2343750000,0,1.2236330509,,,
5.2500000000,0,1.4226679802,,,
5.2656250000,0,1.4116209745,,,
5.2812500000,0,1.2981569767,,,
5.2968750000,0,1.2008670568,,,
5.3125000000,0,1.1781009436,,,
5.3281250000,0,1.2428590059,,,
5.3437500000,0,1.3552249670,,,
5.3593750000,0,1.4593509436,,,
5.3750000000,0,1.4960939884,,,
5.3906250000,0,1.3972779512,,,
5.4062500000,0,1.1405030489,,,
5.4218750000,0,0.7463989258,,,
5.4375000000,0,0.3055419922,,,
5.4531250000,0,-0.0919189528,,,
5.4687500000,0,-0.3843384087,,,
5.4843750000,0,-0.5866699219,,,
5.5000000000,0,-0.7696533203,,,
5.5156250000,0,-1.0043330193,,,
5.5312500000,0,-1.3023070097,,,
5.5468750000,0,-1.6066889763,,,
5.5625000000,0,-1.8253170252,,,
5.5781250000,0,-1.8940429688,,,
5.5937500000,0,-1.8374019861,,,
5.6093750000,0,-1.7244869471,,,
5.6250000000,0,-1.6361689568,,,
5.6406250000,0,-1.5793459415,,,
5.6562500000,0,-1.5032349825,,,
5.6718750000,0,-1.3331300020,,,
5.6875000000,0,-1.0413819551,,,
5.7031250000,0,-0.6632689834,,,
5.7187500000,0,-0.2851563096,,,
5.7343750000,0,0.0198974591,,,
5.7500000000,0,0.2280883938,,,
5.7656250000,0,0.3578490913,,,
5.7812500000,0,0.4277954102,,,
5.7968750000,0,0.4234009087,,,
5.8125000000,0,0.3135375977,,,
5.8281250000,0,0.0891113281,,,
5.8437500000,0,-0.2041625977,,,
5.8593750000,0,-0.4648438096,,,
5.8750000000,0,-0.5906372070,,,
5.8906250000,0,-0.5430908203,,,
5.9062500000,0,-0.3966675103,,,
5.9218750000,0,-0.2928467095,,,
5.9375000000,0,-0.3489989936,,,
5.9531250000,0,-0.5759888291,,,
5.9687500000,0,-0.8444824219,,,
5.9843750000,0,-0.9686279297,,,
6.0000000000,0,-0.8016356826,,,
6.0156250000,0,-0.3247680962,,,
6.0312500000,0,0.3453978896,,,
6.0468750000,0,1.0174560547,,,
6.0625000000,0,1.5282590389,,,
6.0781250000,0,1.7749630213,,,
6.0937500000,0,1.7545779943,,,
6.1093750000,0,1.5367430449,,,
6.1250000000,0,1.2145390511,,,
6.1406250000,0,0.8731688857,,,
6.1562500000,0,0.5763549805,,,
6.1718750000,0,0.3522948921,,,
6.1875000000,0,0.1793213040,,,
6.2031250000,0,0.0441894494,,,
6.2187500000,0,-0.0752563477,,,
6.2343750000,0,-0.1591186970,,,
6.2500000000,0,-0.1994019002,,,
6.2656250000,0,-0.1721802056,,,
6.2812500000,0,-0.0936279297,,,
6.2968750000,0,0.0026245120,,,
6.3125000000,0,0.0684814528,,,
6.3281250000,0,0.0860595703,,,
6.3437500000,0,0.0919189528,,,
6.3593750000,0,0.1463623047,,,
6.3750000000,0,0.2886353135,,,
6.3906250000,0,0.4808959961,,,
6.4062500000,0,0.6213989258,,,
6.4218750000,0,0.6024780273,,,
6.4375000000,0,0.3973999023,,,
6.4531250000,0,0.1023560017,,,
6.4687500000,0,-0.1228026971,,,
6.4843750000,0,-0.1311035007,,,
6.5000000000,0,0.0945434570,,,
6.5156250000,0,0.4395751953,,,
6.5312500000,0,0.7033690810,,,
6.5468750000,0,0.7453613281,,,
6.5625000000,0,0.5443115234,,,
6.5781250000,0,0.2170410007,,,
6.5937500000,0,-0.0743408203,,,
6.6093750000,0,-0.2130737007,,,
6.6250000000,0,-0.1805420071,,,
6.6406250000,0,-0.0330810510,,,
6.6562500000,0,-1.9022220373,,,
6.6718750000,0,-2.0746459961,,,
6.6875000000,0,-2.1237180233,,,
6.7031250000,0,-1.9822390079,,,
6.7187500000,0,-1.6166989803,,,
6.7343750000,0,-1.0574339628,,,
6.7500000000,0,-0.4004516900,,,
6.7656250000,0,0.2548828125,,,
6.7812500000,0,0.8178710938,,,
6.7968750000,0,1.2753909826,,,
6.8125000000,0,1.6300660372,,,
6.8281250000,0,1.8864140511,,,
6.8437500000,0,2.0337519646,,,
6.8593750000,0,2.0504760742,,,
6.8750000000,0,1.9343869686,,,
6.8906250000,0,1.7137449980,,,
6.9062500000,0,1.4287719727,,,
6.9218750000,0,1.0886839628,,,
6.9375000000,0,0.6905518174,,,
6.9531250000,0,0.2218627930,,,
6.9687500000,0,-0.2816162109,,,
6.9843750000,0,-0.7257080078,,,
7.0000000000,0,-0.9927368164,,,
7.0156250000,0,-1.0134890079,,,
7.0312500000,0,-0.8170775771,,,
7.0468750000,0,-0.5185546875,,,
7.0625000000,0,-0.2634277046,,,
7.0781250000,0,-0.1519165039,,,
7.0937500000,0,-0.1997070014,,,
7.1093750000,0,-0.3577880859,,,
7.1250000000,0,-0.5376586914,,,
7.1406250000,0,-0.6619263291,,,
7.1562500000,0,-0.6837158203,,,
7.1718750000,0,-0.6094359756,,,
7.1875000000,0,-0.4905396104,,,
7.2031250000,0,-0.4171752930,,,
7.2187500000,0,-0.4650268853,,,
7.2343750000,0,-0.6428223252,,,
7.2500000000,0,-0.8705443740,,,
7.2656250000,0,-0.9793701172,,,
7.2812500000,0,-0.8240966797,,,
7.2968750000,0,-0.3368529975,,,
7.3125000000,0,0.4024657905,,,
7.3281250000,0,1.1886600256,,,
7.3437500000,0,1.7994999886,,,
7.3593750000,0,2.1015009880,,,
7.3750000000,0,2.0871579647,,,
7.3906250000,0,1.8493039608,,,
7.4062500000,0,1.5197750330,,,
7.4218750000,0,1.1870119572,,,
7.4375000000,0,0.8826293945,,,
7.4531250000,0,0.5900269151,,,
7.4687500000,0,0.2747192085,,,
7.4843750000,0,-0.0803833008,,,
7.5000000000,0,-0.4644165039,,,
7.5156250000,0,-0.8379517198,,,
7.5312500000,0,-1.1462399960,,,
7.5468750000,0,-1.3233640194,,,
7.5625000000,0,-1.3388060331,,,
7.5781250000,0,-1.1798100471,,,
7.5937500000,0,-0.8662719727,,,
7.6093750000,0,-0.4499512017,,,
7.6250000000,0,0.0199584998,,,
7.6406250000,0,0.4932250977,,,
7.6562500000,0,0.9309691787,,,
7.6718750000,0,1.2946779728,,,
7.6875000000,0,1.5343630314,,,
7.7031250000,0,1.5850219727,,,
7.7187500000,0,1.3949580193,,,
7.7343750000,0,0.9505615234,,,
7.7500000000,0,0.3081665039,,,
7.7656250000,0,-0.4172362983,,,
7.7812500000,0,-1.0910639763,,,
7.7968750000,0,-1.5950930119,,,
7.8125000000,0,-1.8647459745,,,
7.8281250000,0,-1.8980100155,,,
7.8437500000,0,-1.7279659510,,,
7.8593750000,0,-1.3950810432,,,
7.8750000000,0,-0.9464722276,,,
7.8906250000,0,-0.4691162109,,,
7.9062500000,0,-0.0762329102,,,
7.9218750000,0,0.1207275018,,,
7.9375000000,0,0.0546264611,,,
7.9531250000,0,-0.2379149944,,,
7.9687500000,0,-0.6197509766,,,
7.9843750000,0,-0.9080200195,,,
8.0000000000,1,-0.9595947266,,,
8.0156250000,1,-0.7400513291,,,
8.0312500000,1,-0.3436889946,,,
8.0468750000,1,0.0792236328,,,
8.0625000000,1,0.3901978135,,,
8.0781250000,1,0.5235595703,,,
8.0937500000,1,0.5130004883,,,
8.1093750000,1,0.4298096001,,,
8.1250000000,1,0.3500365913,,,
8.1406250000,1,0.3123168945,,,
8.1562500000,1,0.3073729873,,,
8.1718750000,1,0.2942504883,,,
8.1875000000,1,0.2420043945,,,
8.2031250000,1,0.1336060017,,,
8.2187500000,1,-0.0213012695,,,
8.2343750000,1,-0.1944579929,,,
8.2500000000,1,-0.3384399116,,,
8.2656250000,1,-0.4188843071,,,
8.2812500000,1,-0.4208374023,,,
8.2968750000,1,-0.3556518853,,,
8.3125000000,1,-0.2658081055,,,
8.3281250000,1,-0.1962891072,,,
8.3437500000,1,-0.1792602986,,,
8.3593750000,1,-0.2284546047,,,
8.3750000000,1,-0.2993164063,,,
8.3906250000,1,-0.3287963867,,,
8.4062500000,1,-0.2471313030,,,
8.4218750000,1,-0.0234985407,,,
8.4375000000,1,0.3139648139,,,
8.4531250000,1,0.7004395127,,,
8.4687500000,1,1.0500489473,,,
8.4843750000,1,1.3045040369,,,
8.5000000000,1,1.4210820198,,,
8.5156250000,1,1.3826899529,,,
8.5312500000,1,1.1591190100,,,
8.5468750000,1,0.7443236709,,,
8.5625000000,1,0.1728516072,,,
8.5781250000,1,-0.4536133111,,,
8.5937500000,1,-0.9582520127,,,
8.6093750000,1,-1.1651610136,,,
8.6250000000,1,-0.9779052734,,,
8.6406250000,1,-0.4367065132,,,
8.6562500000,1,0.2891846001,,,
8.6718750000,1,0.9406127930,,,
8.6875000000,1,1.3054200411,,,
8.7031250000,1,1.3211059570,,,
8.7187500000,1,1.0816040039,,,
8.7343750000,1,0.7931519151,,,
8.7500000000,1,0.6599121094,,,
8.7656250000,1,0.7578734756,,,
8.7812500000,1,1.0221560001,,,
8.7968750000,1,1.2969969511,,,
8.8125000000,1,1.4231569767,,,
8.8281250000,1,1.3333740234,,,
8.8437500000,1,1.0864260197,,,
8.8593750000,1,0.7919921875,,,
8.8750000000,1,0.5594481826,,,
8.8906250000,1,0.4123534858,,,
8.9062500000,1,0.2882080078,,,
8.9218750000,1,0.1033324972,,,
8.9375000000,1,-0.1940308064,,,
8.9531250000,1,-0.5523071289,,,
8.9687500000,1,-0.8673095703,,,
8.9843750000,1,-1.0164179802,,,
9.0000000000,1,-0.9556884766,,,
9.0156250000,1,-0.7276610732,,,
9.0312500000,1,-0.4697265923,,,
9.0468750000,1,-0.3195190132,,,
9.0625000000,1,-0.3836059868,,,
9.0781250000,1,-0.6697388291,,,
9.0937500000,1,-1.0902099609,,,
9.1093750000,1,-1.5070799589,,,
9.1250000000,1,-1.7738039494,,,
9.1406250000,1,-1.8339229822,,,
9.1562500000,1,-1.7216190100,,,
9.1718750000,1,-1.5587160587,,,
9.1875000000,1,-1.4804079533,,,
9.2031250000,1,-1.5297850370,,,
9.2187500000,1,-1.6368410587,,,
9.2343750000,1,-1.6516109705,,,
9.2500000000,1,-1.4223020077,,,
9.2656250000,1,-0.9075316787,,,
9.2812500000,1,-0.2118529975,,,
9.2968750000,1,0.4697875977,,,
9.3125000000,1,0.9631348252,,,
9.3281250000,1,1.1909790039,,,
9.3437500000,1,1.2112430334,,,
9.3593750000,1,1.1354370117,,,
9.3750000000,1,1.0479739904,,,
9.3906250000,1,0.9402465820,,,
9.4062500000,1,0.7304077148,,,
9.4218750000,1,0.3649291992,,,
9.4375000000,1,-0.1101073995,,,
9.4531250000,1,-0.5529174805,,,
9.4687500000,1,-0.7894896865,,,
9.4843750000,1,-0.7266234756,,,
9.5000000000,1,-0.4047240913,,,
9.5156250000,1,0.0396728516,,,
9.5312500000,1,0.4464111030,,,
9.5468750000,1,0.7392578125,,,
9.5625000000,1,0.9179688096,,,
9.5781250000,1,1.0391850471,,,
9.5937500000,1,1.1164549589,,,
9.6093750000,1,1.1090090275,,,
9.6250000000,1,0.9403687119,,,
9.6406250000,1,0.5852661133,,,
9.6562500000,1,0.1194458008,,,
9.6718750000,1,-0.3033446968,,,
9.6875000000,1,-0.5270996094,,,
9.7031250000,1,-0.4709472954,,,
9.7187500000,1,-0.1818847954,,,
9.7343750000,1,0.1964111030,,,
9.7500000000,1,0.5043334961,,,
9.7656250000,1,0.6483765244,,,
9.7812500000,1,0.6113281250,,,
9.7968750000,1,0.4499512017,,,
9.8125000000,1,0.2555541992,,,
9.8281250000,1,0.1037598029,,,
9.8437500000,1,0.0352172889,,,
9.8593750000,1,0.0639648363,,,
9.8750000000,1,0.1674804986,,,
9.8906250000,1,0.3190307915,,,
9.9062500000,1,0.4793091118,,,
9.9218750000,1,0.6076660156,,,
9.9375000000,1,0.6926879883,,,
9.9531250000,1,0.7230834961,,,
9.9687500000,1,0.7138671875,,,
9.9843750000,1,0.6598510742,,,
10.0000000000,1,0.5580443740,,,
10.0156250000,1,0.4063110054,,,
10.0312500000,1,0.2241210938,,,
10.0468750000,1,0.0541992188,,,
10.0625000000,1,-0.0697631836,,,
10.0781250000,1,-0.1290894002,,,
10.0937500000,1,-0.1596069038,,,
10.1093750000,1,-0.2075195014,,,
10.1250000000,1,-0.3143920898,,,
10.1406250000,1,-0.4674071968,,,
10.1562500000,1,-0.6035767198,,,
10.1718750000,1,-0.6657714844,,,
10.1875000000,1,-0.6417847276,,,
10.2031250000,1,-0.5945435166,,,
10.2187500000,1,-0.6392211914,,,
10.2343750000,1,-0.8743895888,,,
10.2500000000,1,-1.3170169592,,,
10.2656250000,1,-1.8657230139,,,
10.2812500000,1,-2.3341670036,,,
10.2968750000,1,-2.5421750546,,,
10.3125000000,1,-2.4003300667,,,
10.3281250000,1,-1.9393919706,,,
10.3437500000,1,-1.3078609705,,,
10.3593750000,1,-0.6685181260,,,
10.3750000000,1,-0.1544189006,,,
10.3906250000,1,0.1777953953,,,
10.4062500000,1,0.3494262993,,,
10.4218750000,1,0.4014281929,,,
10.4375000000,1,0.3908691108,,,
10.4531250000,1,0.3527832031,,,
10.4687500000,1,0.3245238960,,,
10.4843750000,1,0.3274536133,,,
10.5000000000,1,0.3789063096,,,
10.5156250000,1,0.4752196968,,,
10.5312500000,1,0.5986937881,,,
10.5468750000,1,0.7171630859,,,
10.5625000000,1,0.8184204102,,,
10.5781250000,1,0.9095458984,,,
10.5937500000,1,0.9902954102,,,
10.6093750000,1,1.0560909510,,,
10.6250000000,1,1.0841670036,,,
10.6406250000,1,1.0539549589,,,
10.6562500000,1,0.9868773818,,,
10.6718750000,1,0.9489135742,,,
10.6875000000,1,1.0198969841,,,
10.7031250000,1,1.2344360352,,,
10.7187500000,1,1.5156250000,,,
10.7343750000,1,1.7187500000,,,
10.7500000000,1,1.6661989689,,,
10.7656250000,1,1.2743530273,,,
10.7812500000,1,0.5977172852,,,
10.7968750000,1,-0.1774902046,,,
10.8125000000,1,-0.8153687119,,,
10.8281250000,1,-1.1503909826,,,
10.8437500000,1,-1.1566159725,,,
10.8593750000,1,-0.9476928711,,,
10.8750000000,1,-0.6936035156,,,
10.8906250000,1,-0.5455933213,,,
10.9062500000,1,-0.5499268174,,,
10.9218750000,1,-0.6901245117,,,
10.9375000000,1,-0.8845825195,,,
10.9531250000,1,-1.0642089844,,,
10.9687500000,1,-1.1878659725,,,
10.9843750000,1,-1.2527470589,,,
11.0000000000,1,-1.2653199434,,,
11.0156250000,1,-1.2128299475,,,
11.0312500000,1,-1.0659179688,,,
11.0468750000,1,-0.8052368164,,,
11.0625000000,1,-0.4504395127,,,
11.0781250000,1,-0.0785522535,,,
11.0937500000,1,0.1903686970,,,
11.1093750000,1,0.2521972954,,,
11.1250000000,1,0.0846557617,,,
11.1406250000,1,-0.2202758938,,,
11.1562500000,1,-0.5017089844,,,
11.1718750000,1,-0.6166992188,,,
11.1875000000,1,-0.5051879883,,,
11.2031250000,1,-0.2225951999,,,
11.2187500000,1,0.0921630934,,,
11.2343750000,1,0.3102416992,,,
11.2500000000,1,0.3565062881,,,
11.2656250000,1,0.2532958984,,,
11.2812500000,1,0.0937500000,,,
11.2968750000,1,-0.0317993201,,,
11.3125000000,1,-0.0828247070,,,
11.3281250000,1,-0.0905761719,,,
11.3437500000,1,-0.1362915039,,,
11.3593750000,1,-0.2977294922,,,
11.3750000000,1,-0.5800170898,,,
11.3906250000,1,-0.9078369141,,,
11.4062500000,1,-1.1382449865,,,
11.4218750000,1,-1.1603389978,,,
11.4375000000,1,-0.9230957031,,,
11.4531250000,1,-0.4979248047,,,
11.4687500000,1,-0.0046997070,,,
11.4843750000,1,0.4364013970,,,
11.5000000000,1,0.7700194716,,,
11.5156250000,1,1.0004880428,,,
11.5312500000,1,1.1768189669,,,
11.5468750000,1,1.3242189884,,,
11.5625000000,1,1.4221190214,,,
11.5781250000,1,1.4093019962,,,
11.5937500000,1,1.2305300236,,,
11.6093750000,1,0.8968505859,,,
11.6250000000,1,0.4776611030,,,
11.6406250000,1,0.0798950195,,,
11.6562500000,1,-0.1851195991,,,
11.6718750000,1,-0.2688598931,,,
11.6875000000,1,-0.1787720025,,,
11.7031250000,1,0.0072631841,,,
11.7187500000,1,0.1921997070,,,
11.7343750000,1,0.2766112983,,,
11.7500000000,1,0.2112427056,,,
11.7656250000,1,0.0129394503,,,
11.7812500000,1,-0.2536621094,,,
11.7968750000,1,-0.5009155273,,,
11.8125000000,1,-0.6553344727,,,
11.8281250000,1,-0.6889647841,,,
11.8437500000,1,-0.6295166016,,,
11.8593750000,1,-0.5260620117,,,
11.8750000000,1,-0.4401854873,,,
11.8906250000,1,-0.4017944038,,,
11.9062500000,1,-0.3958739936,,,
11.9218750000,1,-0.3883056939,,,
11.9375000000,1,-0.3126831055,,,
11.9531250000,1,-0.1306762993,,,
11.9687500000,1,0.1743164063,,,
11.9843750000,1,0.5747681260,,,
12.0000000000,1,1.0310059786,,,
12.0156250000,1,1.4611209631,,,
12.0312500000,1,1.7767330408,,,
12.0468750000,1,1.8979489803,,,
12.0625000000,1,1.7832640409,,,
12.0781250000,1,1.4648439884,,,
12.0937500000,1,1.0319819450,,,
12.1093750000,1,0.6047974229,,,
12.1250000000,1,0.2891846001,,,
12.1406250000,1,0.1042480022,,,
12.1562500000,1,-0.0053100591,,,
12.1718750000,1,-0.1394042969,,,
12.1875000000,1,-0.3789063096,,,
12.2031250000,1,-0.7410277724,,,
12.2187500000,1,-1.1509399414,,,
12.2343750000,1,-1.4865720272,,,
12.2500000000,1,-1.6537480354,,,
12.2656250000,1,-1.6005250216,,,
12.2812500000,1,-1.3510739803,,,
12.2968750000,1,-0.9833374023,,,
12.3125000000,1,-0.5881348252,,,
12.3281250000,1,-0.2412108928,,,
12.3437500000,1,0.0175781306,,,
12.3593750000,1,0.1861571968,,,
12.3750000000,1,0.2822875977,,,
12.3906250000,1,0.3082886040,,,
12.4062500000,1,0.2495727986,,,
12.4218750000,1,0.0821533203,,,
12.4375000000,1,-0.1838379055,,,
12.4531250000,1,-0.4768066108,,,
12.4687500000,1,-0.6842650771,,,
12.4843750000,1,-0.6918334961,,,
12.5000000000,1,-0.4652099907,,,
12.5156250000,1,-0.0638427734,,,
12.5312500000,1,0.3685913086,,,
12.5468750000,1,0.6849976182,,,
12.5625000000,1,0.8196411133,,,
12.5781250000,1,0.7917479873,,,
12.5937500000,1,0.6845092773,,,
12.6093750000,1,0.5541992188,,,
12.6250000000,1,0.4088135064,,,
12.6406250000,1,0.2075805962,,,
12.6562500000,1,-0.0722045898,,,
12.6718750000,1,-0.3981933892,,,
12.6875000000,1,-0.6642456055,,,
12.7031250000,1,-0.7813109756,,,
12.7187500000,1,-0.7355347276,,,
12.7343750000,1,-0.5838013291,,,
12.7500000000,1,-0.4421387017,,,
12.7656250000,1,-0.3729858100,,,
12.7812500000,1,-0.3666991889,,,
12.7968750000,1,-0.3345946968,,,
12.8125000000,1,-0.1942138970,,,
12.8281250000,1,0.0605468787,,,
12.8437500000,1,0.3734740913,,,
12.8593750000,1,0.6486815810,,,
12.8750000000,1,0.8469849229,,,
12.8906250000,1,0.9717407227,,,
12.9062500000,1,1.0706789494,,,
12.9218750000,1,1.1516109705,,,
12.9375000000,1,1.1636350155,,,
12.9531250000,1,1.0487669706,,,
12.9687500000,1,0.7540283203,,,
12.9843750000,1,0.3339844048,,,
13.0000000000,1,-0.1141356975,,,
13.0156250000,1,-0.4755249023,,,
13.0312500000,1,-0.7002562881,,,
13.0468750000,1,-0.8021240234,,,
13.0625000000,1,-0.8280640244,,,
13.0781250000,1,-0.7992553711,,,
13.0937500000,1,-0.6895751953,,,
13.1093750000,1,-0.4622192085,,,
13.1250000000,1,-0.1189574972,,,
13.1406250000,1,0.2578735054,,,
13.1562500000,1,0.5517578125,,,
13.1718750000,1,0.6507567763,,,
13.1875000000,1,0.5453491211,,,
13.2031250000,1,0.3173828125,,,
13.2187500000,1,0.0863647535,,,
13.2343750000,1,-0.0454711914,,,
13.2500000000,1,-0.0560302697,,,
13.2656250000,1,0.0241088904,,,
13.2812500000,1,0.0965576172,,,
13.2968750000,1,0.0996704102,,,
13.3125000000,1,0.0123901404,,,
13.3281250000,1,-0.1392821968,,,
13.3437500000,1,-0.2881470025,,,
13.3593750000,1,-0.3869628906,,,
13.3750000000,1,-0.4000853896,,,
13.3906250000,1,-0.3321532905,,,
13.4062500000,1,-0.1967772990,,,
13.4218750000,1,-0.0299682599,,,
13.4375000000,1,0.1405639946,,,
13.4531250000,1,0.2772217095,,,
13.4687500000,1,0.3275757134,,,
13.4843750000,1,0.2550049126,,,
13.5000000000,1,0.0341796912,,,
13.5156250000,1,-0.3058471978,,,
13.5312500000,1,-0.7067871094,,,
13.5468750000,1,-1.0762939453,,,
13.5625000000,1,-1.3328249454,,,
13.5781250000,1,-1.4360350370,,,
13.5937500000,1,-1.4031369686,,,
13.6093750000,1,-1.3005369902,,,
13.6250000000,1,-1.1918950081,,,
13.6406250000,1,-1.1259770393,,,
13.6562500000,1,-1.0905760527,,,
13.6718750000,1,-1.0650019646,,,
13.6875000000,1,-1.0325930119,,,
13.7031250000,1,-1.0075069666,,,
13.7187500000,1,-0.9910277724,,,
13.7343750000,1,-0.9650878906,,,
13.7500000000,1,-0.8830565810,,,
13.7656250000,1,-0.6648560166,,,
13.7812500000,1,-0.2834472954,,,
13.7968750000,1,0.2286987007,,,
13.8125000000,1,0.7700806260,,,
13.8281250000,1,1.2123409510,,,
13.8437500000,1,1.4451290369,,,
13.8593750000,1,1.4387819767,,,
13.8750000000,1,1.2504270077,,,
13.8906250000,1,0.9796143174,,,
13.9062500000,1,0.7352905273,,,
13.9218750000,1,0.5750731826,,,
13.9375000000,1,0.5317993164,,,
13.9531250000,1,0.6188353896,,,
13.9687500000,1,0.8215941787,,,
13.9843750000,1,1.1085820198,,,
14.0000000000,1,1.3888549805,,,
14.0156250000,1,-0.6787719727,,,
14.0312500000,1,-1.1712650061,,,
14.0468750000,1,-1.5468750000,,,
14.0625000000,1,-1.7131960392,,,
14.0781250000,1,-1.6577149630,,,
14.0937500000,1,-1.4348139763,,,
14.1093750000,1,-1.1558840275,,,
14.1250000000,1,-0.9173583984,,,
14.1406250000,1,-0.7861937881,,,
14.1562500000,1,-0.7573242188,,,
14.1718750000,1,-0.7625122070,,,
14.1875000000,1,-0.7144165039,,,
14.2031250000,1,-0.5513306260,,,
14.2187500000,1,-0.2661742866,,,
14.2343750000,1,0.0685424805,,,
14.2500000000,1,0.3399047852,,,
14.2656250000,1,0.4678345025,,,
14.2812500000,1,0.4508666992,,,
14.2968750000,1,0.3706054986,,,
14.3125000000,1,0.3554077148,,,
14.3281250000,1,0.5012816787,,,
14.3437500000,1,0.8158568740,,,
14.3593750000,1,1.2099000216,,,
14.3750000000,1,1.5528559685,,,
14.3906250000,1,1.7109990120,,,
14.4062500000,1,1.6192630529,,,
14.4218750000,1,1.3014529943,,,
14.4375000000,1,0.8464965820,,,
14.4531250000,1,0.3714599907,,,
14.4687500000,1,-0.0127563505,,,
14.4843750000,1,-0.2278441936,,,
14.5000000000,1,-0.2471923977,,,
14.5156250000,1,-0.0944824219,,,
14.5312500000,1,0.1514281929,,,
14.5468750000,1,0.3854979873,,,
14.5625000000,1,0.5082396865,,,
14.5781250000,1,0.4494628906,,,
14.5937500000,1,0.2163695991,,,
14.6093750000,1,-0.1331786960,,,
14.6250000000,1,-0.4956665039,,,
14.6406250000,1,-0.7767943740,,,
14.6562500000,1,-0.9454345703,,,
14.6718750000,1,-1.0097049475,,,
14.6875000000,1,-1.0171509981,,,
14.7031250000,1,-1.0156860352,,,
14.7187500000,1,-1.0139770508,,,
14.7343750000,1,-0.9614257813,,,
14.7500000000,1,-0.7813720703,,,
14.7656250000,1,-0.4346924126,,,
14.7812500000,1,0.0329589806,,,
14.7968750000,1,0.4819945991,,,
14.8125000000,1,0.7379760742,,,
14.8281250000,1,0.7043457031,,,
14.8437500000,1,0.4138793945,,,
14.8593750000,1,0.0213622991,,,
14.8750000000,1,-0.2853393853,,,
14.8906250000,1,-0.3908081055,,,
14.9062500000,1,-0.3070679009,,,
14.9218750000,1,-0.1424560994,,,
14.9375000000,1,-0.0188598596,,,
14.9531250000,1,0.0366210900,,,
14.9687500000,1,0.1007689983,,,
14.9843750000,1,0.2761841118,,,
15.0000000000,1,0.6321411133,,,
15.0156250000,1,1.1016850471,,,
15.0312500000,1,1.5076290369,,,
15.0468750000,1,1.6509399414,,,
15.0625000000,1,1.4223630428,,,
15.0781250000,1,0.8656616211,,,
15.0937500000,1,0.1625366062,,,
15.1093750000,1,-0.4651488960,,,
15.1250000000,1,-0.8684082031,,,
15.1406250000,1,-1.0224000216,,,
15.1562500000,1,-1.0133060217,,,
15.1718750000,1,-0.9650269151,,,
15.1875000000,1,-0.9600830078,,,
15.2031250000,1,-0.9595947266,,,
15.2187500000,1,-0.8660277724,,,
15.2343750000,1,-0.5770874023,,,
15.2500000000,1,-0.0915527269,,,
15.2656250000,1,0.4711914063,,,
15.2812500000,1,0.9232177734,,,
15.2968750000,1,1.1190799475,,,
15.3125000000,1,1.0376590490,,,
15.3281250000,1,0.7944335938,,,
15.3437500000,1,0.5798339844,,,
15.3593750000,1,0.5229492188,,,
15.3750000000,1,0.6394042969,,,
15.3906250000,1,0.8439940810,,,
15.4062500000,1,1.0251460075,,,
15.4218750000,1,1.1205439568,,,
15.4375000000,1,1.1364749670,,,
15.4531250000,1,1.1011350155,,,
15.4687500000,1,1.0377810001,,,
15.4843750000,1,0.9252930284,,,
15.5000000000,1,0.7424926758,,,
15.5156250000,1,0.5006104112,,,
15.5312500000,1,0.2562865913,,,
15.5468750000,1,0.0921630934,,,
15.5625000000,1,0.0430297889,,,
15.5781250000,1,0.0776367188,,,
15.5937500000,1,0.1178589016,,,
15.6093750000,1,0.0958862305,,,
15.6250000000,1,-0.0086669922,,,
15.6406250000,1,-0.1715088040,,,
15.6562500000,1,-0.3558959961,,,
15.6718750000,1,-0.5444946289,,,
15.6875000000,1,-0.7443848252,,,
15.7031250000,1,-0.9470825195,,,
15.7187500000,1,-1.1049189568,,,
15.7343750000,1,-1.1348880529,,,
15.7500000000,1,-0.9860228896,,,
15.7656250000,1,-0.6773071289,,,
15.7812500000,1,-0.3118895888,,,
15.7968750000,1,-0.0269775409,,,
15.8125000000,1,0.0728149414,,,
15.8281250000,1,-0.0255127009,,,
15.8437500000,1,-0.2462158054,,,
15.8593750000,1,-0.4582520127,,,
15.8750000000,1,-0.5499877930,,,
15.8906250000,1,-0.4738158882,,,
15.9062500000,1,-0.2684325874,,,
15.9218750000,1,-0.0213012695,,,
15.9375000000,1,0.1729125977,,,
15.9531250000,1,0.2430420071,,,
15.9687500000,1,0.1705933064,,,
15.9843750000,1,-0.0372924805,,,
16.0000000000,2,-0.3537597954,,,
16.0156250000,2,-0.7530518174,,,
16.0312500000,2,-1.1926269531,,,
16.0468750000,2,-1.5826419592,,,
16.0625000000,2,-1.7930910587,,,
16.0781250000,2,-1.7091059685,,,
16.0937500000,2,-1.2973630428,,,
16.1093750000,2,-0.6533812881,,,
16.1250000000,2,0.0022583010,,,
16.1406250000,2,0.4273681939,,,
16.1562500000,2,0.4807738960,,,
16.1718750000,2,0.1874389946,,,
16.1875000000,2,-0.2770996094,,,
16.2031250000,2,-0.6771240234,,,
16.2187500000,2,-0.8317260742,,,
16.2343750000,2,-0.7130736709,,,
16.2500000000,2,-0.4150390923,,,
16.2656250000,2,-0.0995483398,,,
16.2812500000,2,0.1020508036,,,
16.2968750000,2,0.1394653022,,,
16.3125000000,2,0.0540161096,,,
16.3281250000,2,-0.0650024414,,,
16.3437500000,2,-0.1513061970,,,
16.3593750000,2,-0.1836548001,,,
16.3750000000,2,-0.1905518025,,,
16.3906250000,2,-0.2260131985,,,
16.4062500000,2,-0.3166503906,,,
16.4218750000,2,-0.4322510064,,,
16.4375000000,2,-0.4926146865,,,
16.4531250000,2,-0.4138183892,,,
16.4687500000,2,-0.1497803032,,,
16.4843750000,2,0.2602539063,,,
16.5000000000,2,0.7273560166,,,
16.5156250000,2,1.1315920353,,,
16.5312500000,2,1.3841550350,,,
16.5468750000,2,1.4442750216,,,
16.5625000000,2,1.3436280489,,,
16.5781250000,2,1.1433110237,,,
16.5937500000,2,0.9169312119,,,
16.6093750000,2,0.7261353135,,,
16.6250000000,2,0.5942993164,,,
16.6406250000,2,0.4949950874,,,
16.6562500000,2,0.3822632134,,,
16.6718750000,2,0.2189940959,,,
16.6875000000,2,-0.0098876953,,,
16.7031250000,2,-0.2807007134,,,
16.7187500000,2,-0.5520020127,,,
16.7343750000,2,-0.8016356826,,,
16.7500000000,2,-1.0432130098,,,
16.7656250000,2,-1.3144530058,,,
16.7812500000,2,-1.6170649529,,,
16.7968750000,2,-1.9052729607,,,
16.8125000000,2,-2.0753779411,,,
16.8281250000,2,-2.0347900391,,,
16.8437500000,2,-1.7467650175,,,
16.8593750000,2,-1.2706910372,,,
16.8750000000,2,-0.7239990234,,,
16.8906250000,2,-0.2134398967,,,
16.9062500000,2,0.2091064006,,,
16.9218750000,2,0.5574951172,,,
16.9375000000,2,0.8740844727,,,
16.9531250000,2,1.1638180017,,,
16.9687500000,2,1.4005739689,,,
16.9843750000,2,1.5216059685,,,
17.0000000000,2,1.4807130098,,,
17.0156250000,2,1.2885739803,,,
17.0312500000,2,1.0042719841,,,
17.0468750000,2,0.7194824219,,,
17.0625000000,2,0.5169677734,,,
17.0781250000,2,0.4344482124,,,
17.0937500000,2,0.4738770127,,,
17.1093750000,2,0.5972899795,,,
17.1250000000,2,0.7617797852,,,
17.1406250000,2,0.9183959961,,,
17.1562500000,2,1.0218509436,,,
17.1718750000,2,1.0599370003,,,
17.1875000000,2,1.0354000330,,,
17.2031250000,2,0.9648438096,,,
17.2187500000,2,0.8607177734,,,
17.2343750000,2,0.7178344727,,,
17.2500000000,2,0.5267333984,,,
17.2656250000,2,0.2806395888,,,
17.2812500000,2,0.0029296880,,,
17.2968750000,2,-0.2504271865,,,
17.3125000000,2,-0.4234009087,,,
17.3281250000,2,-0.4855957031,,,
17.3437500000,2,-0.4459838867,,,
17.3593750000,2,-0.3479613960,,,
17.3750000000,2,-0.2609862983,,,
17.3906250000,2,-0.2388305962,,,
17.4062500000,2,-0.3153687119,,,
17.4218750000,2,-0.4981079102,,,
17.4375000000,2,-0.7568358779,,,
17.4531250000,2,-1.0556639433,,,
17.4687500000,2,-1.3524169922,,,
17.4843750000,2,-1.6088869572,,,
17.5000000000,2,-1.7933349609,,,
17.5156250000,2,-1.8752440214,,,
17.5312500000,2,-1.8504639864,,,
17.5468750000,2,-1.7135009766,,,
17.5625000000,2,-1.4724730253,,,
17.5781250000,2,-1.1431879997,,,
17.5937500000,2,-0.7427368164,,,
17.6093750000,2,-0.3068847954,,,
17.6250000000,2,0.1058960035,,,
17.6406250000,2,0.4257202148,,,
17.6562500000,2,0.6004639268,,,
17.6718750000,2,0.6149901748,,,
17.6875000000,2,0.5321044922,,,
17.7031250000,2,0.4414063096,,,
17.7187500000,2,0.4280396104,,,
17.7343750000,2,0.5319824219,,,
17.7500000000,2,0.7238159180,,,
17.7656250000,2,0.9236450195,,,
17.7812500000,2,1.0263060331,,,
17.7968750000,2,0.9742432237,,,
17.8125000000,2,0.7541503906,,,
17.8281250000,2,0.4200438857,,,
17.8437500000,2,0.0592041016,,,
17.8593750000,2,-0.2408446968,,,
17.8750000000,2,-0.4281005859,,,
17.8906250000,2,-0.4932250977,,,
17.9062500000,2,-0.4581908882,,,
17.9218750000,2,-0.3460083008,,,
17.9375000000,2,-0.1633910984,,,
17.9531250000,2,0.1021118015,,,
17.9687500000,2,0.4519042969,,,
17.9843750000,2,0.8608397841,,,
18.0000000000,2,1.2659300566,,,
18.0156250000,2,1.5950930119,,,
18.0312500000,2,1.7824709415,,,
18.0468750000,2,1.7974849939,,,
18.0625000000,2,1.6480100155,,,
18.0781250000,2,1.3593750000,,,
18.0937500000,2,0.9578247070,,,
18.1093750000,2,0.4642333984,,,
18.1250000000,2,-0.1089477986,,,
18.1406250000,2,-0.7211914063,,,
18.1562500000,2,-1.2845460176,,,
18.1718750000,2,-1.6983029842,,,
18.1875000000,2,-1.8405150175,,,
18.2031250000,2,-1.6369019747,,,
18.2187500000,2,-1.0910029411,,,
18.2343750000,2,-0.3110961914,,,
18.2500000000,2,0.5222167969,,,
18.2656250000,2,1.1906130314,,,
18.2812500000,2,1.5078740120,,,
18.2968750000,2,1.3931269646,,,
18.3125000000,2,0.8995360732,,,
18.3281250000,2,0.2081909031,,,
18.3437500000,2,-0.4531250000,,,
18.3593750000,2,-0.9059448242,,,
18.3750000000,2,-1.0697629452,,,
18.3906250000,2,-0.9827880859,,,
18.4062500000,2,-0.7391356826,,,
18.4218750000,2,-0.4375610054,,,
18.4375000000,2,-0.1299438030,,,
18.4531250000,2,0.1627808064,,,
18.4687500000,2,0.4157715142,,,
18.4843750000,2,0.5974730849,,,
18.5000000000,2,0.6519165039,,,
18.5156250000,2,0.5633544922,,,
18.5312500000,2,0.3482666016,,,
18.5468750000,2,0.0886230469,,,
18.5625000000,2,-0.1116942987,,,
18.5781250000,2,-0.1752319038,,,
18.5937500000,2,-0.0787963867,,,
18.6093750000,2,0.1427612007,,,
18.6250000000,2,0.4132690132,,,
18.6406250000,2,0.6510620117,,,
18.6562500000,2,0.8068848252,,,
18.6718750000,2,0.8689575195,,,
18.6875000000,2,0.8657227159,,,
18.7031250000,2,0.8394774795,,,
18.7187500000,2,0.8292235732,,,
18.7343750000,2,0.8540648818,,,
18.7500000000,2,0.9075316787,,,
18.7656250000,2,0.9461669922,,,
18.7812500000,2,0.9252930284,,,
18.7968750000,2,0.8007202148,,,
18.8125000000,2,0.5492553711,,,
18.8281250000,2,0.1989136040,,,
18.8437500000,2,-0.1953125000,,,
18.8593750000,2,-0.5510864258,,,
18.8750000000,2,-0.7950438857,,,
18.8906250000,2,-0.8971558213,,,
18.9062500000,2,-0.8674315810,,,
18.9218750000,2,-0.7719116211,,,
18.9375000000,2,-0.6702880859,,,
18.9531250000,2,-0.5947266221,,,
18.9687500000,2,-0.5381469727,,,
18.9843750000,2,-0.4634399116,,,
19.0000000000,2,-0.3621216118,,,
19.0156250000,2,-0.2352904975,,,
19.0312500000,2,-0.1655272990,,,
19.0468750000,2,-0.2283325046,,,
19.0625000000,2,-0.4598388970,,,
19.0781250000,2,-0.8392943740,,,
19.0937500000,2,-1.2612919807,,,
19.1093750000,2,-1.5755620003,,,
19.1250000000,2,-1.6405639648,,,
19.1406250000,2,-1.3967289925,,,
19.1562500000,2,-0.8947144151,,,
19.1718750000,2,-0.3055419922,,,
19.1875000000,2,0.1605225056,,,
19.2031250000,2,0.3336181939,,,
19.2187500000,2,0.1641846001,,,
19.2343750000,2,-0.2349243015,,,
19.2500000000,2,-0.6621093750,,,
19.2656250000,2,-0.9227294922,,,
19.2812500000,2,-0.9371337891,,,
19.2968750000,2,-0.7526854873,,,
19.3125000000,2,-0.5249633789,,,
19.3281250000,2,-0.3884277046,,,
19.3437500000,2,-0.3877562881,,,
19.3593750000,2,-0.4736328125,,,
19.3750000000,2,-0.5539550781,,,
19.3906250000,2,-0.5843505859,,,
19.4062500000,2,-0.6063231826,,,
19.4218750000,2,-0.7116088867,,,
19.4375000000,2,-0.9624022841,,,
19.4531250000,2,-1.3395390511,,,
19.4687500000,2,-1.7169189453,,,
19.4843750000,2,-1.9343260527,,,
19.5000000000,2,-1.8724370003,,,
19.5156250000,2,-1.5090329647,,,
19.5312500000,2,-0.9532470703,,,
19.5468750000,2,-0.3747558892,,,
19.5625000000,2,0.0800170898,,,
19.5781250000,2,0.3367919922,,,
19.5937500000,2,0.4360351861,,,
19.6093750000,2,0.4949341118,,,
19.6250000000,2,0.6256713867,,,
19.6406250000,2,0.8665770888,,,
19.6562500000,2,1.1791379452,,,
19.6718750000,2,1.4448239803,,,
19.6875000000,2,1.5699460506,,,
19.7031250000,2,1.5307619572,,,
19.7187500000,2,1.3751829863,,,
19.7343750000,2,1.1995849609,,,
19.7500000000,2,1.0632929802,,,
19.7656250000,2,0.9600830078,,,
19.7812500000,2,0.8173217773,,,
19.7968750000,2,0.5879517198,,,
19.8125000000,2,0.2896729112,,,
19.8281250000,2,0.0089721680,,,
19.8437500000,2,-0.1405639946,,,
19.8593750000,2,-0.1263428032,,,
19.8750000000,2,-0.0184936505,,,
19.8906250000,2,0.0761108398,,,
19.9062500000,2,0.0670166016,,,
19.9218750000,2,-0.0380248986,,,
19.9375000000,2,-0.1332397014,,,
19.9531250000,2,-0.1074218974,,,
19.9687500000,2,0.0959472731,,,
19.9843750000,2,0.4243774116,,,
20.0000000000,2,0.7407836914,,,
20.0156250000,2,0.9014282227,,,
20.0312500000,2,0.8209229112,,,
20.0468750000,2,0.4973754883,,,
20.0625000000,2,0.0191040002,,,
20.0781250000,2,-0.4691771865,,,
20.0937500000,2,-0.8158568740,,,
20.1093750000,2,-0.9067993164,,,
20.1250000000,2,-0.7033690810,,,
20.1406250000,2,-0.2827148139,,,
20.1562500000,2,0.2089232951,,,
20.1718750000,2,0.6004027724,,,
20.1875000000,2,0.7639160156,,,
20.2031250000,2,0.6809691787,,,
20.2187500000,2,0.4294433892,,,
20.2343750000,2,0.1444701999,,,
20.2500000000,2,-0.0753173828,,,
20.2656250000,2,-0.1825561970,,,
20.2812500000,2,-0.1806029975,,,
20.2968750000,2,-0.0944824219,,,
20.3125000000,2,0.0581665002,,,
20.3281250000,2,0.2590942085,,,
20.3437500000,2,0.4886474907,,,
20.3593750000,2,0.7147216797,,,
20.3750000000,2,0.8721923828,,,
20.3906250000,2,0.9150391221,,,
20.4062500000,2,0.8402100205,,,
20.4218750000,2,0.6824340820,,,
20.4375000000,2,0.5029907227,,,
20.4531250000,2,0.3432616889,,,
20.4687500000,2,0.2197266072,,,
20.4843750000,2,0.1179810017,,,
20.5000000000,2,0.0220947303,,,
20.5156250000,2,-0.0895385668,,,
20.5312500000,2,-0.2230834961,,,
20.5468750000,2,-0.3940429986,,,
20.5625000000,2,-0.6087036133,,,
20.5781250000,2,-0.8563231826,,,
20.5937500000,2,-1.0801390409,,,
20.6093750000,2,-1.2006839514,,,
20.6250000000,2,-1.1365970373,,,
20.6406250000,2,-0.8813477159,,,
20.6562500000,2,-0.5100098252,,,
20.6718750000,2,-0.1508179009,,,
20.6875000000,2,0.0723266602,,,
20.7031250000,2,0.1076050028,,,
20.7187500000,2,-0.0097045898,,,
20.7343750000,2,-0.1589965969,,,
20.7500000000,2,-0.2240601033,,,
20.7656250000,2,-0.1356811970,,,
20.7812500000,2,0.1006470025,,,
20.7968750000,2,0.4268187881,,,
20.8125000000,2,0.7681273818,,,
20.8281250000,2,1.0427249670,,,
20.8437500000,2,1.1669919491,,,
20.8593750000,2,1.0781250000,,,
20.8750000000,2,0.7426757813,,,
20.8906250000,2,0.1914673001,,,
20.9062500000,2,-0.4540404975,,,
20.9218750000,2,-1.0155639648,,,
20.9375000000,2,-1.3183590174,,,
20.9531250000,2,-1.2610470057,,,
20.9687500000,2,-0.8408203125,,,
20.9843750000,2,-0.1768798977,,,
21.0000000000,2,0.5584716797,,,
21.0156250000,2,1.1709589958,,,
21.0312500000,2,1.5175169706,,,
21.0468750000,2,1.5322270393,,,
21.0625000000,2,1.2704470158,,,
21.0781250000,2,0.8546752930,,,
21.0937500000,2,0.4514771104,,,
21.1093750000,2,0.1868285984,,,
21.1250000000,2,0.1186522990,,,
21.1406250000,2,0.1952514946,,,
21.1562500000,2,0.3062134087,,,
21.1718750000,2,0.3339844048,,,
21.1875000000,2,0.2055664063,,,
21.2031250000,2,-0.0810546875,,,
21.2187500000,2,-0.4532471001,,,
21.2343750000,2,-0.8035277724,,,
21.2500000000,2,-1.0339360237,,,
21.2656250000,2,-1.0870970488,,,
21.2812500000,2,-0.9764404297,,,
21.2968750000,2,-0.7589722276,,,
21.3125000000,2,-0.4976806939,,,
21.3281250000,2,-0.2432250977,,,
21.3437500000,2,-0.0288085900,,,
21.3593750000,2,0.1414185017,,,
21.3750000000,2,-0.3040161133,,,
21.3906250000,2,-0.2319945991,,,
21.4062500000,2,-0.1708374023,,,
21.4218750000,2,-0.1461791992,,,
21.4375000000,2,-0.2061768025,,,
21.4531250000,2,-0.3443604112,,,
21.4687500000,2,-0.4637450874,,,
21.4843750000,2,-0.4345093071,,,
21.5000000000,2,-0.1677855998,,,
21.5156250000,2,0.2666015923,,,
21.5312500000,2,0.6710814834,,,
21.5468750000,2,0.8142700195,,,
21.5625000000,2,0.5831909180,,,
21.5781250000,2,0.0646362305,,,
21.5937500000,2,-0.5058593750,,,
21.6093750000,2,-0.9010009766,,,
21.6250000000,2,-1.0358279943,,,
21.6406250000,2,-1.0068360567,,,
21.6562500000,2,-0.9963378906,,,
21.6718750000,2,-1.1207890511,,,
21.6875000000,2,-1.3583370447,,,
21.7031250000,2,-1.5551149845,,,
21.7187500000,2,-1.5490109921,,,
21.7343750000,2,-1.2935179472,,,
21.7500000000,2,-0.8811646104,,,
21.7656250000,2,-0.4939574897,,,
21.7812500000,2,-0.2548218071,,,
21.7968750000,2,-0.1975097954,,,
21.8125000000,2,-0.2272949070,,,
21.8281250000,2,-0.2380370945,,,
21.8437500000,2,-0.1646118015,,,
21.8593750000,2,-0.0454101600,,,
21.8750000000,2,0.0192871094,,,
21.8906250000,2,-0.0556640588,,,
21.9062500000,2,-0.2899169922,,,
21.9218750000,2,-0.5985717773,,,
21.9375000000,2,-0.8533325195,,,
21.9531250000,2,-0.9439086914,,,
21.9687500000,2,-0.8391724229,,,
21.9843750000,2,-0.5969238281,,,
22.0000000000,2,-0.3079223931,,,
22.0156250000,2,-0.0447998010,,,
22.0312500000,2,0.1724853963,,,
22.0468750000,2,0.3686523139,,,
22.0625000000,2,0.5623168945,,,
22.0781250000,2,0.7253417969,,,
22.0937500000,2,0.7959594727,,,
22.1093750000,2,0.6907349229,,,
22.1250000000,2,0.3795166016,,,
22.1406250000,2,-0.0930175781,,,
22.1562500000,2,-0.6027222276,,,
22.1718750000,2,-0.9674683213,,,
22.1875000000,2,-1.0491329432,,,
22.2031250000,2,-0.7969359756,,,
22.2187500000,2,-0.2737427056,,,
22.2343750000,2,0.3545531929,,,
22.2500000000,2,0.9008789063,,,
22.2656250000,2,1.2304079533,,,
22.2812500000,2,1.3004759550,,,
22.2968750000,2,1.1516109705,,,
22.3125000000,2,0.8726807237,,,
22.3281250000,2,0.5505371094,,,
22.3437500000,2,0.2501831055,,,
22.3593750000,2,0.0133667002,,,
22.3750000000,2,-0.1353148967,,,
22.3906250000,2,-0.1758423001,,,
22.4062500000,2,-0.0948486328,,,
22.4218750000,2,0.0739746094,,,
22.4375000000,2,0.2547607124,,,
22.4531250000,2,0.3458862007,,,
22.4687500000,2,0.2727661133,,,
22.4843750000,2,0.0378418006,,,
22.5000000000,2,-0.2758789063,,,
22.5156250000,2,-0.5394896865,,,
22.5312500000,2,-0.6587523818,,,
22.5468750000,2,-0.6136475205,,,
22.5625000000,2,-0.4563598931,,,
22.5781250000,2,-0.2716063857,,,
22.5937500000,2,-0.1235961989,,,
22.6093750000,2,-0.0458373986,,,
22.6250000000,2,-0.0416870117,,,
22.6406250000,2,-0.1064452976,,,
22.6562500000,2,-0.2383423001,,,
22.6718750000,2,-0.4364013970,,,
22.6875000000,2,-0.6788330078,,,
22.7031250000,2,-0.9415283203,,,
22.7187500000,2,-1.1719969511,,,
22.7343750000,2,-1.3146970272,,,
22.7500000000,2,-1.3296509981,,,
22.7656250000,2,-1.1930539608,,,
22.7812500000,2,-0.9142456055,,,
22.7968750000,2,-0.5356444716,,,
22.8125000000,2,-0.1440429986,,,
22.8281250000,2,0.1646118015,,,
22.8437500000,2,0.3072510064,,,
22.8593750000,2,0.2744140923,,,
22.8750000000,2,0.1403197944,,,
22.8906250000,2,0.0295410194,,,
22.9062500000,2,0.0612182617,,,
22.9218750000,2,0.2691650093,,,
22.9375000000,2,0.5935668945,,,
22.9531250000,2,0.9027100205,,,
22.9687500000,2,1.0731199980,,,
22.9843750000,2,1.0469969511,,,
23.0000000000,2,0.8558350205,,,
23.0156250000,2,0.5896605849,,,
23.0312500000,2,0.3633422852,,,
23.0468750000,2,0.2587890923,,,
23.0625000000,2,0.2924194038,,,
23.0781250000,2,0.4475097954,,,
23.0937500000,2,0.6745604873,,,
23.1093750000,2,0.9199829102,,,
23.1250000000,2,1.1250000000,,,
23.1406250000,2,1.2467650175,,,
23.1562500000,2,1.2399899960,,,
23.1718750000,2,1.0733640194,,,
23.1875000000,2,0.7509155273,,,
23.2031250000,2,0.3255614936,,,
23.2187500000,2,-0.1110839993,,,
23.2343750000,2,-0.4410400093,,,
23.2500000000,2,-0.5743408203,,,
23.2656250000,2,-0.5009155273,,,
23.2812500000,2,-0.2720336914,,,
23.2968750000,2,0.0081787109,,,
23.3125000000,2,0.2355346978,,,
23.3281250000,2,0.3573608100,,,
23.3437500000,2,0.3922728896,,,
23.3593750000,2,0.3905028999,,,
23.3750000000,2,0.3932495117,,,
23.3906250000,2,0.3884277046,,,
23.4062500000,2,0.3284302056,,,
23.4218750000,2,0.1629638970,,,
23.4375000000,2,-0.1039429009,,,
23.4531250000,2,-0.4063110054,,,
23.4687500000,2,-0.6416625977,,,
23.4843750000,2,-0.7317504883,,,
23.5000000000,2,-0.6697388291,,,
23.5156250000,2,-0.5455322266,,,
23.5312500000,2,-0.4656372070,,,
23.5468750000,2,-0.5134888291,,,
23.5625000000,2,-0.6902465820,,,
23.5781250000,2,-0.8995360732,,,
23.5937500000,2,-1.0210570097,,,
23.6093750000,2,-0.9700316787,,,
23.6250000000,2,-0.7515258789,,,
23.6406250000,2,-0.4504395127,,,
23.6562500000,2,-0.1892089993,,,
23.6718750000,2,-0.0451049805,,,
23.6875000000,2,-0.0545654297,,,
23.7031250000,2,-0.1825561970,,,
23.7187500000,2,-0.3791503906,,,
23.7343750000,2,-0.5736083984,,,
23.7500000000,2,-0.6886597276,,,
23.7656250000,2,-0.6777954102,,,
23.7812500000,2,-0.5260009766,,,
23.7968750000,2,-0.2743529975,,,
23.8125000000,2,-0.0016479490,,,
23.8281250000,2,0.1896362007,,,
23.8437500000,2,0.2403564006,,,
23.8593750000,2,0.1388549954,,,
23.8750000000,2,-0.0567016602,,,
23.8906250000,2,-0.2735596001,,,
23.9062500000,2,-0.4360351861,,,
23.9218750000,2,-0.5001831055,,,
23.9375000000,2,-0.4384765923,,,
23.9531250000,2,-0.2351074070,,,
23.9687500000,2,0.0980835035,,,
23.9843750000,2,0.5230712891,,,
24.0000000000,3,0.9379271865,,,
24.0156250000,3,1.2183229923,,,
24.0312500000,3,1.2668459415,,,
24.0468750000,3,1.0910029411,,,
24.0625000000,3,0.8087769151,,,
24.0781250000,3,0.6039428711,,,
24.0937500000,3,0.6264038086,,,
24.1093750000,3,0.9132689834,,,
24.1250000000,3,1.3551640511,,,
24.1406250000,3,1.7789920568,,,
24.1562500000,3,2.0242919922,,,
24.1718750000,3,2.0214838982,,,
24.1875000000,3,1.7945560217,,,
24.2031250000,3,1.4465939999,,,
24.2187500000,3,1.0645140409,,,
24.2343750000,3,0.6952515244,,,
24.2500000000,3,0.3532103896,,,
24.2656250000,3,0.0283813495,,,
24.2812500000,3,-0.2626953125,,,
24.2968750000,3,-0.4666137993,,,
24.3125000000,3,-0.5172119141,,,
24.3281250000,3,-0.4035033882,,,
24.3437500000,3,-0.1948852986,,,
24.3593750000,3,-0.0199584998,,,
24.3750000000,3,0.0035400391,,,
24.3906250000,3,-0.1890868992,,,
24.4062500000,3,-0.5499268174,,,
24.4218750000,3,-0.9607543945,,,
24.4375000000,3,-1.3084720373,,,
24.4531250000,3,-1.5210570097,,,
24.4687500000,3,-1.5937500000,,,
24.4843750000,3,-1.5804439783,,,
24.5000000000,3,-1.5548100471,,,
24.5156250000,3,-1.5572509766,,,
24.5312500000,3,-1.5916140079,,,
24.5468750000,3,-1.6148070097,,,
24.5625000000,3,-1.5718380213,,,
24.5781250000,3,-1.4097900391,,,
24.5937500000,3,-1.1056519747,,,
24.6093750000,3,-0.6676024795,,,
24.6250000000,3,-0.1547852010,,,
24.6406250000,3,0.3454590142,,,
24.6562500000,3,0.7466431260,,,
24.6718750000,3,0.9690551758,,,
24.6875000000,3,0.9777832031,,,
24.7031250000,3,0.8120728135,,,
24.7187500000,3,0.5655518174,,,
24.7343750000,3,0.3399047852,,,
24.7500000000,3,0.2365722954,,,
24.7656250000,3,0.2971191108,,,
24.7812500000,3,0.4781494141,,,
24.7968750000,3,0.6701660156,,,
24.8125000000,3,0.7445678711,,,
24.8281250000,3,0.6184082031,,,
24.8437500000,3,0.2821044922,,,
24.8593750000,3,-0.1752929986,,,
24.8750000000,3,-0.6218261719,,,
24.8906250000,3,-0.9364014268,,,
24.9062500000,3,-1.0519410372,,,
24.9218750000,3,-0.9401854873,,,
24.9375000000,3,-0.5989990234,,,
24.9531250000,3,-0.0471191406,,,
24.9687500000,3,0.6619873047,,,
24.9843750000,3,1.4110720158,,,
25.0000000000,3,2.0200810432,,,
25.0156250000,3,2.2844240665,,,
25.0312500000,3,2.0877079964,,,
25.0468750000,3,1.4609990120,,,
25.0625000000,3,0.5841674805,,,
25.0781250000,3,-0.2747192085,,,
25.0937500000,3,-0.8948975205,,,
25.1093750000,3,-1.1807860136,,,
25.1250000000,3,-1.1783449650,,,
25.1406250000,3,-1.0224000216,,,
25.1562500000,3,-0.8474730849,,,
25.1718750000,3,-0.7157592773,,,
25.1875000000,3,-0.6239624023,,,
25.2031250000,3,-0.5298461914,,,
25.2187500000,3,-0.3942261040,,,
25.2343750000,3,-0.2207030952,,,
25.2500000000,3,-0.0361328088,,,
25.2656250000,3,0.1238403022,,,
25.2812500000,3,0.2571411133,,,
25.2968750000,3,0.3763428032,,,
25.3125000000,3,0.5217285156,,,
25.3281250000,3,0.7248535156,,,
25.3437500000,3,0.9723510742,,,
25.3593750000,3,1.2103270292,,,
25.3750000000,3,1.3640749454,,,
25.3906250000,3,1.3803100586,,,
25.4062500000,3,1.2624510527,,,
25.4218750000,3,1.0729980469,,,
25.4375000000,3,0.9188842773,,,
25.4531250000,3,0.8872681260,,,
25.4687500000,3,0.9990233779,,,
25.4843750000,3,1.1893919706,,,
25.5000000000,3,1.3507080078,,,
25.5156250000,3,1.3640749454,,,
25.5312500000,3,1.1807860136,,,
25.5468750000,3,0.8103638291,,,
25.5625000000,3,0.3111571968,,,
25.5781250000,3,-0.2168578953,,,
25.5937500000,3,-0.6684569716,,,
25.6093750000,3,-0.9538574219,,,
25.6250000000,3,-1.0051879883,,,
25.6406250000,3,-0.8074340820,,,
25.6562500000,3,-0.4331054986,,,
25.6718750000,3,-0.0256347694,,,
25.6875000000,3,0.2301024944,,,
25.7031250000,3,0.1931762993,,,
25.7187500000,3,-0.1683350056,,,
25.7343750000,3,-0.7457274795,,,
25.7500000000,3,-1.3162230253,,,
25.7656250000,3,-1.6599119902,,,
25.7812500000,3,-1.6431269646,,,
25.7968750000,3,-1.3287960291,,,
25.8125000000,3,-0.9253540039,,,
25.8281250000,3,-0.6896973252,,,
25.8437500000,3,-0.7694091797,,,
25.8593750000,3,-1.1279300451,,,
25.8750000000,3,-1.5526119471,,,
25.8906250000,3,-1.8045649529,,,
25.9062500000,3,-1.7362669706,,,
25.9218750000,3,-1.3955689669,,,
25.9375000000,3,-0.9807739258,,,
25.9531250000,3,-0.6931151748,,,
25.9687500000,3,-0.6117553711,,,
25.9843750000,3,-0.6569824219,,,
26.0000000000,3,-0.6503295898,,,
26.0156250000,3,-0.4679565132,,,
26.0312500000,3,-0.1105957031,,,
26.0468750000,3,0.2955321968,,,
26.0625000000,3,0.6035156250,,,
26.0781250000,3,0.7360228896,,,
26.0937500000,3,0.7346190810,,,
26.1093750000,3,0.6830443740,,,
26.1250000000,3,0.6268920898,,,
26.1406250000,3,0.5469359756,,,
26.1562500000,3,0.3740234077,,,
26.1718750000,3,0.0798950195,,,
26.1875000000,3,-0.2896117866,,,
26.2031250000,3,-0.6271973252,,,
26.2187500000,3,-0.8257446289,,,
26.2343750000,3,-0.8607788086,,,
26.2500000000,3,-0.7853394151,,,
26.2656250000,3,-0.6765747070,,,
26.2812500000,3,-0.5681763291,,,
26.2968750000,3,-0.4236449897,,,
26.3125000000,3,-0.1746826023,,,
26.3281250000,3,0.2021483928,,,
26.3437500000,3,0.6373900771,,,
26.3593750000,3,0.9865723252,,,
26.3750000000,3,1.1314699650,,,
26.3906250000,3,1.0200200081,,,
26.4062500000,3,0.7383422852,,,
26.4218750000,3,0.4396972954,,,
26.4375000000,3,0.2422485054,,,
26.4531250000,3,0.1777953953,,,
26.4687500000,3,0.1854248047,,,
26.4843750000,3,0.1746826023,,,
26.5000000000,3,0.0969238281,,,
26.5156250000,3,-0.0307617206,,,
26.5312500000,3,-0.1445312947,,,
26.5468750000,3,-0.1996459961,,,
26.5625000000,3,-0.2015991062,,,
26.5781250000,3,-0.2110596001,,,
26.5937500000,3,-0.2815552056,,,
26.6093750000,3,-0.4105834961,,,
26.6250000000,3,-0.5582274795,,,
26.6406250000,3,-0.6423339844,,,
26.6562500000,3,-0.6168212891,,,
26.6718750000,3,-0.4876708984,,,
26.6875000000,3,-0.2999877930,,,
26.7031250000,3,-0.1192016974,,,
26.7187500000,3,0.0308227502,,,
26.7343750000,3,0.1475829929,,,
26.7500000000,3,0.2493896037,,,
26.7656250000,3,0.3583984077,,,
26.7812500000,3,0.4934692085,,,
26.7968750000,3,0.6582642198,,,
26.8125000000,3,0.8381348252,,,
26.8281250000,3,1.0026249886,,,
26.8437500000,3,1.0881350040,,,
26.8593750000,3,1.0511469841,,,
26.8750000000,3,0.8977661133,,,
26.8906250000,3,0.6733397841,,,
26.9062500000,3,0.4562377930,,,
26.9218750000,3,0.3065186143,,,
26.9375000000,3,0.2341309041,,,
26.9531250000,3,0.1792602986,,,
26.9687500000,3,0.0396118201,,,
26.9843750000,3,-0.2653808892,,,
27.0000000000,3,-0.7448120117,,,
27.0156250000,3,-1.3153079748,,,
27.0312500000,3,-1.8282469511,,,
27.0468750000,3,-2.1233520508,,,
27.0625000000,3,-2.0969851017,,,
27.0781250000,3,-1.7593380213,,,
27.0937500000,3,-1.2162480354,,,
27.1093750000,3,-0.6094970703,,,
27.1250000000,3,-0.0868530273,,,
27.1406250000,3,0.2762450874,,,
27.1562500000,3,0.4663695991,,,
27.1718750000,3,0.5238037109,,,
27.1875000000,3,0.5252686143,,,
27.2031250000,3,0.5559082031,,,
27.2187500000,3,0.6815186143,,,
27.2343750000,3,0.9250488281,,,
27.2500000000,3,1.2539670467,,,
27.2656250000,3,1.5614010096,,,
27.2812500000,3,1.7074580193,,,
27.2968750000,3,1.5763549805,,,
27.3125000000,3,1.1675419807,,,
27.3281250000,3,0.6195067763,,,
27.3437500000,3,0.1399535984,,,
27.3593750000,3,-0.0732421875,,,
27.3750000000,3,0.0438842811,,,
27.3906250000,3,0.3815917969,,,
27.4062500000,3,0.7318115234,,,
27.4218750000,3,0.9149780273,,,
27.4375000000,3,0.8501586914,,,
27.4531250000,3,0.5871582031,,,
27.4687500000,3,0.2098388970,,,
27.4843750000,3,-0.2155151069,,,
27.5000000000,3,-0.6873168945,,,
27.5156250000,3,-1.2042239904,,,
27.5312500000,3,-1.7161250114,,,
27.5468750000,3,-2.1115720272,,,
27.5625000000,3,-2.2550048828,,,
27.5781250000,3,-2.0750119686,,,
27.5937500000,3,-1.6080319881,,,
27.6093750000,3,-1.0093990564,,,
27.6250000000,3,-0.4721679986,,,
27.6406250000,3,-0.1252440959,,,
27.6562500000,3,0.0066528320,,,
27.6718750000,3,0.0076904302,,,
27.6875000000,3,-0.0013427730,,,
27.7031250000,3,0.1010131985,,,
27.7187500000,3,0.3461304009,,,
27.7343750000,3,0.7061157227,,,
27.7500000000,3,1.0862430334,,,
27.7656250000,3,1.3898320198,,,
27.7812500000,3,1.5332030058,,,
27.7968750000,3,1.4476319551,,,
27.8125000000,3,1.1247559786,,,
27.8281250000,3,0.5933837891,,,
27.8437500000,3,-0.0720825195,,,
27.8593750000,3,-0.7321776748,,,
27.8750000000,3,-1.2222900391,,,
27.8906250000,3,-1.3942259550,,,
27.9062500000,3,-1.1858520508,,,
27.9218750000,3,-0.6509398818,,,
27.9375000000,3,0.0283203106,,,
27.9531250000,3,0.6441040039,,,
27.9687500000,3,0.9999390244,,,
27.9843750000,3,1.0245360136,,,
28.0000000000,3,0.7648925781,,,
28.0156250000,3,0.3746337891,,,
28.0312500000,3,0.0379638709,,,
28.0468750000,3,-0.0996093825,,,
28.0625000000,3,0.0145263700,,,
28.0781250000,3,0.3090820014,,,
28.0937500000,3,0.6463623047,,,
28.1093750000,3,0.8582764268,,,
28.1250000000,3,0.8433228135,,,
28.1406250000,3,0.6066895127,,,
28.1562500000,3,0.2594603896,,,
28.1718750000,3,-0.0514526404,,,
28.1875000000,3,-0.2304687947,,,
28.2031250000,3,-0.2672728896,,,
28.2187500000,3,-0.2400512993,,,
28.2343750000,3,-0.2156372070,,,
28.2500000000,3,-0.2186278999,,,
28.2656250000,3,-0.1846923977,,,
28.2812500000,3,-0.0385131799,,,
28.2968750000,3,0.2296143025,,,
28.3125000000,3,0.5188599229,,,
28.3281250000,3,0.6807860732,,,
28.3437500000,3,0.5725098252,,,
28.3593750000,3,0.1763305962,,,
28.3750000000,3,-0.3943481147,,,
28.3906250000,3,-0.9464722276,,,
28.4062500000,3,-1.2922970057,,,
28.4218750000,3,-1.3368530273,,,
28.4375000000,3,-1.1102290154,,,
28.4531250000,3,-0.7184448242,,,
28.4687500000,3,-0.3185425103,,,
28.4843750000,3,-0.0172119103,,,
28.5000000000,3,0.1414185017,,,
28.5156250000,3,0.1827393025,,,
28.5312500000,3,0.1776123047,,,
28.5468750000,3,0.2074584961,,,
28.5625000000,3,0.3160400093,,,
28.5781250000,3,0.5017089844,,,
28.5937500000,3,0.7249755859,,,
28.6093750000,3,0.9370117188,,,
28.6250000000,3,1.0964970589,,,
28.6406250000,3,1.1712039709,,,
28.6562500000,3,1.1436159611,,,
28.6718750000,3,1.0087280273,,,
28.6875000000,3,0.7703247070,,,
28.7031250000,3,0.4553833008,,,
28.7187500000,3,0.1160888970,,,
28.7343750000,3,0.4683228135,,,
28.7500000000,3,0.1701660007,,,
28.7656250000,3,-0.2067261040,,,
28.7812500000,3,-0.5412598252,,,
28.7968750000,3,-0.7179564834,,,
28.8125000000,3,-0.6634520888,,,
28.8281250000,3,-0.3865967095,,,
28.8437500000,3,0.0263671894,,,
28.8593750000,3,0.4631347954,,,
28.8750000000,3,0.8215332031,,,
28.8906250000,3,1.0570069551,,,
28.9062500000,3,1.1708979607,,,
28.9218750000,3,1.1995849609,,,
28.9375000000,3,1.1703490019,,,
28.9531250000,3,1.0910029411,,,
28.9687500000,3,0.9487305284,,,
28.9843750000,3,0.7351074219,,,
29.0000000000,3,0.4707641900,,,
29.0156250000,3,0.2139893025,,,
29.0312500000,3,0.0621337891,,,
29.0468750000,3,0.0897216797,,,
29.0625000000,3,0.3021850884,,,
29.0781250000,3,0.6231079102,,,
29.0937500000,3,0.9224854112,,,
29.1093750000,3,1.0765990019,,,
29.1250000000,3,1.0340579748,,,
29.1406250000,3,0.8327636719,,,
29.1562500000,3,0.5565795898,,,
29.1718750000,3,0.2990112007,,,
29.1875000000,3,0.0847778320,,,
29.2031250000,3,-0.0918579102,,,
29.2187500000,3,-0.2579346001,,,
29.2343750000,3,-0.4110718071,,,
29.2500000000,3,-0.5081787109,,,
29.2656250000,3,-0.4991455078,,,
29.2812500000,3,-0.3552856147,,,
29.2968750000,3,-0.1213989034,,,
29.3125000000,3,0.1005249023,,,
29.3281250000,3,0.2019042969,,,
29.3437500000,3,0.1143798977,,,
29.3593750000,3,-0.1510619968,,,
29.3750000000,3,-0.5167235732,,,
29.3906250000,3,-0.8715209961,,,
29.4062500000,3,-1.1213380098,,,
29.4218750000,3,-1.2042850256,,,
29.4375000000,3,-1.1118769646,,,
29.4531250000,3,-0.8588256836,,,
29.4687500000,3,-0.4837036133,,,
29.4843750000,3,-0.0396118201,,,
29.5000000000,3,0.4085083008,,,
29.5156250000,3,0.7683104873,,,
29.5312500000,3,0.9455565810,,,
29.5468750000,3,0.8434448242,,,
29.5625000000,3,0.4236449897,,,
29.5781250000,3,-0.2803955078,,,
29.5937500000,3,-1.1251219511,,,
29.6093750000,3,-1.9103389978,,,
29.6250000000,3,-2.4270629883,,,
29.6406250000,3,-2.5457150936,,,
29.6562500000,3,-2.2901000977,,,
29.6718750000,3,-1.8210450411,,,
29.6875000000,3,-1.3737790585,,,
29.7031250000,3,-1.1159060001,,,
29.7187500000,3,-1.0944210291,,,
29.7343750000,3,-1.2042239904,,,
29.7500000000,3,-1.2796629667,,,
29.7656250000,3,-1.1995849609,,,
29.7812500000,3,-0.9623413086,,,
29.7968750000,3,-0.6479492188,,,
29.8125000000,3,-0.3751831055,,,
29.8281250000,3,-0.1814575046,,,
29.8437500000,3,-0.0207519494,,,
29.8593750000,3,0.1884154975,,,
29.8750000000,3,0.4834595025,,,
29.8906250000,3,0.8068236709,,,
29.9062500000,3,1.0470579863,,,
29.9218750000,3,1.1231080294,,,
29.9375000000,3,1.0391850471,,,
29.9531250000,3,0.8946533203,,,
29.9687500000,3,0.8204345703,,,
29.9843750000,3,0.9108886719,,,
30.0000000000,3,1.1624759436,,,
30.0156250000,3,1.5040279627,,,
30.0312500000,3,1.8198239803,,,
30.0468750000,3,2.0072629452,,,
30.0625000000,3,2.0054929256,,,
30.0781250000,3,1.7956540585,,,
30.0937500000,3,1.4281619787,,,
30.1093750000,3,0.9763793945,,,
30.1250000000,3,0.5236815810,,,
30.1406250000,3,0.1545410007,,,
30.1562500000,3,-0.0825805664,,,
30.1718750000,3,-0.1826172024,,,
30.1875000000,3,-0.1705321968,,,
30.2031250000,3,-0.0540771484,,,
30.2187500000,3,0.1564940959,,,
30.2343750000,3,0.4700928032,,,
30.2500000000,3,0.8630371094,,,
30.2656250000,3,1.2681269646,,,
30.2812500000,3,1.5634770393,,,
30.2968750000,3,1.6272579432,,,
30.3125000000,3,1.3881230354,,,
30.3281250000,3,0.8745117188,,,
30.3437500000,3,0.1975097954,,,
30.3593750000,3,-0.4802246094,,,
30.3750000000,3,-0.9940795898,,,
30.3906250000,3,-1.2398680449,,,
30.4062500000,3,-1.1940920353,,,
30.4218750000,3,-0.9213867188,,,
30.4375000000,3,-0.5363770127,,,
30.4531250000,3,-0.1762084961,,,
30.4687500000,3,0.0656127930,,,
30.4843750000,3,0.1617431939,,,
30.5000000000,3,0.1313477010,,,
30.5156250000,3,0.0092773438,,,
30.5312500000,3,-0.1986083984,,,
30.5468750000,3,-0.5046997070,,,
30.5625000000,3,-0.8988646865,,,
30.5781250000,3,-1.3350830078,,,
30.5937500000,3,-1.6907960176,,,
30.6093750000,3,-1.8414920568,,,
30.6250000000,3,-1.7335820198,,,
30.6406250000,3,-1.4342650175,,,
30.6562500000,3,-1.0916750431,,,
30.6718750000,3,-0.8586425781,,,
30.6875000000,3,-0.8054199219,,,
30.7031250000,3,-0.8717041016,,,
30.7187500000,3,-0.9382935166,,,
30.7343750000,3,-0.9113770127,,,
30.7500000000,3,-0.7778319716,,,
30.7656250000,3,-0.6054688096,,,
30.7812500000,3,-0.4600830078,,,
30.7968750000,3,-0.3596802056,,,
30.8125000000,3,-0.2685546875,,,
30.8281250000,3,-0.1265258938,,,
30.8437500000,3,0.0610961914,,,
30.8593750000,3,0.2301024944,,,
30.8750000000,3,0.2841796875,,,
30.8906250000,3,0.1811522990,,,
30.9062500000,3,-0.0318603516,,,
30.9218750000,3,-0.2580566108,,,
30.9375000000,3,-0.4000853896,,,
30.9531250000,3,-0.4216918945,,,
30.9687500000,3,-0.3533324897,,,
30.9843750000,3,-0.2764892876,,,
31.0000000000,3,-0.2473144978,,,
31.0156250000,3,-0.2957153022,,,
31.0312500000,3,-0.3920898139,,,
31.0468750000,3,-0.4902954102,,,
31.0625000000,3,-0.5272216797,,,
31.0781250000,3,-0.4531250000,,,
31.0937500000,3,-0.2388305962,,,
31.1093750000,3,0.1029663011,,,
31.1250000000,3,0.5283203125,,,
31.1406250000,3,0.9536743164,,,
31.1562500000,3,1.2734990120,,,
31.1718750000,3,1.4198609591,,,
31.1875000000,3,1.3691409826,,,
31.2031250000,3,1.1829220057,,,
31.2187500000,3,0.9585571289,,,
31.2343750000,3,0.8054810166,,,
31.2500000000,3,0.7924193740,,,
31.2656250000,3,0.9169921875,,,
31.2812500000,3,1.1351319551,,,
31.2968750000,3,1.3632199764,,,
31.3125000000,3,1.5084229708,,,
31.3281250000,3,1.5041500330,,,
31.3437500000,3,1.3156739473,,,
31.3593750000,3,0.9593505859,,,
31.3750000000,3,0.4807128906,,,
31.3906250000,3,-0.0579833984,,,
31.4062500000,3,-0.5856934190,,,
31.4218750000,3,-1.0252079964,,,
31.4375000000,3,-1.3047490120,,,
31.4531250000,3,-1.3668819666,,,
31.4687500000,3,-1.1851199865,,,
31.4843750000,3,-0.8069458008,,,
31.5000000000,3,-0.3399657905,,,
31.5156250000,3,0.0838012695,,,
31.5312500000,3,0.3687134087,,,
31.5468750000,3,0.4841918945,,,
31.5625000000,3,0.4697875977,,,
31.5781250000,3,0.3903197944,,,
31.5937500000,3,0.3189086914,,,
31.6093750000,3,0.2836304009,,,
31.6250000000,3,0.3005371094,,,
31.6406250000,3,0.3717041016,,,
31.6562500000,3,0.5045775771,,,
31.6718750000,3,0.7081909180,,,
31.6875000000,3,0.9566040039,,,
31.7031250000,3,1.1899410486,,,
31.7187500000,3,1.3173220158,,,
31.7343750000,3,1.2918699980,,,
31.7500000000,3,1.1184689999,,,
31.7656250000,3,0.8762816787,,,
31.7812500000,3,0.6615601182,,,
31.7968750000,3,0.5363159180,,,
31.8125000000,3,0.4991455078,,,
31.8281250000,3,0.5022583008,,,
31.8437500000,3,0.4807738960,,,
31.8593750000,3,0.3853149116,,,
31.8750000000,3,0.1934203953,,,
31.8906250000,3,-0.0877685472,,,
31.9062500000,3,-0.4265747070,,,
31.9218750000,3,-0.7656859756,,,
31.9375000000,3,-1.0280150175,,,
31.9531250000,3,-1.1589360237,,,
31.9687500000,3,-1.1295169592,,,
31.9843750000,3,-0.9675292969,,,
32.0000000000,4,-0.7402343750,,,
32.0156250000,4,-0.5400391221,,,
32.0312500000,4,-0.4453125000,,,
32.0468750000,4,-0.4729613960,,,
32.0625000000,4,-0.5697020888,,,
32.0781250000,4,-0.6512451172,,,
32.0937500000,4,-0.6400756836,,,
32.1093750000,4,-0.5255126953,,,
32.1250000000,4,-0.3525390923,,,
32.1406250000,4,-0.2036743015,,,
32.1562500000,4,-0.1401367038,,,
32.1718750000,4,-0.1797485054,,,
32.1875000000,4,-0.2763062119,,,
32.2031250000,4,-0.3743895888,,,
32.2187500000,4,-0.4273070991,,,
32.2343750000,4,-0.4225463867,,,
32.2500000000,4,-0.3803100884,,,
32.2656250000,4,-0.3202514946,,,
32.2812500000,4,-0.2653197944,,,
32.2968750000,4,-0.2261352986,,,
32.3125000000,4,-0.2170410007,,,
32.3281250000,4,-0.2389526069,,,
32.3437500000,4,-0.2740479112,,,
32.3593750000,4,-0.2699584961,,,
32.3750000000,4,-0.1579589993,,,
32.3906250000,4,0.1132201999,,,
32.4062500000,4,0.5217896104,,,
32.4218750000,4,0.9483643174,,,
32.4375000000,4,1.2354739904,,,
32.4531250000,4,1.2576899529,,,
32.4687500000,4,1.0083620548,,,
32.4843750000,4,0.5884398818,,,
32.5000000000,4,0.1688231975,,,
32.5156250000,4,-0.1169433966,,,
32.5312500000,4,-0.2327270955,,,
32.5468750000,4,-0.2491454929,,,
32.5625000000,4,-0.2751465142,,,
32.5781250000,4,-0.3699950874,,,
32.5937500000,4,-0.4909057915,,,
32.6093750000,4,-0.5296021104,,,
32.6250000000,4,-0.3865356147,,,
32.6406250000,4,-0.0671997070,,,
32.6562500000,4,0.3007202148,,,
32.6718750000,4,0.5203856826,,,
32.6875000000,4,0.4396362007,,,
32.7031250000,4,0.0244750995,,,
32.7187500000,4,-0.6099854112,,,
32.7343750000,4,-1.2780150175,,,
32.7500000000,4,-1.8002320528,,,
32.7656250000,4,-2.0656740665,,,
32.7812500000,4,-2.0495610237,,,
32.7968750000,4,-1.7827759981,,,
32.8125000000,4,-1.3351440430,,,
32.8281250000,4,-0.7752075195,,,
32.8437500000,4,-0.2025146037,,,
32.8593750000,4,0.2850952148,,,
32.8750000000,4,0.6062622070,,,
32.8906250000,4,0.7490844727,,,
32.9062500000,4,0.7737426758,,,
32.9218750000,4,0.7805786133,,,
32.9375000000,4,0.8482666016,,,
32.9531250000,4,0.9735717773,,,
32.9687500000,4,1.0783690214,,,
32.9843750000,4,1.0484620333,,,
33.0000000000,4,0.8271483779,,,
33.0156250000,4,0.4413452148,,,
33.0312500000,4,-0.0078125000,,,
33.0468750000,4,-0.3812255859,,,
33.0625000000,4,-0.5803223252,,,
33.0781250000,4,-0.5685424805,,,
33.0937500000,4,-0.3756713867,,,
33.1093750000,4,-0.0703735426,,,
33.1250000000,4,0.2614746094,,,
33.1406250000,4,0.5298461914,,,
33.1562500000,4,0.6605834961,,,
33.1718750000,4,0.6027222276,,,
33.1875000000,4,0.3575438857,,,
33.2031250000,4,-0.0230712909,,,
33.2187500000,4,-0.4338988960,,,
33.2343750000,4,-0.7639160156,,,
33.2500000000,4,-0.9265747070,,,
33.2656250000,4,-0.9062500000,,,
33.2812500000,4,-0.7672728896,,,
33.2968750000,4,-0.6172484756,,,
33.3125000000,4,-0.5654907227,,,
33.3281250000,4,-0.6430053711,,,
33.3437500000,4,-0.7966309190,,,
33.3593750000,4,-0.9056395888,,,
33.3750000000,4,-0.8654785156,,,
33.3906250000,4,-0.6380615234,,,
33.4062500000,4,-0.2821044922,,,
33.4218750000,4,0.1040648967,,,
33.4375000000,4,0.4315795898,,,
33.4531250000,4,0.6817626953,,,
33.4687500000,4,0.9020996094,,,
33.4843750000,4,1.1431879997,,,
33.5000000000,4,1.4288330078,,,
33.5156250000,4,1.7123409510,,,
33.5312500000,4,1.8930660486,,,
33.5468750000,4,1.8786009550,,,
33.5625000000,4,1.6360470057,,,
33.5781250000,4,1.1948850155,,,
33.5937500000,4,0.6475830078,,,
33.6093750000,4,0.1026000977,,,
33.6250000000,4,-0.3395996094,,,
33.6406250000,4,-0.6088256836,,,
33.6562500000,4,-0.6649780273,,,
33.6718750000,4,-0.4998778999,,,
33.6875000000,4,-0.1564331055,,,
33.7031250000,4,0.2802734077,,,
33.7187500000,4,0.7143555284,,,
33.7343750000,4,1.0523680449,,,
33.7500000000,4,1.2437130213,,,
33.7656250000,4,1.2761839628,,,
33.7812500000,4,1.1608890295,,,
33.7968750000,4,0.9061890244,,,
33.8125000000,4,0.5305786133,,,
33.8281250000,4,0.0567016602,,,
33.8437500000,4,-0.4403687119,,,
33.8593750000,4,-0.8645020127,,,
33.8750000000,4,-1.1137700081,,,
33.8906250000,4,-1.1331180334,,,
33.9062500000,4,-0.9395142198,,,
33.9218750000,4,-0.6295166016,,,
33.9375000000,4,-0.3423461914,,,
33.9531250000,4,-0.1902465969,,,
33.9687500000,4,-0.2232666016,,,
33.9843750000,4,-0.4174194038,,,
34.0000000000,4,-0.7027587891,,,
34.0156250000,4,-1.0030519962,,,
34.0312500000,4,-1.2665410042,,,
34.0468750000,4,-1.4823609591,,,
34.0625000000,4,-1.6563110352,,,
34.0781250000,4,-1.8129270077,,,
34.0937500000,4,-1.9536130428,,,
34.1093750000,4,-2.0650019646,,,
34.1250000000,4,-2.1191411018,,,
34.1406250000,4,-2.0812990665,,,
34.1562500000,4,-1.9310300350,,,
34.1718750000,4,-1.6529539824,,,
34.1875000000,4,-1.2432249784,,,
34.2031250000,4,-0.7123413086,,,
34.2187500000,4,-0.0727539137,,,
34.2343750000,4,0.6342772841,,,
34.2500000000,4,1.3345340490,,,
34.2656250000,4,1.9222409725,,,
34.2812500000,4,2.3067018986,,,
34.2968750000,4,2.4173579216,,,
34.3125000000,4,2.2567749023,,,
34.3281250000,4,1.8668210506,,,
34.3437500000,4,1.3253779411,,,
34.3593750000,4,0.7374877930,,,
34.3750000000,4,0.2039185017,,,
34.3906250000,4,-0.1974487007,,,
34.4062500000,4,-0.4220581055,,,
34.4218750000,4,-0.4796752930,,,
34.4375000000,4,-0.4327392876,,,
34.4531250000,4,-0.3671875000,,,
34.4687500000,4,-0.3565674126,,,
34.4843750000,4,-0.4025878906,,,
34.5000000000,4,-0.4342651069,,,
34.5156250000,4,-0.3543091118,,,
34.5312500000,4,-0.1107788011,,,
34.5468750000,4,0.2415771037,,,
34.5625000000,4,0.5693969727,,,
34.5781250000,4,0.7173461914,,,
34.5937500000,4,0.6270751953,,,
34.6093750000,4,0.3713988960,,,
34.6250000000,4,0.0854492188,,,
34.6406250000,4,-0.0970458984,,,
34.6562500000,4,-0.1453247070,,,
34.6718750000,4,-0.1248778999,,,
34.6875000000,4,-0.1383666992,,,
34.7031250000,4,-0.2418822944,,,
34.7187500000,4,-0.3941040039,,,
34.7343750000,4,-0.4831542969,,,
34.7500000000,4,-0.4105834961,,,
34.7656250000,4,-0.1627808064,,,
34.7812500000,4,0.1890258938,,,
34.7968750000,4,0.5114746094,,,
34.8125000000,4,0.7130736709,,,
34.8281250000,4,0.7852172852,,,
34.8437500000,4,0.7813720703,,,
34.8593750000,4,0.7950438857,,,
34.8750000000,4,0.8851317763,,,
34.8906250000,4,1.0480959415,,,
34.9062500000,4,1.2265629768,,,
34.9218750000,4,1.3465579748,,,
34.9375000000,4,1.3529659510,,,
34.9531250000,4,1.2420040369,,,
34.9687500000,4,1.0367430449,,,
34.9843750000,4,0.7697753906,,,
35.0000000000,4,0.4614867866,,,
35.0156250000,4,0.1313477010,,,
35.0312500000,4,-0.2045897990,,,
35.0468750000,4,-0.4934692085,,,
35.0625000000,4,-0.6499633789,,,
35.0781250000,4,-0.6056519151,,,
35.0937500000,4,-0.3376465142,,,
35.1093750000,4,0.0913696289,,,
35.1250000000,4,0.5139771104,,,
35.1406250000,4,0.7410277724,,,
35.1562500000,4,0.6260985732,,,
35.1718750000,4,0.1582642049,,,
35.1875000000,4,-0.5290526748,,,
35.2031250000,4,-1.2050780058,,,
35.2187500000,4,-1.6538699865,,,
35.2343750000,4,-1.7429200411,,,
35.2500000000,4,-1.4964599609,,,
35.2656250000,4,-1.0571290255,,,
35.2812500000,4,-0.6165161133,,,
35.2968750000,4,-0.3157958984,,,
35.3125000000,4,-0.1922606975,,,
35.3281250000,4,-0.1821898967,,,
35.3437500000,4,-0.1641235054,,,
35.3593750000,4,-0.0645752028,,,
35.3750000000,4,0.1182861030,,,
35.3906250000,4,0.2996825874,,,
35.4062500000,4,0.3892211914,,,
35.4218750000,4,0.3428955078,,,
35.4375000000,4,0.1892700046,,,
35.4531250000,4,0.0117797898,,,
35.4687500000,4,-0.1191406026,,,
35.4843750000,4,-0.1846313030,,,
35.5000000000,4,-0.2364501953,,,
35.5156250000,4,-0.3376465142,,,
35.5312500000,4,-0.5167847276,,,
35.5468750000,4,-0.7457885742,,,
35.5625000000,4,-0.9491577148,,,
35.5781250000,4,-1.0449830294,,,
35.5937500000,4,-0.9907836914,,,
35.6093750000,4,-0.8004760742,,,
35.6250000000,4,-0.5117797852,,,
35.6406250000,4,-0.1611938030,,,
35.6562500000,4,0.2398070991,,,
35.6718750000,4,0.6661986709,,,
35.6875000000,4,1.0594480038,,,
35.7031250000,4,1.3253779411,,,
35.7187500000,4,1.3457640409,,,
35.7343750000,4,1.0746459961,,,
35.7500000000,4,0.5498046875,,,
35.7656250000,4,-0.0708007813,,,
35.7812500000,4,-0.5840454102,,,
35.7968750000,4,-0.8121948242,,,
35.8125000000,4,-0.6887816787,,,
35.8281250000,4,-0.3004150093,,,
35.8437500000,4,0.1963500977,,,
35.8593750000,4,0.6193236709,,,
35.8750000000,4,0.8653563857,,,
35.8906250000,4,0.8914794922,,,
35.9062500000,4,0.7460327148,,,
35.9218750000,4,0.4845581055,,,
35.9375000000,4,0.1493529975,,,
35.9531250000,4,-0.2317505032,,,
35.9687500000,4,-0.6184691787,,,
35.9843750000,4,-0.9479979873,,,
36.0000000000,4,-1.1762700081,,,
36.0156250000,4,-1.2870479822,,,
36.0312500000,4,-1.3083499670,,,
36.0468750000,4,-1.2882690430,,,
36.0625000000,4,-1.2700810432,,,
36.0781250000,4,-1.2421259880,,,
36.0937500000,4,-1.1643680334,,,
36.1093750000,4,1.4284060001,,,
36.1250000000,4,1.2650760412,,,
36.1406250000,4,0.8367919922,,,
36.1562500000,4,0.2539672852,,,
36.1718750000,4,-0.2976684868,,,
36.1875000000,4,-0.6524658203,,,
36.2031250000,4,-0.7155761719,,,
36.2187500000,4,-0.4990234077,,,
36.2343750000,4,-0.1198730022,,,
36.2500000000,4,0.2497559041,,,
36.2656250000,4,0.4555054009,,,
36.2812500000,4,0.4151611030,,,
36.2968750000,4,0.1709595025,,,
36.3125000000,4,-0.1497191936,,,
36.3281250000,4,-0.4196777046,,,
36.3437500000,4,-0.5512694716,,,
36.3593750000,4,-0.5416870117,,,
36.3750000000,4,-0.4400024116,,,
36.3906250000,4,-0.3159790039,,,
36.4062500000,4,-0.2221679986,,,
36.4218750000,4,-0.2224120945,,,
36.4375000000,4,-0.3683471978,,,
36.4531250000,4,-0.7194213867,,,
36.4687500000,4,-1.2699580193,,,
36.4843750000,4,-1.9255980253,,,
36.5000000000,4,-2.5227661133,,,
36.5156250000,4,-2.8679809570,,,
36.5312500000,4,-2.8569340706,,,
36.5468750000,4,-2.5056760311,,,
36.5625000000,4,-1.9466550350,,,
36.5781250000,4,-1.3375240564,,,
36.5937500000,4,-0.7751464844,,,
36.6093750000,4,-0.2723388970,,,
36.6250000000,4,0.2036132962,,,
36.6406250000,4,0.6528319716,,,
36.6562500000,4,0.9925537109,,,
36.6718750000,4,1.1009520292,,,
36.6875000000,4,0.9041138291,,,
36.7031250000,4,0.4415893853,,,
36.7187500000,4,-0.1272583008,,,
36.7343750000,4,-0.6041870117,,,
36.7500000000,4,-0.8261718750,,,
36.7656250000,4,-0.7354125977,,,
36.7812500000,4,-0.3899536133,,,
36.7968750000,4,0.0858764574,,,
36.8125000000,4,0.5500488281,,,
36.8281250000,4,0.8958740234,,,
36.8437500000,4,1.0858759880,,,
36.8593750000,4,1.1430660486,,,
36.8750000000,4,1.1167600155,,,
36.8906250000,4,1.0645749569,,,
36.9062500000,4,0.9996337891,,,
36.9218750000,4,0.8923950195,,,
36.9375000000,4,0.7088623047,,,
36.9531250000,4,0.4043579102,,,
36.9687500000,4,-0.0034179690,,,
36.9843750000,4,-0.4252929986,,,
37.0000000000,4,-0.7401732802,,,
37.0156250000,4,-0.8278809190,,,
37.0312500000,4,-0.6486206055,,,
37.0468750000,4,-0.2723999023,,,
37.0625000000,4,0.1459351033,,,
37.0781250000,4,0.4295653999,,,
37.0937500000,4,0.4597778022,,,
37.1093750000,4,0.2382201999,,,
37.1250000000,4,-0.1273193061,,,
37.1406250000,4,-0.4578857124,,,
37.1562500000,4,-0.6116333008,,,
37.1718750000,4,-0.5227050781,,,
37.1875000000,4,-0.2571411133,,,
37.2031250000,4,0.0470581092,,,
37.2187500000,4,0.2528075874,,,
37.2343750000,4,0.2785033882,,,
37.2500000000,4,0.1343383938,,,
37.2656250000,4,-0.1151122972,,,
37.2812500000,4,-0.4146117866,,,
37.2968750000,4,-0.7171630859,,,
37.3125000000,4,-0.9957274795,,,
37.3281250000,4,-1.2129520178,,,
37.3437500000,4,-1.3060300350,,,
37.3593750000,4,-1.2086180449,,,
37.3750000000,4,-0.9141234756,,,
37.3906250000,4,-0.4833374023,,,
37.4062500000,4,-0.0349121094,,,
37.4218750000,4,0.3301391900,,,
37.4375000000,4,0.5910034180,,,
37.4531250000,4,0.7995604873,,,
37.4687500000,4,1.0277709961,,,
37.4843750000,4,1.3088380098,,,
37.5000000000,4,1.5859990120,,,
37.5156250000,4,1.7440799475,,,
37.5312500000,4,1.7008670568,,,
37.5468750000,4,1.4547120333,,,
37.5625000000,4,1.0959470272,,,
37.5781250000,4,0.7421265244,,,
37.5937500000,4,0.4777832031,,,
37.6093750000,4,0.3067626953,,,
37.6250000000,4,0.1787108928,,,
37.6406250000,4,0.0554199181,,,
37.6562500000,4,-0.0803222731,,,
37.6718750000,4,-0.1799927056,,,
37.6875000000,4,-0.1928710938,,,
37.7031250000,4,-0.1005859002,,,
37.7187500000,4,0.0585937500,,,
37.7343750000,4,0.2248535007,,,
37.7500000000,4,0.3226929009,,,
37.7656250000,4,0.3287354112,,,
37.7812500000,4,0.2437743992,,,
37.7968750000,4,0.1027221978,,,
37.8125000000,4,-0.0599975586,,,
37.8281250000,4,-0.2462158054,,,
37.8437500000,4,-0.4769287109,,,
37.8593750000,4,-0.7761229873,,,
37.8750000000,4,-1.1239010096,,,
37.8906250000,4,-1.4620360136,,,
37.9062500000,4,-1.7082519531,,,
37.9218750000,4,-1.8171390295,,,
37.9375000000,4,-1.7849730253,,,
37.9531250000,4,-1.6516720057,,,
37.9687500000,4,-1.4614870548,,,
37.9843750000,4,-1.2171629667,,,
38.0000000000,4,-0.8941649795,,,
38.0156250000,4,-0.4780884087,,,
38.0312500000,4,-0.0050659180,,,
38.0468750000,4,0.4486083984,,,
38.0625000000,4,0.7940062881,,,
38.0781250000,4,0.9740601182,,,
38.0937500000,4,1.0048220158,,,
38.1093750000,4,0.9362792969,,,
38.1250000000,4,0.8284301758,,,
38.1406250000,4,0.7127075195,,,
38.1562500000,4,0.6035767198,,,
38.1718750000,4,0.5161743164,,,
38.1875000000,4,0.5032958984,,,
38.2031250000,4,0.6098021865,,,
38.2187500000,4,0.8204345703,,,
38.2343750000,4,1.0390009880,,,
38.2500000000,4,1.0983890295,,,
38.2656250000,4,0.8860474229,,,
38.2812500000,4,0.4059447944,,,
38.2968750000,4,-0.1972046047,,,
38.3125000000,4,-0.6905518174,,,
38.3281250000,4,-0.8939818740,,,
38.3437500000,4,-0.7753906250,,,
38.3593750000,4,-0.4627686143,,,
38.3750000000,4,-0.1611327976,,,
38.3906250000,4,-0.0462036096,,,
38.4062500000,4,-0.1586914063,,,
38.4218750000,4,-0.4290161133,,,
38.4375000000,4,-0.7200316787,,,
38.4531250000,4,-0.9408568740,,,
38.4687500000,4,-1.0550539494,,,
38.4843750000,4,-1.0866700411,,,
38.5000000000,4,-1.0573730469,,,
38.5156250000,4,-0.9526367188,,,
38.5312500000,4,-0.7416381836,,,
38.5468750000,4,-0.4074707031,,,
38.5625000000,4,0.0025024409,,,
38.5781250000,4,0.3829956055,,,
38.5937500000,4,0.6156005859,,,
38.6093750000,4,0.6198729873,,,
38.6250000000,4,0.3975830078,,,
38.6406250000,4,0.0113525400,,,
38.6562500000,4,-0.4282836914,,,
38.6718750000,4,-0.8087769151,,,
38.6875000000,4,-1.0493160486,,,
38.7031250000,4,-1.0974730253,,,
38.7187500000,4,-0.9516602159,,,
38.7343750000,4,-0.6651000977,,,
38.7500000000,4,-0.3072510064,,,
38.7656250000,4,0.0513305701,,,
38.7812500000,4,0.3591918945,,,
38.7968750000,4,0.5895996094,,,
38.8125000000,4,0.7540894151,,,
38.8281250000,4,0.8741455078,,,
38.8437500000,4,0.9539185166,,,
38.8593750000,4,0.9844359756,,,
38.8750000000,4,0.9642943740,,,
38.8906250000,4,0.9038696289,,,
38.9062500000,4,0.8513184190,,,
38.9218750000,4,0.8455200195,,,
38.9375000000,4,0.9115601182,,,
38.9531250000,4,1.0183720589,,,
38.9687500000,4,1.0996700525,,,
38.9843750000,4,1.0902709961,,,
39.0000000000,4,0.9760742188,,,
39.0156250000,4,0.8041992188,,,
39.0312500000,4,0.6530761719,,,
39.0468750000,4,0.6057128906,,,
39.0625000000,4,0.6830443740,,,
39.0781250000,4,0.8425902724,,,
39.0937500000,4,0.9740601182,,,
39.1093750000,4,0.9615479112,,,
39.1250000000,4,0.7496337891,,,
39.1406250000,4,0.3724975884,,,
39.1562500000,4,-0.0433349609,,,
39.1718750000,4,-0.3422240913,,,
39.1875000000,4,-0.4374389946,,,
39.2031250000,4,-0.3473511040,,,
39.2187500000,4,-0.1821898967,,,
39.2343750000,4,-0.0901489332,,,
39.2500000000,4,-0.1495361030,,,
39.2656250000,4,-0.3204346001,,,
39.2812500000,4,-0.4756470025,,,
39.2968750000,4,-0.4912720025,,,
39.3125000000,4,-0.3338012993,,,
39.3281250000,4,-0.0752563477,,,
39.3437500000,4,0.1403809041,,,
39.3593750000,4,0.1957397014,,,
39.3750000000,4,0.0702514574,,,
39.3906250000,4,-0.1642456055,,,
39.4062500000,4,-0.4000244141,,,
39.4218750000,4,-0.5603638291,,,
39.4375000000,4,-0.6266478896,,,
39.4531250000,4,-0.6244506836,,,
39.4687500000,4,-0.5963134766,,,
39.4843750000,4,-0.5796508789,,,
39.5000000000,4,-0.6136475205,,,
39.5156250000,4,-0.7421875000,,,
39.5312500000,4,-0.9902954102,,,
39.5468750000,4,-1.3318480253,,,
39.5625000000,4,-1.6734620333,,,
39.5781250000,4,-1.8857419491,,,
39.5937500000,4,-1.8703609705,,,
39.6093750000,4,-1.6198730469,,,
39.6250000000,4,-1.2329100370,,,
39.6406250000,4,-0.8618773818,,,
39.6562500000,4,-0.6279907227,,,
39.6718750000,4,-0.5615844727,,,
39.6875000000,4,-0.5975952148,,,
39.7031250000,4,-0.6538085938,,,
39.7187500000,4,-0.6739501953,,,
39.7343750000,4,-0.6634520888,,,
39.7500000000,4,-0.6715698242,,,
39.7656250000,4,-0.7055053711,,,
39.7812500000,4,-0.7274780273,,,
39.7968750000,4,-0.6624755859,,,
39.8125000000,4,-0.4451293945,,,
39.8281250000,4,-0.0668945313,,,
39.8437500000,4,0.4190674126,,,
39.8593750000,4,0.9196776748,,,
39.8750000000,4,1.3228759766,,,
39.8906250000,4,1.5391240120,,,
39.9062500000,4,1.5117800236,,,
39.9218750000,4,1.2439579964,,,
39.9375000000,4,0.8101807237,,,
39.9531250000,4,0.3360596001,,,
39.9687500000,4,-0.0441894494,,,
39.9843750000,4,-0.2319945991,,,
40.0000000000,5,-0.1975708008,,,
40.0156250000,5,0.0042114258,,,
40.0312500000,5,0.2977904975,,,
40.0468750000,5,0.6031494141,,,
40.0625000000,5,0.9061279297,,,
40.0781250000,5,1.1867070198,,,
40.0937500000,5,1.4140009880,,,
40.1093750000,5,1.5174560547,,,
40.1250000000,5,1.4005130529,,,
40.1406250000,5,1.0337519646,,,
40.1562500000,5,0.4970703125,,,
40.1718750000,5,-0.0228271503,,,
40.1875000000,5,-0.3331299126,,,
40.2031250000,5,-0.3336791992,,,
40.2187500000,5,-0.0868530273,,,
40.2343750000,5,0.2403564006,,,
40.2500000000,5,0.4593505859,,,
40.2656250000,5,0.4952392876,,,
40.2812500000,5,0.4195556939,,,
40.2968750000,5,0.3908081055,,,
40.3125000000,5,0.5407714844,,,
40.3281250000,5,0.8584594727,,,
40.3437500000,5,1.1785279512,,,
40.3593750000,5,1.2800899744,,,
40.3750000000,5,1.0258179903,,,
40.3906250000,5,0.4573363960,,,
40.4062500000,5,-0.2269897014,,,
40.4218750000,5,-0.7887573242,,,
40.4375000000,5,-1.0858149529,,,
40.4531250000,5,-1.1326899529,,,
40.4687500000,5,-1.0568239689,,,
40.4843750000,5,-0.9889525771,,,
40.5000000000,5,-0.9833983779,,,
40.5156250000,5,-0.9937133789,,,
40.5312500000,5,-0.9259644151,,,
40.5468750000,5,-0.7583618164,,,
40.5625000000,5,-0.5173339844,,,
40.5781250000,5,-0.3073729873,,,
40.5937500000,5,-0.2087402046,,,
40.6093750000,5,-0.2127075046,,,
40.6250000000,5,-0.2517090142,,,
40.6406250000,5,-0.2407227010,,,
40.6562500000,5,-0.1463012993,,,
40.6718750000,5,-0.0001220703,,,
40.6875000000,5,0.1334228963,,,
40.7031250000,5,0.2172852010,,,
40.7187500000,5,0.2442017049,,,
40.7343750000,5,0.2487792969,,,
40.7500000000,5,0.2539672852,,,
40.7656250000,5,0.2578125000,,,
40.7812500000,5,0.2463379055,,,
40.7968750000,5,0.2136840969,,,
40.8125000000,5,0.1722411960,,,
40.8281250000,5,0.1538085938,,,
40.8437500000,5,0.1874389946,,,
40.8593750000,5,0.2761841118,,,
40.8750000000,5,0.3980103135,,,
40.8906250000,5,0.5145264268,,,
40.9062500000,5,0.5729979873,,,
40.9218750000,5,0.5325927734,,,
40.9375000000,5,0.3817749023,,,
40.9531250000,5,0.1433715969,,,
40.9687500000,5,-0.1134644002,,,
40.9843750000,5,-0.2951050103,,,
41.0000000000,5,-0.3310546875,,,
41.0156250000,5,-0.2195435017,,,
41.0312500000,5,-0.0357055701,,,
41.0468750000,5,0.0941162109,,,
41.0625000000,5,0.0771484375,,,
41.0781250000,5,-0.0701293871,,,
41.0937500000,5,-0.2485962063,,,
41.1093750000,5,-0.3067626953,,,
41.1250000000,5,-0.1519165039,,,
41.1406250000,5,0.1928101033,,,
41.1562500000,5,0.6061400771,,,
41.1718750000,5,0.9409790039,,,
41.1875000000,5,1.1159670353,,,
41.2031250000,5,1.1080319881,,,
41.2187500000,5,0.9553223252,,,
41.2343750000,5,0.7089843750,,,
41.2500000000,5,0.3897705078,,,
41.2656250000,5,0.0239257794,,,
41.2812500000,5,-0.3500365913,,,
41.2968750000,5,-0.6650391221,,,
41.3125000000,5,-0.8613892198,,,
41.3281250000,5,-0.9241942763,,,
41.3437500000,5,-0.8859252930,,,
41.3593750000,5,-0.8096312881,,,
41.3750000000,5,-0.7542114258,,,
41.3906250000,5,-0.7264404297,,,
41.4062500000,5,-0.6937866211,,,
41.4218750000,5,-0.6052246094,,,
41.4375000000,5,-0.4486694038,,,
41.4531250000,5,-0.2495727986,,,
41.4687500000,5,-0.0751342773,,,
41.4843750000,5,0.0241088904,,,
41.5000000000,5,0.0511474609,,,
41.5156250000,5,0.0405273400,,,
41.5312500000,5,0.0254516602,,,
41.5468750000,5,0.0117797898,,,
41.5625000000,5,-0.0394897498,,,
41.5781250000,5,-0.1713256985,,,
41.5937500000,5,-0.4046630859,,,
41.6093750000,5,-0.6978759766,,,
41.6250000000,5,-0.9604492188,,,
41.6406250000,5,-1.0886839628,,,
41.6562500000,5,-1.0346679688,,,
41.6718750000,5,-0.8094481826,,,
41.6875000000,5,-0.4633789063,,,
41.7031250000,5,-0.0798339769,,,
41.7187500000,5,0.2887572944,,,
41.7343750000,5,0.6182860732,,,
41.7500000000,5,0.8875731826,,,
41.7656250000,5,1.0669560432,,,
41.7812500000,5,1.1032710075,,,
41.7968750000,5,0.9644165039,,,
41.8125000000,5,0.6830443740,,,
41.8281250000,5,0.3529053032,,,
41.8437500000,5,0.0986938477,,,
41.8593750000,5,0.0111084003,,,
41.8750000000,5,0.0775146484,,,
41.8906250000,5,0.1955565959,,,
41.9062500000,5,0.2081298977,,,
41.9218750000,5,0.0185546894,,,
41.9375000000,5,-0.3682250977,,,
41.9531250000,5,-0.8181151748,,,
41.9687500000,5,-1.1333620548,,,
41.9843750000,5,-1.1569819450,,,
42.0000000000,5,-0.8696898818,,,
42.0156250000,5,-0.3872680962,,,
42.0312500000,5,0.0850219727,,,
42.0468750000,5,0.3647460938,,,
42.0625000000,5,0.4071654975,,,
42.0781250000,5,0.2984009087,,,
42.0937500000,5,0.1724853963,,,
42.1093750000,5,0.1325072944,,,
42.1250000000,5,0.1751708984,,,
42.1406250000,5,0.2165527046,,,
42.1562500000,5,0.1512451023,,,
42.1718750000,5,-0.0579223596,,,
42.1875000000,5,-0.3479613960,,,
42.2031250000,5,-0.5857543945,,,
42.2187500000,5,-0.6415405273,,,
42.2343750000,5,-0.4931029975,,,
42.2500000000,5,-0.2286376953,,,
42.2656250000,5,-0.0049438481,,,
42.2812500000,5,0.0758666992,,,
42.2968750000,5,0.0344238319,,,
42.3125000000,5,0.0186767597,,,
42.3281250000,5,0.2012939006,,,
42.3437500000,5,0.6365355849,,,
42.3593750000,5,1.1904300451,,,
42.3750000000,5,1.5838619471,,,
42.3906250000,5,1.5612180233,,,
42.4062500000,5,1.0403439999,,,
42.4218750000,5,0.2071533054,,,
42.4375000000,5,-0.5850830078,,,
42.4531250000,5,-1.0110470057,,,
42.4687500000,5,-0.9591063857,,,
42.4843750000,5,-0.5798950195,,,
42.5000000000,5,-0.1993408054,,,
42.5156250000,5,-0.1064452976,,,
42.5312500000,5,-0.3944092095,,,
42.5468750000,5,-0.9329833984,,,
42.5625000000,5,-1.4650880098,,,
42.5781250000,5,-1.7770390511,,,
42.5937500000,5,-1.8062740564,,,
42.6093750000,5,-1.6213990450,,,
42.6250000000,5,-1.3695679903,,,
42.6406250000,5,-1.1528929472,,,
42.6562500000,5,-0.9722290039,,,
42.6718750000,5,-0.7446289063,,,
42.6875000000,5,-0.3934325874,,,
42.7031250000,5,0.1102904975,,,
42.7187500000,5,0.7078247070,,,
42.7343750000,5,1.2822879553,,,
42.7500000000,5,1.7333370447,,,
42.7656250000,5,2.0221560001,,,
42.7812500000,5,2.1712040901,,,
42.7968750000,5,2.2281489372,,,
42.8125000000,5,2.2171630859,,,
42.8281250000,5,2.1126101017,,,
42.8437500000,5,1.8782960176,,,
42.8593750000,5,1.4938960075,,,
42.8750000000,5,1.0010379553,,,
42.8906250000,5,0.5021361709,,,
42.9062500000,5,0.1035766974,,,
42.9218750000,5,-0.1336060017,,,
42.9375000000,5,-0.2270507962,,,
42.9531250000,5,-0.2562865913,,,
42.9687500000,5,-0.3118286133,,,
42.9843750000,5,-0.4246825874,,,
43.0000000000,5,-0.5658568740,,,
43.0156250000,5,-0.6540526748,,,
43.0312500000,5,-0.6038208008,,,
43.0468750000,5,-0.3676146865,,,
43.0625000000,5,0.0321655311,,,
43.0781250000,5,0.4967041016,,,
43.0937500000,5,0.8847656250,,,
43.1093750000,5,1.0566409826,,,
43.1250000000,5,0.9276123047,,,
43.1406250000,5,0.5115966797,,,
43.1562500000,5,-0.0809936523,,,
43.1718750000,5,-0.6813353896,,,
43.1875000000,5,-1.1495970488,,,
43.2031250000,5,-1.4069819450,,,
43.2187500000,5,-1.4519649744,,,
43.2343750000,5,-1.3267209530,,,
43.2500000000,5,-1.0712889433,,,
43.2656250000,5,-0.7108765244,,,
43.2812500000,5,-0.2695313096,,,
43.2968750000,5,0.1829833984,,,
43.3125000000,5,0.5479735732,,,
43.3281250000,5,0.7160034180,,,
43.3437500000,5,0.6428223252,,,
43.3593750000,5,0.3856812119,,,
43.3750000000,5,0.0763549805,,,
43.3906250000,5,-0.1453856975,,,
43.4062500000,5,-0.1940308064,,,
43.4218750000,5,-0.0758666992,,,
43.4375000000,5,0.1180419996,,,
43.4531250000,5,0.2708739936,,,
43.4687500000,5,0.2967528999,,,
43.4843750000,5,0.9743041992,,,
43.5000000000,5,0.7202758789,,,
43.5156250000,5,0.4296875000,,,
43.5312500000,5,0.1979980022,,,
43.5468750000,5,0.0648803711,,,
43.5625000000,5,0.0214233398,,,
43.5781250000,5,0.0267334003,,,
43.5937500000,5,0.0294799805,,,
43.6093750000,5,-0.0003662109,,,
43.6250000000,5,-0.0661010668,,,
43.6406250000,5,-0.1724243015,,,
43.6562500000,5,-0.3152466118,,,
43.6718750000,5,-0.5012207031,,,
43.6875000000,5,-0.7396240234,,,
43.7031250000,5,-1.0076290369,,,
43.7187500000,5,-1.2275389433,,,
43.7343750000,5,-1.3005369902,,,
43.7500000000,5,-1.1116329432,,,
43.7656250000,5,-0.6224976182,,,
43.7812500000,5,0.0924072266,,,
43.7968750000,5,0.8666992188,,,
43.8125000000,5,1.5034790039,,,
43.8281250000,5,1.8525999784,,,
43.8437500000,5,1.8934940100,,,
43.8593750000,5,1.7116700411,,,
43.8750000000,5,1.4263919592,,,
43.8906250000,5,1.1180419922,,,
43.9062500000,5,0.8035277724,,,
43.9218750000,5,0.4614258111,,,
43.9375000000,5,0.0834960863,,,
43.9531250000,5,-0.2848511040,,,
43.9687500000,5,-0.5353394151,,,
43.9843750000,5,-0.6044921875,,,
44.0000000000,5,-0.4921264946,,,
44.0156250000,5,-0.2811278999,,,
44.0312500000,5,-0.0728759766,,,
44.0468750000,5,0.0422363319,,,
44.0625000000,5,0.0296630897,,,
44.0781250000,5,-0.0949707031,,,
44.0937500000,5,-0.3004150093,,,
44.1093750000,5,-0.5619506836,,,
44.1250000000,5,-0.8598021865,,,
44.1406250000,5,-1.1558840275,,,
44.1562500000,5,-1.4030760527,,,
44.1718750000,5,-1.5335079432,,,
44.1875000000,5,-1.5127559900,,,
44.2031250000,5,-1.3598020077,,,
44.2187500000,5,-1.1301879883,,,
44.2343750000,5,-0.8955687881,,,
44.2500000000,5,-0.6759644151,,,
44.2656250000,5,-0.4545288086,,,
44.2812500000,5,-0.2022704929,,,
44.2968750000,5,0.0729370117,,,
44.3125000000,5,0.3451538086,,,
44.3281250000,5,0.5549926758,,,
44.3437500000,5,0.6746826172,,,
44.3593750000,5,0.7343750000,,,
44.3750000000,5,0.7990723252,,,
44.3906250000,5,0.9266967773,,,
44.4062500000,5,1.1159670353,,,
44.4218750000,5,1.3170169592,,,
44.4375000000,5,1.4443969727,,,
44.4531250000,5,1.4473270178,,,
44.4687500000,5,1.3546750546,,,
44.4843750000,5,1.2492070198,,,
44.5000000000,5,1.2027590275,,,
44.5156250000,5,1.2197879553,,,
44.5312500000,5,1.2385250330,,,
44.5468750000,5,1.1842039824,,,
44.5625000000,5,1.0315550566,,,
44.5781250000,5,0.8167725205,,,
44.5937500000,5,0.6117553711,,,
44.6093750000,5,0.4505614936,,,
44.6250000000,5,0.3077392876,,,
44.6406250000,5,0.1401977986,,,
44.6562500000,5,-0.0742797926,,,
44.6718750000,5,-0.3103637993,,,
44.6875000000,5,-0.4978027046,,,
44.7031250000,5,-0.5736693740,,,
44.7187500000,5,-0.5413817763,,,
44.7343750000,5,-0.4638062119,,,
44.7500000000,5,-0.4326171875,,,
44.7656250000,5,-0.5009766221,,,
44.7812500000,5,-0.6524658203,,,
44.7968750000,5,-0.8368530273,,,
44.8125000000,5,-0.9824829102,,,
44.8281250000,5,-1.0549319983,,,
44.8437500000,5,-1.0545040369,,,
44.8593750000,5,-1.0059809685,,,
44.8750000000,5,-0.9298095703,,,
44.8906250000,5,-0.8461914063,,,
44.9062500000,5,-0.7581787109,,,
44.9218750000,5,-0.6618041992,,,
44.9375000000,5,-0.5397949219,,,
44.9531250000,5,-0.3603515923,,,
44.9687500000,5,-0.1171265021,,,
44.9843750000,5,0.1534423977,,,
45.0000000000,5,0.3734130859,,,
45.0156250000,5,0.4440917969,,,
45.0312500000,5,0.3054198921,,,
45.0468750000,5,-0.0256347694,,,
45.0625000000,5,-0.4450072944,,,
45.0781250000,5,-0.7996826172,,,
45.0937500000,5,-0.9462280273,,,
45.1093750000,5,-0.8198242188,,,
45.1250000000,5,-0.4675292969,,,
45.1406250000,5,-0.0119628897,,,
45.1562500000,5,0.3927612007,,,
45.1718750000,5,0.6294556260,,,
45.1875000000,5,0.6742553711,,,
45.2031250000,5,0.5819702148,,,
45.2187500000,5,0.4562377930,,,
45.2343750000,5,0.3991088867,,,
45.2500000000,5,0.4472655952,,,
45.2656250000,5,0.5772094727,,,
45.2812500000,5,0.7310181260,,,
45.2968750000,5,0.8370360732,,,
45.3125000000,5,0.8702393174,,,
45.3281250000,5,0.8469238281,,,
45.3437500000,5,0.7907103896,,,
45.3593750000,5,0.7039794922,,,
45.3750000000,5,0.5567017198,,,
45.3906250000,5,0.3107300103,,,
45.4062500000,5,-0.0153198196,,,
45.4218750000,5,-0.3673096001,,,
45.4375000000,5,-0.6517943740,,,
45.4531250000,5,-0.7961425781,,,
45.4687500000,5,-0.7904663086,,,
45.4843750000,5,-0.7102661133,,,
45.5000000000,5,-0.6613770127,,,
45.5156250000,5,-0.7346190810,,,
45.5312500000,5,-0.9348145127,,,
45.5468750000,5,-1.1799319983,,,
45.5625000000,5,-1.3475949764,,,
45.5781250000,5,-1.3453370333,,,
45.5937500000,5,-1.1524050236,,,
45.6093750000,5,-0.8137816787,,,
45.6250000000,5,-0.4196166992,,,
45.6406250000,5,-0.0590209998,,,
45.6562500000,5,0.2117920071,,,
45.6718750000,5,0.3461914063,,,
45.6875000000,5,0.3363646865,,,
45.7031250000,5,0.2009277046,,,
45.7187500000,5,0.0076904302,,,
45.7343750000,5,-0.1345214993,,,
45.7500000000,5,-0.1200561970,,,
45.7656250000,5,0.0961303711,,,
45.7812500000,5,0.4778442085,,,
45.7968750000,5,0.9033203125,,,
45.8125000000,5,1.2360839844,,,
45.8281250000,5,1.3842769861,,,
45.8437500000,5,1.3333129883,,,
45.8593750000,5,1.1339110136,,,
45.8750000000,5,0.8466796875,,,
45.8906250000,5,0.5125731826,,,
45.9062500000,5,0.1680908054,,,
45.9218750000,5,-0.1579589993,,,
45.9375000000,5,-0.4343262017,,,
45.9531250000,5,-0.6405029297,,,
45.9687500000,5,-0.7885131836,,,
45.9843750000,5,-0.9237670898,,,
46.0000000000,5,-1.0792239904,,,
46.0156250000,5,-1.2471309900,,,
46.0312500000,5,-1.3656619787,,,
46.0468750000,5,-1.3662110567,,,
46.0625000000,5,-1.2000119686,,,
46.0781250000,5,-0.9067382813,,,
46.0937500000,5,-0.5772705078,,,
46.1093750000,5,-0.3114013970,,,
46.1250000000,5,-0.1607666016,,,
46.1406250000,5,-0.1234740987,,,
46.1562500000,5,-0.1355590969,,,
46.1718750000,5,-0.1539306939,,,
46.1875000000,5,-0.1654662937,,,
46.2031250000,5,-0.1973267049,,,
46.2187500000,5,-0.2855834961,,,
46.2343750000,5,-0.4393311143,,,
46.2500000000,5,-0.6245117188,,,
46.2656250000,5,-0.7697753906,,,
46.2812500000,5,-0.7889404297,,,
46.2968750000,5,-0.6198729873,,,
46.3125000000,5,-0.2445679009,,,
46.3281250000,5,0.2861328125,,,
46.3437500000,5,0.8697509766,,,
46.3593750000,5,1.3847659826,,,
46.3750000000,5,1.7347409725,,,
46.3906250000,5,1.8533940315,,,
46.4062500000,5,1.7297359705,,,
46.4218750000,5,1.3767700195,,,
46.4375000000,5,0.8381348252,,,
46.4531250000,5,0.2021483928,,,
46.4687500000,5,-0.3978270888,,,
46.4843750000,5,-0.8056030273,,,
46.5000000000,5,-0.8920288086,,,
46.5156250000,5,-0.6317139268,,,
46.5312500000,5,-0.1011962965,,,
46.5468750000,5,0.5132446289,,,
46.5625000000,5,1.0294189453,,,
46.5781250000,5,1.3159790039,,,
46.5937500000,5,1.3698120117,,,
46.6093750000,5,1.2752079964,,,
46.6250000000,5,1.1464229822,,,
46.6406250000,5,1.0461430550,,,
46.6562500000,5,0.9649047852,,,
46.6718750000,5,0.8563231826,,,
46.6875000000,5,0.7070313096,,,
46.7031250000,5,0.5469970703,,,
46.7187500000,5,0.4439086914,,,
46.7343750000,5,0.4425049126,,,
46.7500000000,5,0.5275878906,,,
46.7656250000,5,0.6157836914,,,
46.7812500000,5,0.5952147841,,,
46.7968750000,5,0.3857421875,,,
46.8125000000,5,-0.0081787109,,,
46.8281250000,5,-0.4937134087,,,
46.8437500000,5,-0.9252930284,,,
46.8593750000,5,-1.1825560331,,,
46.8750000000,5,-1.2111209631,,,
46.8906250000,5,-1.0570069551,,,
46.9062500000,5,-0.8303833008,,,
46.9218750000,5,-0.6517943740,,,
46.9375000000,5,-0.5997924805,,,
46.9531250000,5,-0.6768798828,,,
46.9687500000,5,-0.8324584961,,,
46.9843750000,5,-0.9854735732,,,
47.0000000000,5,-1.0800169706,,,
47.0156250000,5,-1.0958249569,,,
47.0312500000,5,-1.0566409826,,,
47.0468750000,5,-1.0022579432,,,
47.0625000000,5,-0.9538574219,,,
47.0781250000,5,-0.9303588867,,,
47.0937500000,5,-0.9406127930,,,
47.1093750000,5,-0.9939575195,,,
47.1250000000,5,-1.0911250114,,,
47.1406250000,5,-1.1991579533,,,
47.1562500000,5,-1.2598270178,,,
47.1718750000,5,-1.2217409611,,,
47.1875000000,5,-1.0582890511,,,
47.2031250000,5,-0.7977294922,,,
47.2187500000,5,-0.5014038086,,,
47.2343750000,5,-0.2421875000,,,
47.2500000000,5,-0.0528564490,,,
47.2656250000,5,0.0650634766,,,
47.2812500000,5,0.1229247972,,,
47.2968750000,5,0.1494750977,,,
47.3125000000,5,0.1660155952,,,
47.3281250000,5,0.1876221001,,,
47.3437500000,5,0.2375487983,,,
47.3593750000,5,0.3329468071,,,
47.3750000000,5,0.4774779975,,,
47.3906250000,5,0.6441649795,,,
47.4062500000,5,0.7851563096,,,
47.4218750000,5,0.8551635742,,,
47.4375000000,5,0.8372191787,,,
47.4531250000,5,0.7614135742,,,
47.4687500000,5,0.6910399795,,,
47.4843750000,5,0.7048339844,,,
47.5000000000,5,0.8200684190,,,
47.5156250000,5,1.0030519962,,,
47.5312500000,5,1.1665040255,,,
47.5468750000,5,1.2135620117,,,
47.5625000000,5,1.0850219727,,,
47.5781250000,5,0.7953491211,,,
47.5937500000,5,0.4454346001,,,
47.6093750000,5,0.1862792969,,,
47.6250000000,5,0.1361083984,,,
47.6406250000,5,0.3265990913,,,
47.6562500000,5,0.6802979112,,,
47.6718750000,5,1.0507810116,,,
47.6875000000,5,1.2870479822,,,
47.7031250000,5,1.3248289824,,,
47.7187500000,5,1.2058110237,,,
47.7343750000,5,1.0217900276,,,
47.7500000000,5,0.8645629883,,,
47.7656250000,5,0.7661743164,,,
47.7812500000,5,0.6764525771,,,
47.7968750000,5,0.5140380859,,,
47.8125000000,5,0.2246094048,,,
47.8281250000,5,-0.1717528999,,,
47.8437500000,5,-0.6034545898,,,
47.8593750000,5,-0.9630736709,,,
47.8750000000,5,-1.1820679903,,,
47.8906250000,5,-1.2365109921,,,
47.9062500000,5,-1.1513669491,,,
47.9218750000,5,-0.9728394151,,,
47.9375000000,5,-0.7366942763,,,
47.9531250000,5,-0.4631958008,,,
47.9687500000,5,-0.1655272990,,,
47.9843750000,5,0.1290894002,,,
48.0000000000,6,0.3831177056,,,
48.0156250000,6,0.5342407227,,,
48.0312500000,6,0.5335083008,,,
48.0468750000,6,0.3746337891,,,
48.0625000000,6,0.1138916016,,,
48.0781250000,6,-0.1489868015,,,
48.0937500000,6,-0.3020020127,,,
48.1093750000,6,-0.2586669922,,,
48.1250000000,6,-0.0043945308,,,
48.1406250000,6,0.4063110054,,,
48.1562500000,6,0.8591918945,,,
48.1718750000,6,1.2219849825,,,
48.1875000000,6,1.3773800135,,,
48.2031250000,6,1.2693480253,,,
48.2187500000,6,0.9334105849,,,
48.2343750000,6,0.4753417969,,,
48.2500000000,6,0.0336914100,,,
48.2656250000,6,-0.2730103135,,,
48.2812500000,6,-0.3875732124,,,
48.2968750000,6,-0.3483887017,,,
48.3125000000,6,-0.2517090142,,,
48.3281250000,6,-0.1793213040,,,
48.3437500000,6,-0.1848755032,,,
48.3593750000,6,-0.2434691936,,,
48.3750000000,6,-0.2893066108,,,
48.3906250000,6,-0.2648315132,,,
48.4062500000,6,-0.1698607951,,,
48.4218750000,6,-0.0429077111,,,
48.4375000000,6,0.0586547889,,,
48.4531250000,6,0.0915527269,,,
48.4687500000,6,0.0612793006,,,
48.4843750000,6,-0.0097656250,,,
48.5000000000,6,-0.1063231975,,,
48.5156250000,6,-0.2454223931,,,
48.5312500000,6,-0.4680176079,,,
48.5468750000,6,-0.8134155273,,,
48.5625000000,6,-1.2633670568,,,
48.5781250000,6,-1.7482910156,,,
48.5937500000,6,-2.1380000114,,,
48.6093750000,6,-2.2874760628,,,
48.6250000000,6,-2.1140139103,,,
48.6406250000,6,-1.6347049475,,,
48.6562500000,6,-0.9721680284,,,
48.6718750000,6,-0.3222045898,,,
48.6875000000,6,0.1342772990,,,
48.7031250000,6,0.2965087891,,,
48.7187500000,6,0.1676024944,,,
48.7343750000,6,-0.1539306939,,,
48.7500000000,6,-0.5248413086,,,
48.7656250000,6,-0.8109741211,,,
48.7812500000,6,-0.9125366211,,,
48.7968750000,6,-0.7936400771,,,
48.8125000000,6,-0.4901733100,,,
48.8281250000,6,-0.0667724609,,,
48.8437500000,6,0.3722533882,,,
48.8593750000,6,0.7224730849,,,
48.8750000000,6,0.9050292969,,,
48.8906250000,6,0.9024658203,,,
48.9062500000,6,0.7298583984,,,
48.9218750000,6,0.4565429986,,,
48.9375000000,6,0.1757201999,,,
48.9531250000,6,-0.0247192401,,,
48.9687500000,6,-0.0898437500,,,
48.9843750000,6,-0.0021362300,,,
49.0000000000,6,0.1849364936,,,
49.0156250000,6,0.3740234077,,,
49.0312500000,6,0.4533691108,,,
49.0468750000,6,0.3473511040,,,
49.0625000000,6,0.0851440430,,,
49.0781250000,6,-0.2238159031,,,
49.0937500000,6,-0.4497680962,,,
49.1093750000,6,-0.5122681260,,,
49.1250000000,6,-0.4439086914,,,
49.1406250000,6,-0.3557738960,,,
49.1562500000,6,-0.3394775093,,,
49.1718750000,6,-0.4167479873,,,
49.1875000000,6,-0.5269774795,,,
49.2031250000,6,-0.5711669922,,,
49.2187500000,6,-0.4939574897,,,
49.2343750000,6,-0.3354491889,,,
49.2500000000,6,-0.1813964993,,,
49.2656250000,6,-0.0833129883,,,
49.2812500000,6,-0.0232543908,,,
49.2968750000,6,0.0853881836,,,
49.3125000000,6,0.3069458008,,,
49.3281250000,6,0.6256713867,,,
49.3437500000,6,0.9251099229,,,
49.3593750000,6,1.0471800566,,,
49.3750000000,6,0.8984984756,,,
49.3906250000,6,0.5177001953,,,
49.4062500000,6,0.0320434608,,,
49.4218750000,6,-0.4124755859,,,
49.4375000000,6,-0.7158203125,,,
49.4531250000,6,-0.8736572266,,,
49.4687500000,6,-0.9306030273,,,
49.4843750000,6,-0.9060668945,,,
49.5000000000,6,-0.7926024795,,,
49.5156250000,6,-0.5466309190,,,
49.5312500000,6,-0.1584472954,,,
49.5468750000,6,0.3271484077,,,
49.5625000000,6,0.8160399795,,,
49.5781250000,6,1.2098389864,,,
49.5937500000,6,1.4456789494,,,
49.6093750000,6,1.5244139433,,,
49.6250000000,6,1.5036009550,,,
49.6406250000,6,1.4375000000,,,
49.6562500000,6,1.3577270508,,,
49.6718750000,6,1.2364499569,,,
49.6875000000,6,1.0202640295,,,
49.7031250000,6,0.6698607802,,,
49.7187500000,6,0.2189940959,,,
49.7343750000,6,-0.2328491062,,,
49.7500000000,6,-0.5361937881,,,
49.7656250000,6,-0.5606688857,,,
49.7812500000,6,-0.3043822944,,,
49.7968750000,6,0.1126708984,,,
49.8125000000,6,0.4791870117,,,
49.8281250000,6,0.6072998047,,,
49.8437500000,6,0.4367676079,,,
49.8593750000,6,0.0572509803,,,
49.8750000000,6,-0.3445434868,,,
49.8906250000,6,-0.5988770127,,,
49.9062500000,6,-0.6516113281,,,
49.9218750000,6,-0.5963745117,,,
49.9375000000,6,-0.5662230849,,,
49.9531250000,6,-0.6671752930,,,
49.9687500000,6,-0.8963013291,,,
49.9843750000,6,-1.1418459415,,,
50.0000000000,6,-1.2789920568,,,
50.0156250000,6,-1.2333979607,,,
50.0312500000,6,-1.0362550020,,,
50.0468750000,6,-0.7668457031,,,
50.0625000000,6,-0.5117188096,,,
50.0781250000,6,-0.2902832031,,,
50.0937500000,6,-0.0556030311,,,
50.1093750000,6,0.2592773139,,,
50.1250000000,6,0.6864014268,,,
50.1406250000,6,1.1593630314,,,
50.1562500000,6,1.5563960075,,,
50.1718750000,6,1.7288210392,,,
50.1875000000,6,1.6085209846,,,
50.2031250000,6,1.2247920036,,,
50.2187500000,6,0.7106934190,,,
50.2343750000,6,0.2249145955,,,
50.2500000000,6,-0.1278686970,,,
50.2656250000,6,-0.3181152046,,,
50.2812500000,6,-0.3811646104,,,
50.2968750000,6,-0.3674316108,,,
50.3125000000,6,-0.3196411133,,,
50.3281250000,6,-0.2408446968,,,
50.3437500000,6,-0.1300659031,,,
50.3593750000,6,0.0117187500,,,
50.3750000000,6,0.1642456055,,,
50.3906250000,6,0.2831420898,,,
50.4062500000,6,0.3289794922,,,
50.4218750000,6,0.2627562881,,,
50.4375000000,6,0.0828857422,,,
50.4531250000,6,-0.1796875000,,,
50.4687500000,6,-0.4627686143,,,
50.4843750000,6,-0.6968383789,,,
50.5000000000,6,-0.8323975205,,,
50.5156250000,6,-0.8536986709,,,
50.5312500000,6,-0.7883911133,,,
50.5468750000,6,-0.6692504883,,,
50.5625000000,6,-0.5263062119,,,
50.5781250000,6,-0.3712768853,,,
50.5937500000,6,-0.2498778999,,,
50.6093750000,6,-0.2097167969,,,
50.6250000000,6,-0.3046264946,,,
50.6406250000,6,-0.5321044922,,,
50.6562500000,6,-0.8096923828,,,
50.6718750000,6,-1.0051879883,,,
50.6875000000,6,-0.9841918945,,,
50.7031250000,6,-0.7260131836,,,
50.7187500000,6,-0.3366698921,,,
50.7343750000,6,-0.0068969731,,,
50.7500000000,6,0.1230468974,,,
50.7656250000,6,0.0220947303,,,
50.7812500000,6,-0.1920166016,,,
50.7968750000,6,-0.3342284858,,,
50.8125000000,6,-0.2905273139,,,
50.8281250000,6,-0.0565185510,,,
50.8437500000,6,0.7083129883,,,
50.8593750000,6,1.2362060547,,,
50.8750000000,6,1.5688480139,,,
50.8906250000,6,1.5509639978,,,
50.9062500000,6,1.1978149414,,,
50.9218750000,6,0.6602783203,,,
50.9375000000,6,0.1298827976,,,
50.9531250000,6,-0.2835693061,,,
50.9687500000,6,-0.5695800781,,,
50.9843750000,6,-0.7864379883,,,
51.0000000000,6,-0.9692993164,,,
51.0156250000,6,-1.0965579748,,,
51.0312500000,6,-1.1374510527,,,
51.0468750000,6,-1.0908199549,,,
51.0625000000,6,-1.0274050236,,,
51.0781250000,6,-1.0572509766,,,
51.0937500000,6,-1.2174069881,,,
51.1093750000,6,-1.4328609705,,,
51.1250000000,6,-1.5253909826,,,
51.1406250000,6,-1.3218380213,,,
51.1562500000,6,-0.7745360732,,,
51.1718750000,6,-0.0067749019,,,
51.1875000000,6,0.7397460938,,,
51.2031250000,6,1.2396850586,,,
51.2187500000,6,1.4074709415,,,
51.2343750000,6,1.3244019747,,,
51.2500000000,6,1.1704100370,,,
51.2656250000,6,1.1021729708,,,
51.2812500000,6,1.1513060331,,,
51.2968750000,6,1.2272950411,,,
51.3125000000,6,1.1864010096,,,
51.3281250000,6,0.9453125000,,,
51.3437500000,6,0.5312500000,,,
51.3593750000,6,0.0508422889,,,
51.3750000000,6,-0.3589478135,,,
51.3906250000,6,-0.6268920898,,,
51.4062500000,6,-0.7572631836,,,
51.4218750000,6,-0.8073729873,,,
51.4375000000,6,-0.8326416016,,,
51.4531250000,6,-0.8460692763,,,
51.4687500000,6,-0.8308715820,,,
51.4843750000,6,-0.7847899795,,,
51.5000000000,6,-0.7313231826,,,
51.5156250000,6,-0.6996459961,,,
51.5312500000,6,-0.7116088867,,,
51.5468750000,6,-0.7546386719,,,
51.5625000000,6,-0.7869263291,,,
51.5781250000,6,-0.7840576172,,,
51.5937500000,6,-0.7517089844,,,
51.6093750000,6,-0.7273560166,,,
51.6250000000,6,-0.7442626953,,,
51.6406250000,6,-0.7935181260,,,
51.6562500000,6,-0.8322753906,,,
51.6718750000,6,-0.8034058213,,,
51.6875000000,6,-0.6932982802,,,
51.7031250000,6,-0.5352172852,,,
51.7187500000,6,-0.3974609077,,,
51.7343750000,6,-0.3439941108,,,
51.7500000000,6,-0.3651123047,,,
51.7656250000,6,-0.3911742866,,,
51.7812500000,6,-0.3237304986,,,
51.7968750000,6,-0.0932617188,,,
51.8125000000,6,0.2646484077,,,
51.8281250000,6,0.6505736709,,,
51.8437500000,6,0.9251099229,,,
51.8593750000,6,0.9850463867,,,
51.8750000000,6,0.8296508789,,,
51.8906250000,6,0.5578002930,,,
51.9062500000,6,0.3244018853,,,
51.9218750000,6,0.2644042969,,,
51.9375000000,6,0.4182738960,,,
51.9531250000,6,0.7236328125,,,
51.9687500000,6,1.0547490120,,,
51.9843750000,6,1.2987669706,,,
52.0000000000,6,1.3974610567,,,
52.0156250000,6,1.3681639433,,,
52.0312500000,6,1.2736819983,,,
52.0468750000,6,1.1686400175,,,
52.0625000000,6,1.0845949650,,,
52.0781250000,6,1.0331419706,,,
52.0937500000,6,1.0209959745,,,
52.1093750000,6,1.0368039608,,,
52.1250000000,6,1.0643310547,,,
52.1406250000,6,1.0640870333,,,
52.1562500000,6,0.9973754883,,,
52.1718750000,6,0.8492432237,,,
52.1875000000,6,0.6309813857,,,
52.2031250000,6,0.3826903999,,,
52.2187500000,6,0.1345825046,,,
52.2343750000,6,-0.1243285984,,,
52.2500000000,6,-0.4465942085,,,
52.2656250000,6,-0.8713989258,,,
52.2812500000,6,-1.3903199434,,,
52.2968750000,6,-1.8841550350,,,
52.3125000000,6,-2.2051389217,,,
52.3281250000,6,-2.2352910042,,,
52.3437500000,6,-1.9516600370,,,
52.3593750000,6,-1.4670410156,,,
52.3750000000,6,-0.9556884766,,,
52.3906250000,6,-0.5825806260,,,
52.4062500000,6,-0.4219360054,,,
52.4218750000,6,-0.4506835938,,,
52.4375000000,6,-0.5701293945,,,
52.4531250000,6,-0.6746826172,,,
52.4687500000,6,-0.7208251953,,,
52.4843750000,6,-0.7278441787,,,
52.5000000000,6,-0.7531127930,,,
52.5156250000,6,-0.8458861709,,,
52.5312500000,6,-0.9865723252,,,
52.5468750000,6,-1.0882569551,,,
52.5625000000,6,-1.0501099825,,,
52.5781250000,6,-0.8228759766,,,
52.5937500000,6,-0.4411011040,,,
52.6093750000,6,-0.0037231450,,,
52.6250000000,6,0.3906860054,,,
52.6406250000,6,0.6923217773,,,
52.6562500000,6,0.9241942763,,,
52.6718750000,6,1.1298830509,,,
52.6875000000,6,1.3301999569,,,
52.7031250000,6,1.4818120003,,,
52.7187500000,6,1.5144649744,,,
52.7343750000,6,1.3790889978,,,
52.7500000000,6,1.0962519646,,,
52.7656250000,6,0.7701416016,,,
52.7812500000,6,0.5041503906,,,
52.7968750000,6,0.3858642876,,,
52.8125000000,6,0.4177856147,,,
52.8281250000,6,0.5556641221,,,
52.8437500000,6,0.7321776748,,,
52.8593750000,6,0.8917235732,,,
52.8750000000,6,0.9746704102,,,
52.8906250000,6,0.9274901748,,,
52.9062500000,6,0.7129517198,,,
52.9218750000,6,0.3319092095,,,
52.9375000000,6,-0.1531981975,,,
52.9531250000,6,-0.6127318740,,,
52.9687500000,6,-0.9063720703,,,
52.9843750000,6,-0.9294434190,,,
53.0000000000,6,-0.6784667969,,,
53.0156250000,6,-0.2736816108,,,
53.0312500000,6,0.0947875977,,,
53.0468750000,6,0.2495117038,,,
53.0625000000,6,0.1093140021,,,
53.0781250000,6,-0.2667236030,,,
53.0937500000,6,-0.7136840820,,,
53.1093750000,6,-1.0343019962,,,
53.1250000000,6,-1.0938719511,,,
53.1406250000,6,-0.8756713867,,,
53.1562500000,6,-0.4563598931,,,
53.1718750000,6,0.0260620099,,,
53.1875000000,6,0.4391478896,,,
53.2031250000,6,0.7223510742,,,
53.2187500000,6,0.8917235732,,,
53.2343750000,6,1.0133670568,,,
53.2500000000,6,1.1348270178,,,
53.2656250000,6,1.2587280273,,,
53.2812500000,6,1.3061519861,,,
53.2968750000,6,1.1843260527,,,
53.3125000000,6,0.8309937119,,,
53.3281250000,6,0.2882690132,,,
53.3437500000,6,-0.3139648139,,,
53.3593750000,6,-0.7964478135,,,
53.3750000000,6,-1.0328370333,,,
53.3906250000,6,-1.0222779512,,,
53.4062500000,6,-0.8857421875,,,
53.4218750000,6,-0.7841187119,,,
53.4375000000,6,-0.8171386719,,,
53.4531250000,6,-0.9552001953,,,
53.4687500000,6,-1.0652470589,,,
53.4843750000,6,-0.9917603135,,,
53.5000000000,6,-0.6727905273,,,
53.5156250000,6,-0.1915894002,,,
53.5312500000,6,0.2490233928,,,
53.5468750000,6,0.4367065132,,,
53.5625000000,6,0.2651366889,,,
53.5781250000,6,-0.1950684041,,,
53.5937500000,6,-0.7220458984,,,
53.6093750000,6,-1.0440670252,,,
53.6250000000,6,-0.9808350205,,,
53.6406250000,6,-0.5383911133,,,
53.6562500000,6,0.1131592020,,,
53.6718750000,6,0.7064208984,,,
53.6875000000,6,1.0301510096,,,
53.7031250000,6,1.0009770393,,,
53.7187500000,6,0.6984863281,,,
53.7343750000,6,0.3129271865,,,
53.7500000000,6,0.0257568397,,,
53.7656250000,6,-0.0726318434,,,
53.7812500000,6,0.0037231450,,,
53.7968750000,6,0.1706542969,,,
53.8125000000,6,0.3450317085,,,
53.8281250000,6,0.4849854112,,,
53.8437500000,6,0.5695189834,,,
53.8593750000,6,0.5834351182,,,
53.8750000000,6,0.4986571968,,,
53.8906250000,6,0.2808837891,,,
53.9062500000,6,-0.0852050781,,,
53.9218750000,6,-0.5494384766,,,
53.9375000000,6,-0.9854125977,,,
53.9531250000,6,-1.2398070097,,,
53.9687500000,6,-1.1853029728,,,
53.9843750000,6,-0.8059082031,,,
54.0000000000,6,-0.2223511040,,,
54.0156250000,6,0.3411864936,,,
54.0312500000,6,0.6561279297,,,
54.0468750000,6,0.5952758789,,,
54.0625000000,6,0.1959228963,,,
54.0781250000,6,-0.3713988960,,,
54.0937500000,6,-0.9017943740,,,
54.1093750000,6,-1.2285159826,,,
54.1250000000,6,-1.3068239689,,,
54.1406250000,6,-1.1848139763,,,
54.1562500000,6,-0.9573364258,,,
54.1718750000,6,-0.7190551758,,,
54.1875000000,6,-0.5156859756,,,
54.2031250000,6,-0.3717651069,,,
54.2187500000,6,-0.3148804009,,,
54.2343750000,6,-0.3808594048,,,
54.2500000000,6,-0.5758057237,,,
54.2656250000,6,-0.8571776748,,,
54.2812500000,6,-1.1018069983,,,
54.2968750000,6,-1.1729739904,,,
54.3125000000,6,-0.9700927734,,,
54.3281250000,6,-0.4951781929,,,
54.3437500000,6,0.1428833008,,,
54.3593750000,6,0.7583618164,,,
54.3750000000,6,1.1704100370,,,
54.3906250000,6,1.2726440430,,,
54.4062500000,6,1.0758670568,,,
54.4218750000,6,0.7236937881,,,
54.4375000000,6,0.4312744141,,,
54.4531250000,6,0.4064941108,,,
54.4687500000,6,0.7344359756,,,
54.4843750000,6,1.3407590389,,,
54.5000000000,6,1.9940799475,,,
54.5156250000,6,2.4404909611,,,
54.5312500000,6,2.5164179802,,,
54.5468750000,6,2.2265009880,,,
54.5625000000,6,1.7425539494,,,
54.5781250000,6,1.2911380529,,,
54.5937500000,6,1.0254520178,,,
54.6093750000,6,0.9421386719,,,
54.6250000000,6,0.9056395888,,,
54.6406250000,6,0.7518311143,,,
54.6562500000,6,0.4193725884,,,
54.6718750000,6,-0.0171508808,,,
54.6875000000,6,-0.3922728896,,,
54.7031250000,6,-0.5628051758,,,
54.7187500000,6,-0.4873046875,,,
54.7343750000,6,-0.2396851033,,,
54.7500000000,6,0.0396118201,,,
54.7656250000,6,0.2292480022,,,
54.7812500000,6,0.2922362983,,,
54.7968750000,6,0.2639159858,,,
54.8125000000,6,0.2175903022,,,
54.8281250000,6,0.1885375977,,,
54.8437500000,6,0.1738892049,,,
54.8593750000,6,0.1241455004,,,
54.8750000000,6,-0.0039672852,,,
54.8906250000,6,-0.2296752930,,,
54.9062500000,6,-0.5401610732,,,
54.9218750000,6,-0.9172974229,,,
54.9375000000,6,-1.3460689783,,,
54.9531250000,6,-1.8154300451,,,
54.9687500000,6,-2.2868649960,,,
54.9843750000,6,-2.6663210392,,,
55.0000000000,6,-2.8384399414,,,
55.0156250000,6,-2.7082519531,,,
55.0312500000,6,-2.2477419376,,,
55.0468750000,6,-1.5204470158,,,
55.0625000000,6,-0.6854857802,,,
55.0781250000,6,0.1008910984,,,
55.0937500000,6,0.7122191787,,,
55.1093750000,6,1.1187130213,,,
55.1250000000,6,1.3651729822,,,
55.1406250000,6,1.5261839628,,,
55.1562500000,6,1.6665649414,,,
55.1718750000,6,1.7919310331,,,
55.1875000000,6,1.8613890409,,,
55.2031250000,6,1.8046259880,,,
55.2187500000,6,1.5763549805,,,
55.2343750000,6,1.1936650276,,,
55.2500000000,6,0.7516478896,,,
55.2656250000,6,0.3794555962,,,
55.2812500000,6,0.1813354045,,,
55.2968750000,6,0.1775512993,,,
55.3125000000,6,0.3061523139,,,
55.3281250000,6,0.4372558892,,,
55.3437500000,6,0.4539794922,,,
55.3593750000,6,0.3002929986,,,
55.3750000000,6,-0.0025024409,,,
55.3906250000,6,-0.3859252930,,,
55.4062500000,6,-0.7874146104,,,
55.4218750000,6,-1.1837160587,,,
55.4375000000,6,-1.5726929903,,,
55.4531250000,6,-1.9359740019,,,
55.4687500000,6,-2.2300419807,,,
55.4843750000,6,-2.3695070744,,,
55.5000000000,6,-2.2821660042,,,
55.5156250000,6,-1.9564820528,,,
55.5312500000,6,-1.4567869902,,,
55.5468750000,6,-0.8980712891,,,
55.5625000000,6,-0.3856200874,,,
55.5781250000,6,0.0362548791,,,
55.5937500000,6,0.3864746094,,,
55.6093750000,6,0.7108765244,,,
55.6250000000,6,1.0302729607,,,
55.6406250000,6,1.2966920137,,,
55.6562500000,6,1.4150999784,,,
55.6718750000,6,1.2907099724,,,
55.6875000000,6,0.8986815810,,,
55.7031250000,6,0.3340454102,,,
55.7187500000,6,-0.2182617038,,,
55.7343750000,6,-0.5756226182,,,
55.7500000000,6,-0.6343994141,,,
55.7656250000,6,-0.4224854112,,,
55.7812500000,6,-0.0665893629,,,
55.7968750000,6,0.2741088867,,,
55.8125000000,6,0.4940795898,,,
55.8281250000,6,0.5749511719,,,
55.8437500000,6,0.5584716797,,,
55.8593750000,6,0.5016478896,,,
55.8750000000,6,0.4285888970,,,
55.8906250000,6,0.3276366889,,,
55.9062500000,6,0.1821898967,,,
55.9218750000,6,-0.0052490230,,,
55.9375000000,6,-0.1704102010,,,
55.9531250000,6,-0.2364501953,,,
55.9687500000,6,-0.1404418945,,,
55.9843750000,6,0.1069945991,,,
56.0000000000,7,0.4104613960,,,
56.0156250000,7,0.6264647841,,,
56.0312500000,7,0.6384276748,,,
56.0468750000,7,0.3817749023,,,
56.0625000000,7,-0.0987548828,,,
56.0781250000,7,-0.6680297852,,,
56.0937500000,7,-1.1607060432,,,
56.1093750000,7,-1.4345090389,,,
56.1250000000,7,-1.4315190315,,,
56.1406250000,7,-1.1951899529,,,
56.1562500000,7,-0.8376464844,,,
56.1718750000,7,-0.4610596001,,,
56.1875000000,7,-0.1309203953,,,
