Time:64Hz,Epoch,Channel 1,Event Id,Event Date,Event Duration
0.0000000000,0,0.8988037109,,,
0.0156250000,0,1.0007319450,,,
0.0312500000,0,0.9487305284,,,
0.0468750000,0,0.7036132813,,,
0.0625000000,0,0.3134765923,,,
0.0781250000,0,-0.1210938022,,,
0.0937500000,0,-0.4749755859,,,
0.1093750000,0,-0.6613770127,,,
0.1250000000,0,-0.6813964844,,,
0.1406250000,0,-0.5996093750,,,
0.1562500000,0,-0.5240479112,,,
0.1718750000,0,-0.5460205078,,,
0.1875000000,0,-0.7075194716,,,
0.2031250000,0,-0.9868164063,,,
0.2187500000,0,-1.3253170252,,,
0.2343750000,0,-1.6293950081,,,
0.2500000000,0,-1.8060300350,,,
0.2656250000,0,-1.7803959846,,,
0.2812500000,0,-1.5152590275,,,
0.2968750000,0,-1.0498050451,,,
0.3125000000,0,-0.4934082031,,,
0.3281250000,0,-0.0003662109,,,
0.3437500000,0,0.2712402046,,,
0.3593750000,0,0.2374268025,,,
0.3750000000,0,-0.0488281287,,,
0.3906250000,0,-0.4064941108,,,
0.4062500000,0,-0.6104735732,,,
0.4218750000,0,-0.4929198921,,,
0.4375000000,0,-0.0378418006,,,
0.4531250000,0,0.6083983779,,,
0.4687500000,0,1.2133790255,,,
0.4843750000,0,1.5748289824,,,
0.5000000000,0,1.6191409826,,,
0.5156250000,0,1.4133299589,,,
0.5312500000,0,1.1157230139,,,
0.5468750000,0,0.8693848252,,,
0.5625000000,0,0.7301024795,,,
0.5781250000,0,0.6439208984,,,
0.5937500000,0,0.5306395888,,,
0.6093750000,0,0.3391112983,,,
0.6250000000,0,0.0800781325,,,
0.6406250000,0,-0.1712646037,,,
0.6562500000,0,-0.3432616889,,,
0.6718750000,0,-0.4277344048,,,
0.6875000000,0,-0.4570313096,,,
0.7031250000,0,-0.4886474907,,,
0.7187500000,0,-0.5496826172,,,
0.7343750000,0,-0.6215819716,,,
0.7500000000,0,-0.6646729112,,,
0.7656250000,0,-0.6473389268,,,
0.7812500000,0,-0.5571289063,,,
0.7968750000,0,-0.4143066108,,,
0.8125000000,0,-0.2432861030,,,
0.8281250000,0,-0.0407714806,,,
0.8437500000,0,0.2050780952,,,
0.8593750000,0,0.4976806939,,,
0.8750000000,0,0.8128662109,,,
0.8906250000,0,1.0921629667,,,
0.9062500000,0,1.2816159725,,,
0.9218750000,0,1.3610839844,,,
0.9375000000,0,1.3665770292,,,
0.9531250000,0,1.3543699980,,,
0.9687500000,0,1.3641359806,,,
0.9843750000,0,1.3900150061,,,
1.0000000000,0,1.3901369572,,,
1.0156250000,0,1.3037110567,,,
1.0312500000,0,1.1118160486,,,
1.0468750000,0,0.8560791016,,,
1.0625000000,0,0.6184082031,,,
1.0781250000,0,0.4729003906,,,
1.0937500000,0,0.4516601861,,,
1.1093750000,0,0.5277100205,,,
1.1250000000,0,0.6175537109,,,
1.1406250000,0,0.6263427734,,,
1.1562500000,0,0.4888916016,,,
1.1718750000,0,0.1688231975,,,
1.1875000000,0,-0.3045653999,,,
1.2031250000,0,-0.8602294922,,,
1.2187500000,0,-1.3909909725,,,
1.2343750000,0,-1.7794189453,,,
1.2500000000,0,-1.9560550451,,,
1.2656250000,0,-1.9335939884,,,
1.2812500000,0,-1.7958979607,,,
1.2968750000,0,-1.6588129997,,,
1.3125000000,0,-1.6192630529,,,
1.3281250000,0,-1.6730959415,,,
1.3437500000,0,-1.7542719841,,,
1.3593750000,0,-1.7534179688,,,
1.3750000000,0,-1.5903320313,,,
1.3906250000,0,-1.2617189884,,,
1.4062500000,0,-0.8322753906,,,
1.4218750000,0,-0.4042969048,,,
1.4375000000,0,-0.0526123010,,,
1.4531250000,0,0.1835937947,,,
1.4687500000,0,0.3084717095,,,
1.4843750000,0,0.3411864936,,,
1.5000000000,0,0.3031005859,,,
1.5156250000,0,0.2152100056,,,
1.5312500000,0,0.1103515998,,,
1.5468750000,0,0.0423583984,,,
1.5625000000,0,0.0531005897,,,
1.5781250000,0,0.1656493992,,,
1.5937500000,0,0.3664551079,,,
1.6093750000,0,0.5937500000,,,
1.6250000000,0,0.7861328125,,,
1.6406250000,0,0.9016113281,,,
1.6562500000,0,0.9302979112,,,
1.6718750000,0,0.8820800781,,,
1.6875000000,0,0.7702636719,,,
1.7031250000,0,0.5888671875,,,
1.7187500000,0,0.3317871094,,,
1.7343750000,0,0.0310058594,,,
1.7500000000,0,-0.2382812947,,,
1.7656250000,0,-0.3657226861,,,
1.7812500000,0,-0.2603760064,,,
1.7968750000,0,0.0864257813,,,
1.8125000000,0,0.5534667969,,,
1.8281250000,0,0.9537354112,,,
1.8437500000,0,1.1009520292,,,
1.8593750000,0,0.9212645888,,,
1.8750000000,0,0.4913330078,,,
1.8906250000,0,0.0061035161,,,
1.9062500000,0,-0.3338623047,,,
1.9218750000,0,-0.4160155952,,,
1.9375000000,0,-0.2613525093,,,
1.9531250000,0,0.0068359380,,,
1.9687500000,0,0.2462158054,,,
1.9843750000,0,0.3801270127,,,
2.0000000000,0,0.4123534858,,,
2.0156250000,0,0.4188232124,,,
2.0312500000,0,0.4569092095,,,
2.0468750000,0,0.5324707031,,,
2.0625000000,0,0.5830078125,,,
2.0781250000,0,0.5333251953,,,
2.0937500000,0,0.3576659858,,,
2.1093750000,0,0.0975341797,,,
2.1250000000,0,-0.1420897990,,,
2.1406250000,0,-0.2578125000,,,
2.1562500000,0,-0.2156981975,,,
2.1718750000,0,-0.0849609375,,,
2.1875000000,0,0.0089111328,,,
2.2031250000,0,-0.0723877028,,,
2.2187500000,0,-0.3770751953,,,
2.2343750000,0,-0.8341063857,,,
2.2500000000,0,-1.2926030159,,,
2.2656250000,0,-1.5944819450,,,
2.2812500000,0,-1.6522220373,,,
2.2968750000,0,-1.4901119471,,,
2.3125000000,0,-1.2087399960,,,
2.3281250000,0,-0.9168701172,,,
2.3437500000,0,-0.6728516221,,,
2.3593750000,0,-0.4641112983,,,
2.3750000000,0,-0.2416992038,,,
2.3906250000,0,0.0372314490,,,
2.4062500000,0,0.3374023139,,,
2.4218750000,0,0.5692139268,,,
2.4375000000,0,0.6303710938,,,
2.4531250000,0,0.4780273139,,,
2.4687500000,0,0.1610106975,,,
2.4843750000,0,-0.2032471001,,,
2.5000000000,0,-0.4803467095,,,
2.5156250000,0,-0.5745850205,,,
2.5312500000,0,-0.4731445014,,,
2.5468750000,0,-0.2423096001,,,
2.5625000000,0,0.0157470703,,,
2.5781250000,0,0.1820068061,,,
2.5937500000,0,0.1838379055,,,
2.6093750000,0,0.0250244103,,,
2.6250000000,0,-0.2268065959,,,
2.6406250000,0,-0.4488525093,,,
2.6562500000,0,-0.5291748047,,,
2.6718750000,0,-0.4293212891,,,
2.6875000000,0,-0.1934814006,,,
2.7031250000,0,0.0625000000,,,
2.7187500000,0,0.2062987983,,,
2.7343750000,0,0.1706542969,,,
2.7500000000,0,-0.0163574200,,,
2.7656250000,0,-0.2348632962,,,
2.7812500000,0,-0.3389892876,,,
2.7968750000,0,-0.2302245945,,,
2.8125000000,0,0.0775146484,,,
2.8281250000,0,0.4775390923,,,
2.8437500000,0,0.8355712891,,,
2.8593750000,0,1.0573730469,,,
2.8750000000,0,1.1373289824,,,
2.8906250000,0,1.1660159826,,,
2.9062500000,0,1.2523189783,,,
2.9218750000,0,1.4295649529,,,
2.9375000000,0,1.6263430119,,,
2.9531250000,0,1.6722409725,,,
2.9687500000,0,1.4228520393,,,
2.9843750000,0,0.8637694716,,,
3.0000000000,0,0.1564940959,,,
3.0156250000,0,-0.4259032905,,,
3.0312500000,0,-0.6469727159,,,
3.0468750000,0,-0.4720458984,,,
3.0625000000,0,-0.0727539137,,,
3.0781250000,0,0.2712402046,,,
3.0937500000,0,0.3476563096,,,
3.1093750000,0,0.1342772990,,,
3.1250000000,0,-0.2084960938,,,
3.1406250000,0,-0.4610596001,,,
3.1562500000,0,-0.4824219048,,,
3.1718750000,0,-0.3006592095,,,
3.1875000000,0,-0.0572509803,,,
3.2031250000,0,0.1281737983,,,
3.2187500000,0,0.2210693061,,,
3.2343750000,0,0.2750244141,,,
3.2500000000,0,0.3479003906,,,
3.2656250000,0,0.4438476861,,,
3.2812500000,0,0.4738770127,,,
3.2968750000,0,0.3497313857,,,
3.3125000000,0,0.0567626990,,,
3.3281250000,0,-0.3092041016,,,
3.3437500000,0,-0.5760498047,,,
3.3593750000,0,-0.6110839844,,,
3.3750000000,0,-0.3914794922,,,
3.3906250000,0,-0.0305175800,,,
3.4062500000,0,0.3000487983,,,
3.4218750000,0,0.4409179986,,,
3.4375000000,0,0.3427734077,,,
3.4531250000,0,0.0677490234,,,
3.4687500000,0,-0.2703857124,,,
3.4843750000,0,-0.5394287109,,,
3.5000000000,0,-0.6796875000,,,
3.5156250000,0,-0.6982421875,,,
3.5312500000,0,-0.6468505859,,,
3.5468750000,0,-0.5703125000,,,
3.5625000000,0,-0.4822998047,,,
3.5781250000,0,-0.3504638970,,,
3.5937500000,0,-0.1145019978,,,
3.6093750000,0,0.2507323921,,,
3.6250000000,0,0.6975098252,,,
3.6406250000,0,1.0993649960,,,
3.6562500000,0,1.3349610567,,,
3.6718750000,0,1.3447270393,,,
3.6875000000,0,1.1728520393,,,
3.7031250000,0,0.9561768174,,,
3.7187500000,0,0.8348389268,,,
3.7343750000,0,0.8615723252,,,
3.7500000000,0,0.9572753906,,,
3.7656250000,0,0.9636229873,,,
3.7812500000,0,0.7458496094,,,
3.7968750000,0,0.2883301079,,,
3.8125000000,0,-0.2910155952,,,
3.8281250000,0,-0.8157958984,,,
3.8437500000,0,-1.1513669491,,,
3.8593750000,0,-1.2845460176,,,
3.8750000000,0,-1.3048100471,,,
3.8906250000,0,-1.3286130428,,,
3.9062500000,0,-1.4025880098,,,
3.9218750000,0,-1.4873050451,,,
3.9375000000,0,-1.5095210075,,,
3.9531250000,0,-1.4201660156,,,
3.9687500000,0,-1.2552490234,,,
3.9843750000,0,-1.0930180550,,,
4.0000000000,0,-1.0070799589,,,
4.0156250000,0,-1.0153809786,,,
4.0312500000,0,-1.0786130428,,,
4.0468750000,0,-1.1407469511,,,
4.0625000000,0,-1.1678470373,,,
4.0781250000,0,-1.1671140194,,,
4.0937500000,0,-1.1630860567,,,
4.1093750000,0,-1.1553959846,,,
4.1250000000,0,-1.1087650061,,,
4.1406250000,0,-0.9750977159,,,
4.1562500000,0,-0.7125244141,,,
4.1718750000,0,-0.3200683892,,,
4.1875000000,0,0.1492920071,,,
4.2031250000,0,0.6256104112,,,
4.2187500000,0,1.0421140194,,,
4.2343750000,0,1.3460689783,,,
4.2500000000,0,1.5078129768,,,
4.2656250000,0,1.5201419592,,,
4.2812500000,0,1.3813480139,,,
4.2968750000,0,1.1173100471,,,
4.3125000000,0,0.7752686143,,,
4.3281250000,0,0.4071044922,,,
4.3437500000,0,0.0682372972,,,
4.3593750000,0,-0.2113036960,,,
4.3750000000,0,-0.3934325874,,,
4.3906250000,0,-0.4622803032,,,
4.4062500000,0,-0.3967284858,,,
4.4218750000,0,-0.2109375000,,,
4.4375000000,0,0.0284423791,,,
4.4531250000,0,0.2419434041,,,
4.4687500000,0,0.3554688096,,,
4.4843750000,0,0.3792724907,,,
4.5000000000,0,0.3930664063,,,
4.5156250000,0,0.5020751953,,,
4.5312500000,0,0.7666016221,,,
4.5468750000,0,1.1529539824,,,
4.5625000000,0,1.5375980139,,,
4.5781250000,0,1.7817380428,,,
4.5937500000,0,1.8041989803,,,
4.6093750000,0,1.6270749569,,,
4.6250000000,0,1.3453370333,,,
4.6406250000,0,1.0377199650,,,
4.6562500000,0,0.7384033203,,,
4.6718750000,0,0.4250487983,,,
4.6875000000,0,0.0734863281,,,
4.7031250000,0,-0.2962645888,,,
4.7187500000,0,-0.6235352159,,,
4.7343750000,0,-0.8485106826,,,
4.7500000000,0,-0.9804688096,,,
4.7656250000,0,-1.0614010096,,,
4.7812500000,0,-1.1525880098,,,
4.7968750000,0,-1.2835689783,,,
4.8125000000,0,-1.4329830408,,,
4.8281250000,0,-1.5625000000,,,
4.8437500000,0,-1.6380620003,,,
4.8593750000,0,-1.6450200081,,,
4.8750000000,0,-1.5749510527,,,
4.8906250000,0,-1.4168699980,,,
4.9062500000,0,-1.1401369572,,,
4.9218750000,0,-0.7321776748,,,
4.9375000000,0,-0.2501221001,,,
4.9531250000,0,0.2099608928,,,
4.9687500000,0,0.5137938857,,,
4.9843750000,0,0.5721436143,,,
5.0000000000,0,0.3872070014,,,
5.0156250000,0,0.0549316406,,,
5.0312500000,0,-0.2919921875,,,
5.0468750000,0,-0.5286865234,,,
5.0625000000,0,-0.6062011719,,,
5.0781250000,0,-0.5435791016,,,
5.0937500000,0,-0.4110107124,,,
5.1093750000,0,-0.2832030952,,,
5.1250000000,0,-0.2008056939,,,
5.1406250000,0,-0.1577147990,,,
5.1562500000,0,-0.1064452976,,,
5.1718750000,0,0.0035400391,,,
5.1875000000,0,0.1998291016,,,
5.2031250000,0,0.4431152046,,,
5.2187500000,0,0.6534423828,,,
5.2343750000,0,0.7333983779,,,
5.2500000000,0,0.6269531250,,,
5.2656250000,0,0.3529053032,,,
5.2812500000,0,0.0201415997,,,
5.2968750000,0,-0.2388916016,,,
5.3125000000,0,-0.3402099907,,,
5.3281250000,0,-0.2902832031,,,
5.3437500000,0,-0.2060547024,,,
5.3593750000,0,-0.2083739936,,,
5.3750000000,0,-0.3676758111,,,
5.3906250000,0,-0.6313477159,,,
5.4062500000,0,-0.8627930284,,,
5.4218750000,0,-0.9193115234,,,
5.4375000000,0,-0.7617188096,,,
5.4531250000,0,-0.4707030952,,,
5.4687500000,0,-0.1904297024,,,
5.4843750000,0,-0.0450439490,,,
5.5000000000,0,-0.0527343787,,,
5.5156250000,0,-0.1307373047,,,
5.5312500000,0,-0.1597899944,,,
5.5468750000,0,-0.0583496094,,,
5.5625000000,0,0.1630858928,,,
5.5781250000,0,0.4260253906,,,
5.5937500000,0,0.6254882813,,,
5.6093750000,0,0.6838378906,,,
5.6250000000,0,0.5693358779,,,
5.6406250000,0,0.3223876953,,,
5.6562500000,0,0.0125732403,,,
5.6718750000,0,-0.2502441108,,,
5.6875000000,0,-0.3453369141,,,
5.7031250000,0,-0.1737060994,,,
5.7187500000,0,0.2869873047,,,
5.7343750000,0,0.9409180284,,,
5.7500000000,0,1.6386719942,,,
5.7656250000,0,2.1737060547,,,
5.7812500000,0,2.4216310978,,,
5.7968750000,0,2.3319089413,,,
5.8125000000,0,1.9263919592,,,
5.8281250000,0,1.2795410156,,,
5.8437500000,0,0.4686278999,,,
5.8593750000,0,-0.4100342095,,,
5.8750000000,0,-1.2268069983,,,
5.8906250000,0,-1.8277590275,,,
5.9062500000,0,-2.0745849609,,,
5.9218750000,0,-1.8931879997,,,
5.9375000000,0,-1.3320310116,,,
5.9531250000,0,-0.5673828125,,,
5.9687500000,0,0.1688231975,,,
5.9843750000,0,0.6718750000,,,
6.0000000000,0,0.8409423828,,,
6.0156250000,0,0.7034912109,,,
6.0312500000,0,0.3963623047,,,
6.0468750000,0,0.0744628906,,,
6.0625000000,0,-0.1429443061,,,
6.0781250000,0,-0.2309570014,,,
6.0937500000,0,-0.2373047024,,,
6.1093750000,0,-0.2484131008,,,
6.1250000000,0,-0.3203125000,,,
6.1406250000,0,-0.4263916016,,,
6.1562500000,0,-0.4886474907,,,
6.1718750000,0,-0.4210205078,,,
6.1875000000,0,-0.2197266072,,,
6.2031250000,0,0.0505371094,,,
6.2187500000,0,0.2425536960,,,
6.2343750000,0,0.2265625000,,,
6.2500000000,0,-0.0242919903,,,
6.2656250000,0,-0.4372558892,,,
6.2812500000,0,-0.8382567763,,,
6.2968750000,0,-1.0698239803,,,
6.3125000000,0,-1.0595699549,,,
6.3281250000,0,-0.8642578125,,,
6.3437500000,0,-0.5887451172,,,
6.3593750000,0,-0.3629150093,,,
6.3750000000,0,-0.2368164063,,,
6.3906250000,0,-0.1962891072,,,
6.4062500000,0,-0.1989745945,,,
6.4218750000,0,-0.1988524944,,,
6.4375000000,0,-0.1781006008,,,
6.4531250000,0,-0.1486815959,,,
6.4687500000,0,-0.1271972954,,,
6.4843750000,0,-0.0987548828,,,
6.5000000000,0,-0.0480956994,,,
6.5156250000,0,0.0476074181,,,
6.5312500000,0,0.2062987983,,,
6.5468750000,0,0.3979491889,,,
6.5625000000,0,0.5737305284,,,
6.5781250000,0,0.6857910156,,,
6.5937500000,0,0.6970214844,,,
6.6093750000,0,0.5944824219,,,
6.6250000000,0,0.4064941108,,,
6.6406250000,0,0.1776123047,,,
6.6562500000,0,-0.0301513709,,,
6.6718750000,0,-0.1339111030,,,
6.6875000000,0,-0.0966796875,,,
6.7031250000,0,0.0770263672,,,
6.7187500000,0,0.3072510064,,,
6.7343750000,0,0.4804688096,,,
6.7500000000,0,0.5019531250,,,
6.7656250000,0,0.3394775093,,,
6.7812500000,0,0.0415039100,,,
6.7968750000,0,-0.2849121094,,,
6.8125000000,0,-0.5131835938,,,
6.8281250000,0,-0.5797119141,,,
6.8437500000,0,-0.4667969048,,,
6.8593750000,0,-0.2369385064,,,
6.8750000000,0,0.0158691406,,,
6.8906250000,0,0.2039795071,,,
6.9062500000,0,0.2684325874,,,
6.9218750000,0,0.2034911960,,,
6.9375000000,0,0.0517578088,,,
6.9531250000,0,-0.1180419996,,,
6.9687500000,0,-0.2375487983,,,
6.9843750000,0,-0.2520751953,,,
7.0000000000,0,-0.1549071968,,,
7.0156250000,0,0.0092773438,,,
7.0312500000,0,0.1779785007,,,
7.0468750000,0,0.3017578125,,,
7.0625000000,0,0.3554688096,,,
7.0781250000,0,0.3760986030,,,
7.0937500000,0,0.4219971001,,,
7.1093750000,0,0.5222167969,,,
7.1250000000,0,0.6739501953,,,
7.1406250000,0,0.8039550781,,,
7.1562500000,0,0.8153076172,,,
7.1718750000,0,0.6386718750,,,
7.1875000000,0,0.2730712891,,,
7.2031250000,0,-0.1925048977,,,
7.2187500000,0,-0.6322020888,,,
7.2343750000,0,-0.9244384766,,,
7.2500000000,0,-1.0058590174,,,
7.2656250000,0,-0.8891602159,,,
7.2812500000,0,-0.6483154297,,,
7.2968750000,0,-0.3675537109,,,
7.3125000000,0,-0.1210938022,,,
7.3281250000,0,0.0616455115,,,
7.3437500000,0,0.1882324070,,,
7.3593750000,0,0.2792969048,,,
7.3750000000,0,0.3570556939,,,
7.3906250000,0,0.4421387017,,,
7.4062500000,0,0.5594481826,,,
7.4218750000,0,0.7044677734,,,
7.4375000000,0,0.8511962891,,,
7.4531250000,0,0.9290770888,,,
7.4687500000,0,0.8453369141,,,
7.4843750000,0,0.5581055284,,,
7.5000000000,0,0.1182861030,,,
7.5156250000,0,-0.3226318061,,,
7.5312500000,0,-0.5914307237,,,
7.5468750000,0,-0.5764160156,,,
7.5625000000,0,-0.3039551079,,,
7.5781250000,0,0.0629882813,,,
7.5937500000,0,0.3218994141,,,
7.6093750000,0,0.3486328125,,,
7.6250000000,0,0.1706542969,,,
7.6406250000,0,-0.0639648363,,,
7.6562500000,0,-0.1719971001,,,
7.6718750000,0,-0.0660400391,,,
7.6875000000,0,0.2025146037,,,
7.7031250000,0,0.4896239936,,,
7.7187500000,0,0.6488037109,,,
7.7343750000,0,0.6387938857,,,
7.7500000000,0,0.5195313096,,,
7.7656250000,0,0.4020996094,,,
7.7812500000,0,0.3530273139,,,
7.7968750000,0,0.3624267876,,,
7.8125000000,0,0.3336181939,,,
7.8281250000,0,0.1860352010,,,
7.8437500000,0,-0.1019287035,,,
7.8593750000,0,-0.4644775093,,,
7.8750000000,0,-0.7878417969,,,
7.8906250000,0,-0.9918212891,,,
7.9062500000,0,-1.0418699980,,,
7.9218750000,0,-0.9749755859,,,
7.9375000000,0,-0.8432617188,,,
7.9531250000,0,-0.6929932237,,,
7.9687500000,0,-0.5399169922,,,
7.9843750000,0,-0.3714599907,,,
8.0000000000,1,-0.1568603963,,,
8.0156250000,1,0.1336670071,,,
8.0312500000,1,0.5091552734,,,
8.0468750000,1,0.9354248047,,,
8.0625000000,1,1.3249510527,,,
8.0781250000,1,1.5633540154,,,
8.0937500000,1,1.5572509766,,,
8.1093750000,1,1.2767330408,,,
8.1250000000,1,0.7928466797,,,
8.1406250000,1,0.2556152046,,,
8.1562500000,1,-0.1752929986,,,
8.1718750000,1,-0.4010010064,,,
8.1875000000,1,-0.4194335938,,,
8.2031250000,1,-0.3229979873,,,
8.2187500000,1,-0.2253417969,,,
8.2343750000,1,-0.1912841946,,,
8.2500000000,1,-0.2150879055,,,
8.2656250000,1,-0.2493896037,,,
8.2812500000,1,-0.2575683892,,,
8.2968750000,1,-0.2497559041,,,
8.3125000000,1,-0.2740479112,,,
8.3281250000,1,-0.3776854873,,,
8.3437500000,1,-0.5837401748,,,
8.3593750000,1,-0.8574218750,,,
8.3750000000,1,-1.1232910156,,,
8.3906250000,1,-1.2978520393,,,
8.4062500000,1,-1.3300780058,,,
8.4218750000,1,-1.2373050451,,,
8.4375000000,1,-1.1004639864,,,
8.4531250000,1,-1.0218509436,,,
8.4687500000,1,-1.0714110136,,,
8.4843750000,1,-1.2442630529,,,
8.5000000000,1,-1.4605710506,,,
8.5156250000,1,-1.6357419491,,,
8.5312500000,1,-1.7263180017,,,
8.5468750000,1,-1.7630620003,,,
8.5625000000,1,-1.8118900061,,,
8.5781250000,1,-1.9344480038,,,
8.5937500000,1,-2.0994870663,,,
8.6093750000,1,-2.1865229607,,,
8.6250000000,1,-2.0424799919,,,
8.6406250000,1,-1.5806879997,,,
8.6562500000,1,-0.8492432237,,,
8.6718750000,1,-0.0322265588,,,
8.6875000000,1,0.6549072266,,,
8.7031250000,1,1.0515140295,,,
8.7187500000,1,1.1369630098,,,
8.7343750000,1,1.0277099609,,,
8.7500000000,1,0.8833007813,,,
8.7656250000,1,0.8331298828,,,
8.7812500000,1,0.9090576172,,,
8.7968750000,1,1.0626219511,,,
8.8125000000,1,1.2276610136,,,
8.8281250000,1,1.3779300451,,,
8.8437500000,1,1.5535889864,,,
8.8593750000,1,1.8220210075,,,
8.8750000000,1,2.2070310116,,,
8.8906250000,1,2.6392819881,,,
8.9062500000,1,2.9622800350,,,
8.9218750000,1,3.0126950741,,,
8.9375000000,1,2.7000730038,,,
8.9531250000,1,2.0570070744,,,
8.9687500000,1,1.2449949980,,,
8.9843750000,1,0.4708251953,,,
9.0000000000,1,-0.1119384989,,,
9.0156250000,1,-0.4248046875,,,
9.0312500000,1,-0.4853515923,,,
9.0468750000,1,-0.3687744141,,,
9.0625000000,1,-0.1534423977,,,
9.0781250000,1,0.0833740234,,,
9.0937500000,1,0.2631835938,,,
9.1093750000,1,0.3311767876,,,
9.1250000000,1,0.2396239936,,,
9.1406250000,1,-0.0103759803,,,
9.1562500000,1,-0.3538818061,,,
9.1718750000,1,-0.6895751953,,,
9.1875000000,1,-0.9068604112,,,
9.2031250000,1,-0.9252930284,,,
9.2187500000,1,-0.7373046875,,,
9.2343750000,1,-0.3853760064,,,
9.2500000000,1,0.0454101600,,,
9.2656250000,1,0.4635010064,,,
9.2812500000,1,0.7915039063,,,
9.2968750000,1,0.9842529297,,,
9.3125000000,1,1.0107419491,,,
9.3281250000,1,0.8784180284,,,
9.3437500000,1,0.6326904297,,,
9.3593750000,1,0.3383789063,,,
9.3750000000,1,0.0701904297,,,
9.3906250000,1,-0.1219481975,,,
9.4062500000,1,-0.2401123047,,,
9.4218750000,1,-0.3189696968,,,
9.4375000000,1,-0.3925780952,,,
9.4531250000,1,-0.5075684190,,,
9.4687500000,1,-0.6781005859,,,
9.4843750000,1,-0.8944091797,,,
9.5000000000,1,-1.1429439783,,,
9.5156250000,1,-1.3786619902,,,
9.5312500000,1,-1.5336910486,,,
9.5468750000,1,-1.5372309685,,,
9.5625000000,1,-1.3365479708,,,
9.5781250000,1,-0.9387207031,,,
9.5937500000,1,-0.4193114936,,,
9.6093750000,1,0.1245116964,,,
9.6250000000,1,0.5919188857,,,
9.6406250000,1,0.9044188857,,,
9.6562500000,1,1.0364990234,,,
9.6718750000,1,1.0118410587,,,
9.6875000000,1,0.8706055284,,,
9.7031250000,1,0.6905518174,,,
9.7187500000,1,0.5424805284,,,
9.7343750000,1,0.4707030952,,,
9.7500000000,1,0.4833984077,,,
9.7656250000,1,0.5343018174,,,
9.7812500000,1,0.5494384766,,,
9.7968750000,1,0.4787597954,,,
9.8125000000,1,0.3170166016,,,
9.8281250000,1,0.1212157980,,,
9.8437500000,1,-0.0225830097,,,
9.8593750000,1,-0.0737304688,,,
9.8750000000,1,-0.0557861291,,,
9.8906250000,1,-0.0518798791,,,
9.9062500000,1,-0.1452637017,,,
9.9218750000,1,-0.3696289063,,,
9.9375000000,1,-0.6656494141,,,
9.9531250000,1,-0.9318848252,,,
9.9687500000,1,-1.0853270292,,,
9.9843750000,1,-1.1069339514,,,
10.0000000000,1,-1.0524899960,,,
10.0156250000,1,-1.0152590275,,,
10.0312500000,1,-1.0682369471,,,
10.0468750000,1,-1.2186280489,,,
10.0625000000,1,-1.4012449980,,,
10.0781250000,1,-1.5225830078,,,
10.0937500000,1,-1.5124510527,,,
10.1093750000,1,-1.3724370003,,,
10.1250000000,1,-1.1693120003,,,
10.1406250000,1,-0.9938964844,,,
10.1562500000,1,-0.8968505859,,,
10.1718750000,1,-0.8386229873,,,
10.1875000000,1,-0.7435302734,,,
10.2031250000,1,-0.5249022841,,,
10.2187500000,1,-0.1573486030,,,
10.2343750000,1,0.3074950874,,,
10.2500000000,1,0.7811279297,,,
10.2656250000,1,1.1824949980,,,
10.2812500000,1,1.4578859806,,,
10.2968750000,1,1.5765379667,,,
10.3125000000,1,1.5255130529,,,
10.3281250000,1,1.2921140194,,,
10.3437500000,1,0.8961182237,,,
10.3593750000,1,0.4072265923,,,
10.3750000000,1,-0.0555419885,,,
10.3906250000,1,-0.3891601861,,,
10.4062500000,1,-0.5480957031,,,
10.4218750000,1,-0.5852050781,,,
10.4375000000,1,-0.5954589844,,,
10.4531250000,1,-0.6486815810,,,
10.4687500000,1,-0.7310791016,,,
10.4843750000,1,-0.7465819716,,,
10.5000000000,1,-0.6131591797,,,
10.5156250000,1,-0.3159179986,,,
10.5312500000,1,0.0491943397,,,
10.5468750000,1,0.3515625000,,,
10.5625000000,1,0.5085449219,,,
10.5781250000,1,0.5334473252,,,
10.5937500000,1,0.5220947266,,,
10.6093750000,1,0.5581055284,,,
10.6250000000,1,0.6512451172,,,
10.6406250000,1,0.7281494141,,,
10.6562500000,1,0.6876220703,,,
10.6718750000,1,0.4990234077,,,
10.6875000000,1,0.2307129055,,,
10.7031250000,1,0.0058593750,,,
10.7187500000,1,-0.0633544922,,,
10.7343750000,1,0.0391845703,,,
10.7500000000,1,0.2470702976,,,
10.7656250000,1,0.4517821968,,,
10.7812500000,1,0.5837401748,,,
10.7968750000,1,0.6328125000,,,
10.8125000000,1,0.6419677734,,,
10.8281250000,1,0.6339110732,,,
10.8437500000,1,0.5712891221,,,
10.8593750000,1,0.3717041016,,,
10.8750000000,1,-0.0310058594,,,
10.8906250000,1,-0.6239014268,,,
10.9062500000,1,-1.2585450411,,,
10.9218750000,1,-1.7103270292,,,
10.9375000000,1,-1.7701419592,,,
10.9531250000,1,-1.3593750000,,,
10.9687500000,1,-0.5748291016,,,
10.9843750000,1,0.3505859077,,,
11.0000000000,1,1.1264649630,,,
11.0156250000,1,1.5585939884,,,
11.0312500000,1,1.5943599939,,,
11.0468750000,1,1.3297120333,,,
11.0625000000,1,0.9472656250,,,
11.0781250000,1,0.6113281250,,,
11.0937500000,1,0.4310303032,,,
11.1093750000,1,0.4373778999,,,
11.1250000000,1,0.6146240234,,,
11.1406250000,1,0.9149169922,,,
11.1562500000,1,1.2641600370,,,
11.1718750000,1,1.5705569983,,,
11.1875000000,1,1.7445069551,,,
11.2031250000,1,1.7006839514,,,
11.2187500000,1,1.4251710176,,,
11.2343750000,1,0.9670410156,,,
11.2500000000,1,0.4459229112,,,
11.2656250000,1,-0.0201415997,,,
11.2812500000,1,-0.3775635064,,,
11.2968750000,1,-0.6677246094,,,
11.3125000000,1,-0.9841309190,,,
11.3281250000,1,-1.3881839514,,,
11.3437500000,1,-1.8463129997,,,
11.3593750000,1,-2.2070310116,,,
11.3750000000,1,-2.2835690975,,,
11.3906250000,1,-1.9874269962,,,
11.4062500000,1,-1.3842769861,,,
11.4218750000,1,-0.7061768174,,,
11.4375000000,1,-0.2252196968,,,
11.4531250000,1,-0.1181640998,,,
11.4687500000,1,-0.3867188096,,,
11.4843750000,1,-0.8537598252,,,
11.5000000000,1,-1.2819819450,,,
11.5156250000,1,-1.4986569881,,,
11.5312500000,1,-1.4729000330,,,
11.5468750000,1,-1.2973630428,,,
11.5625000000,1,-1.0932619572,,,
11.5781250000,1,-0.9361572266,,,
11.5937500000,1,-0.8099365234,,,
11.6093750000,1,-0.6484375000,,,
11.6250000000,1,-0.4010010064,,,
11.6406250000,1,-0.0699462891,,,
11.6562500000,1,0.2687987983,,,
11.6718750000,1,0.5164794922,,,
11.6875000000,1,0.6179199219,,,
11.7031250000,1,0.5808104873,,,
11.7187500000,1,0.4766846001,,,
11.7343750000,1,0.4086914063,,,
11.7500000000,1,0.4390869141,,,
11.7656250000,1,0.5662841797,,,
11.7812500000,1,0.7287598252,,,
11.7968750000,1,0.8459473252,,,
11.8125000000,1,0.8695067763,,,
11.8281250000,1,0.8029785156,,,
11.8437500000,1,0.7025145888,,,
11.8593750000,1,0.6186522841,,,
11.8750000000,1,0.5784912109,,,
11.8906250000,1,0.5603026748,,,
11.9062500000,1,0.5306395888,,,
11.9218750000,1,0.4627686143,,,
11.9375000000,1,0.3546142876,,,
11.9531250000,1,0.2424315959,,,
11.9687500000,1,0.1667480022,,,
11.9843750000,1,0.1423339993,,,
12.0000000000,1,0.1433105022,,,
12.0156250000,1,0.1196288988,,,
12.0312500000,1,0.0161132794,,,
12.0468750000,1,-0.2011719048,,,
12.0625000000,1,-0.5291748047,,,
12.0781250000,1,-0.9073485732,,,
12.0937500000,1,-1.2343750000,,,
12.1093750000,1,-1.3869630098,,,
12.1250000000,1,-1.2739260197,,,
12.1406250000,1,-0.8743895888,,,
12.1562500000,1,-0.2663573921,,,
12.1718750000,1,0.3917236030,,,
12.1875000000,1,0.9281005859,,,
12.2031250000,1,1.2232669592,,,
12.2187500000,1,1.2396240234,,,
12.2343750000,1,1.0332030058,,,
12.2500000000,1,0.6992188096,,,
12.2656250000,1,0.3431395888,,,
12.2812500000,1,0.0335693397,,,
12.2968750000,1,-0.1848144978,,,
12.3125000000,1,-0.2922362983,,,
12.3281250000,1,-0.2783203125,,,
12.3437500000,1,-0.1450195014,,,
12.3593750000,1,0.0811767578,,,
12.3750000000,1,0.3394775093,,,
12.3906250000,1,0.5609130859,,,
12.4062500000,1,0.7081298828,,,
12.4218750000,1,0.7904052734,,,
12.4375000000,1,0.8559569716,,,
12.4531250000,1,0.9277343750,,,
12.4687500000,1,0.9868164063,,,
12.4843750000,1,0.9774169922,,,
12.5000000000,1,0.8363037109,,,
12.5156250000,1,0.5153809190,,,
12.5312500000,1,0.0340576209,,,
12.5468750000,1,-0.5555419922,,,
12.5625000000,1,-1.1857910156,,,
12.5781250000,1,-1.7698969841,,,
12.5937500000,1,-2.2043459415,,,
12.6093750000,1,-2.4003911018,,,
12.6250000000,1,-2.3083500862,,,
12.6406250000,1,-1.9467769861,,,
12.6562500000,1,-1.4259029627,,,
12.6718750000,1,-0.9046630859,,,
12.6875000000,1,-0.5396729112,,,
12.7031250000,1,-0.3984375000,,,
12.7187500000,1,-0.4338378906,,,
12.7343750000,1,-0.5329589844,,,
12.7500000000,1,-0.5802001953,,,
12.7656250000,1,-0.5187988281,,,
12.7812500000,1,-0.3729248047,,,
12.7968750000,1,-0.2017821968,,,
12.8125000000,1,-0.0349121094,,,
12.8281250000,1,0.1459960938,,,
12.8437500000,1,0.3695068061,,,
12.8593750000,1,0.6427001953,,,
12.8750000000,1,0.9294434190,,,
12.8906250000,1,1.1395260096,,,
12.9062500000,1,1.2114260197,,,
12.9218750000,1,1.1247559786,,,
12.9375000000,1,0.9318848252,,,
12.9531250000,1,0.7255858779,,,
12.9687500000,1,0.6107177734,,,
12.9843750000,1,0.6424561143,,,
13.0000000000,1,0.7989501953,,,
13.0156250000,1,0.9750977159,,,
13.0312500000,1,1.0426030159,,,
13.0468750000,1,0.9052733779,,,
13.0625000000,1,0.5607910156,,,
13.0781250000,1,0.0963134766,,,
13.0937500000,1,-0.3364258111,,,
13.1093750000,1,-0.6003417969,,,
13.1250000000,1,-0.6419677734,,,
13.1406250000,1,-0.4976806939,,,
13.1562500000,1,-0.2770996094,,,
13.1718750000,1,-0.0928955078,,,
13.1875000000,1,-0.0113525400,,,
13.2031250000,1,-0.0229492206,,,
13.2187500000,1,-0.0531005897,,,
13.2343750000,1,-0.0272216797,,,
13.2500000000,1,0.0854492188,,,
13.2656250000,1,0.2630614936,,,
13.2812500000,1,0.4542236030,,,
13.2968750000,1,0.5946044922,,,
13.3125000000,1,0.6466063857,,,
13.3281250000,1,0.6162108779,,,
13.3437500000,1,0.5227050781,,,
13.3593750000,1,0.3966063857,,,
13.3750000000,1,0.2583008111,,,
13.3906250000,1,0.1152343974,,,
13.4062500000,1,-0.0207519494,,,
13.4218750000,1,-0.1284179986,,,
13.4375000000,1,-0.1948242038,,,
13.4531250000,1,-0.2358397990,,,
13.4687500000,1,-0.2951659858,,,
13.4843750000,1,-0.4340820014,,,
13.5000000000,1,-0.6933593750,,,
13.5156250000,1,-1.0642089844,,,
13.5312500000,1,-1.4882810116,,,
13.5468750000,1,-1.8775629997,,,
13.5625000000,1,-2.1484379768,,,
13.5781250000,1,-2.2657470703,,,
13.5937500000,1,-2.2391359806,,,
13.6093750000,1,-2.0849609375,,,
13.6250000000,1,-1.8284909725,,,
13.6406250000,1,-1.4954830408,,,
13.6562500000,1,-1.1169430017,,,
13.6718750000,1,-0.7647705078,,,
13.6875000000,1,-0.5515136719,,,
13.7031250000,1,-0.5812988281,,,
13.7187500000,1,-0.8769531250,,,
13.7343750000,1,-1.3514399529,,,
13.7500000000,1,-1.8200680017,,,
13.7656250000,1,-2.1030271053,,,
13.7812500000,1,-2.0926508904,,,
13.7968750000,1,-1.8356930017,,,
13.8125000000,1,-1.5159909725,,,
13.8281250000,1,-1.3413089514,,,
13.8437500000,1,-1.4444580078,,,
13.8593750000,1,-1.8095699549,,,
13.8750000000,1,-2.2969970703,,,
13.8906250000,1,-2.7080080509,,,
13.9062500000,1,-2.9056398869,,,
13.9218750000,1,-2.8652338982,,,
13.9375000000,1,-2.6459960938,,,
13.9531250000,1,-2.3548579216,,,
13.9687500000,1,-2.0684809685,,,
13.9843750000,1,-1.8059079647,,,
14.0000000000,1,-1.5437010527,,,
14.0156250000,1,-1.2596440315,,,
14.0312500000,1,-0.9511718750,,,
14.0468750000,1,-0.6270751953,,,
14.0625000000,1,-0.2521972954,,,
14.0781250000,1,0.2565917969,,,
14.0937500000,1,0.9849854112,,,
14.1093750000,1,1.9750980139,,,
14.1250000000,1,3.1409909725,,,
14.1406250000,1,4.2639160156,,,
14.1562500000,1,5.1207280159,,,
14.1718750000,1,5.6356201172,,,
14.1875000000,1,5.9702148438,,,
14.2031250000,1,6.4786381721,,,
14.2187500000,1,7.5194091797,,,
14.2343750000,1,9.2215576172,,,
14.2500000000,1,11.3850097656,,,
14.2656250000,1,13.5493202209,,,
14.2812500000,1,15.2504901886,,,
14.2968750000,1,16.2322998047,,,
14.3125000000,1,16.5407695770,,,
14.3281250000,1,16.3925800323,,,
14.3437500000,1,15.9893798828,,,
14.3593750000,1,15.3669395447,,,
14.3750000000,1,14.4316396713,,,
14.3906250000,1,13.1068096161,,,
14.4062500000,1,11.4735097885,,,
14.4218750000,1,9.7601318359,,,
14.4375000000,1,8.2343750000,,,
14.4531250000,1,7.0267329216,,,
14.4687500000,1,6.0474848747,,,
14.4843750000,1,5.0871582031,,,
14.5000000000,1,3.9730219841,,,
14.5156250000,1,2.7114260197,,,
14.5312500000,1,1.4968260527,,,
14.5468750000,1,0.5748291016,,,
14.5625000000,1,0.0822753906,,,
14.5781250000,1,-0.0548095703,,,
14.5937500000,1,-0.1052246019,,,
14.6093750000,1,-0.3892821968,,,
14.6250000000,1,-1.1156009436,,,
14.6406250000,1,-2.3068850040,,,
14.6562500000,1,-3.7872309685,,,
14.6718750000,1,-5.2962651253,,,
14.6875000000,1,-6.6158452034,,,
14.7031250000,1,-7.6214599609,,,
14.7187500000,1,-8.3332519531,,,
14.7343750000,1,-8.8569335938,,,
14.7500000000,1,-9.3197021484,,,
14.7656250000,1,-9.8391113281,,,
14.7812500000,1,-10.4699697495,,,
14.7968750000,1,-11.2193603516,,,
14.8125000000,1,-12.0117197037,,,
14.8281250000,1,-12.7195997238,,,
14.8437500000,1,-13.1401395798,,,
14.8593750000,1,-13.0927696228,,,
14.8750000000,1,-12.4582500458,,,
14.8906250000,1,-11.2699003220,,,
14.9062500000,1,-9.7043457031,,,
14.9218750000,1,-8.0474853516,,,
14.9375000000,1,-6.5648188591,,,
14.9531250000,1,-5.4053959846,,,
14.9687500000,1,-4.5694580078,,,
14.9843750000,1,-3.9428710938,,,
15.0000000000,1,-3.4029541016,,,
15.0156250000,1,-2.8640139103,,,
15.0312500000,1,-2.3264160156,,,
15.0468750000,1,-1.8090820313,,,
15.0625000000,1,-1.3188480139,,,
15.0781250000,1,-0.8433837891,,,
15.0937500000,1,-0.3697510064,,,
15.1093750000,1,0.0804443434,,,
15.1250000000,1,0.4586181939,,,
15.1406250000,1,0.6949462891,,,
15.1562500000,1,0.7490233779,,,
15.1718750000,1,0.6246337891,,,
15.1875000000,1,0.3355712891,,,
15.2031250000,1,-0.0946044922,,,
15.2187500000,1,-0.6505126953,,,
15.2343750000,1,-1.3115229607,,,
15.2500000000,1,-2.0141599178,,,
15.2656250000,1,-2.6760249138,,,
15.2812500000,1,-3.1978759766,,,
15.2968750000,1,-3.5164790154,,,
15.3125000000,1,-3.6330571175,,,
15.3281250000,1,-3.6094970703,,,
15.3437500000,1,-3.5262451172,,,
15.3593750000,1,-3.4599609375,,,
15.3750000000,1,-3.4373779297,,,
15.3906250000,1,-3.4588620663,,,
15.4062500000,1,-3.5009770393,,,
15.4218750000,1,-3.5415039063,,,
15.4375000000,1,-3.5516359806,,,
15.4531250000,1,-3.4967041016,,,
15.4687500000,1,-3.3486330509,,,
15.4843750000,1,-3.1103520393,,,
15.5000000000,1,-2.8040769100,,,
15.5156250000,1,-2.4580080509,,,
15.5312500000,1,-2.0939939022,,,
15.5468750000,1,-1.6875000000,,,
15.5625000000,1,-1.2019040585,,,
15.5781250000,1,-0.6038817763,,,
15.5937500000,1,0.0908203125,,,
15.6093750000,1,0.8394774795,,,
15.6250000000,1,1.5722659826,,,
15.6406250000,1,2.2515869141,,,
15.6562500000,1,2.8695070744,,,
15.6718750000,1,3.4492189884,,,
15.6875000000,1,4.0123291016,,,
15.7031250000,1,4.5271000862,,,
15.7187500000,1,4.9090580940,,,
15.7343750000,1,5.0289311409,,,
15.7500000000,1,4.8175048828,,,
15.7656250000,1,4.3039550781,,,
15.7812500000,1,3.6373291016,,,
15.7968750000,1,3.0209960938,,,
15.8125000000,1,2.6011960506,,,
15.8281250000,1,2.3781740665,,,
15.8437500000,1,2.2192380428,,,
15.8593750000,1,1.9291989803,,,
15.8750000000,1,1.3693850040,,,
15.8906250000,1,0.5502930284,,,
15.9062500000,1,-0.3820801079,,,
15.9218750000,1,-1.2232669592,,,
15.9375000000,1,-1.8103029728,,,
15.9531250000,1,-2.0952150822,,,
15.9687500000,1,-2.1234130859,,,
15.9843750000,1,-1.9746090174,,,
16.0000000000,2,-1.7155760527,,,
16.0156250000,2,-1.3811039925,,,
16.0312500000,2,-0.9870604873,,,
16.0468750000,2,-0.5592041016,,,
16.0625000000,2,-0.1356201023,,,
16.0781250000,2,0.2385254055,,,
16.0937500000,2,0.5181884766,,,
16.1093750000,2,0.6800537109,,,
16.1250000000,2,0.7130126953,,,
16.1406250000,2,0.6474608779,,,
16.1562500000,2,0.5428466797,,,
16.1718750000,2,0.4851073921,,,
16.1875000000,2,0.5286865234,,,
16.2031250000,2,0.6563720703,,,
16.2187500000,2,0.8018798828,,,
16.2343750000,2,0.8572998047,,,
16.2500000000,2,0.7534180284,,,
16.2656250000,2,0.4929198921,,,
16.2812500000,2,0.1502685994,,,
16.2968750000,2,-0.1723632962,,,
16.3125000000,2,-0.3951416016,,,
16.3281250000,2,-0.5108643174,,,
16.3437500000,2,-0.5484619141,,,
16.3593750000,2,-0.5454102159,,,
16.3750000000,2,-0.5250244141,,,
16.3906250000,2,-0.4665527046,,,
16.4062500000,2,-0.3537597954,,,
16.4218750000,2,-0.1854248047,,,
16.4375000000,2,0.0323486291,,,
16.4531250000,2,0.2637938857,,,
16.4687500000,2,0.4492188096,,,
16.4843750000,2,0.5364990234,,,
16.5000000000,2,0.4804688096,,,
16.5156250000,2,0.2770996094,,,
16.5312500000,2,-0.0264892597,,,
16.5468750000,2,-0.3364258111,,,
16.5625000000,2,-0.5677490234,,,
16.5781250000,2,-0.6743164063,,,
16.5937500000,2,-0.6824951172,,,
16.6093750000,2,-0.6630858779,,,
16.6250000000,2,-0.6760253906,,,
16.6406250000,2,-0.7375488281,,,
16.6562500000,2,-0.8392333984,,,
16.6718750000,2,-0.9721680284,,,
16.6875000000,2,-1.1550290585,,,
16.7031250000,2,-1.4344480038,,,
16.7187500000,2,-1.8082280159,,,
16.7343750000,2,-2.1855471134,,,
16.7500000000,2,-2.3946530819,,,
16.7656250000,2,-2.2438960075,,,
16.7812500000,2,-1.6223139763,,,
16.7968750000,2,-0.5590819716,,,
16.8125000000,2,0.7631835938,,,
16.8281250000,2,2.0714108944,,,
16.8437500000,2,3.0915529728,,,
16.8593750000,2,3.6452639103,,,
16.8750000000,2,3.6884770393,,,
16.8906250000,2,3.3323969841,,,
16.9062500000,2,2.7825930119,,,
16.9218750000,2,2.2507319450,,,
16.9375000000,2,1.8868410587,,,
16.9531250000,2,1.7264399529,,,
16.9687500000,2,1.6975100040,,,
16.9843750000,2,1.6729739904,,,
17.0000000000,2,1.5495610237,,,
17.0156250000,2,1.2968750000,,,
17.0312500000,2,0.9367675781,,,
17.0468750000,2,0.5394287109,,,
17.0625000000,2,0.1546631008,,,
17.0781250000,2,-0.1723632962,,,
17.0937500000,2,-0.3928222954,,,
17.1093750000,2,-0.4317626953,,,
17.1250000000,2,-0.2225341946,,,
17.1406250000,2,0.2365722954,,,
17.1562500000,2,0.8397216797,,,
17.1718750000,2,1.3836669922,,,
17.1875000000,2,1.6546629667,,,
17.2031250000,2,1.5452879667,,,
17.2187500000,2,1.1286619902,,,
17.2343750000,2,0.6042479873,,,
17.2500000000,2,0.1879882962,,,
17.2656250000,2,-0.0007324219,,,
17.2812500000,2,0.0062255859,,,
17.2968750000,2,0.0870361328,,,
17.3125000000,2,0.1210938022,,,
17.3281250000,2,0.0999755934,,,
17.3437500000,2,0.1409911960,,,
17.3593750000,2,0.4118652046,,,
17.3750000000,2,1.0045169592,,,
17.3906250000,2,1.8635250330,,,
17.4062500000,2,2.7934570313,,,
17.4218750000,2,3.5443120003,,,
17.4375000000,2,3.9437260628,,,
17.4531250000,2,3.9666750431,,,
17.4687500000,2,3.7330319881,,,
17.4843750000,2,3.4185791016,,,
17.5000000000,2,3.1596679688,,,
17.5156250000,2,2.9874269962,,,
17.5312500000,2,2.8129880428,,,
17.5468750000,2,2.5234379768,,,
17.5625000000,2,2.0495610237,,,
17.5781250000,2,1.4385989904,,,
17.5937500000,2,0.8295897841,,,
17.6093750000,2,0.3836669922,,,
17.6250000000,2,0.1931152046,,,
17.6406250000,2,0.2229004055,,,
17.6562500000,2,0.3530273139,,,
17.6718750000,2,0.4470215142,,,
17.6875000000,2,0.4152832031,,,
17.7031250000,2,0.2403564006,,,
17.7187500000,2,-0.0480956994,,,
17.7343750000,2,-0.4067383111,,,
17.7500000000,2,-0.7940673828,,,
17.7656250000,2,-1.1655269861,,,
17.7812500000,2,-1.4808349609,,,
17.7968750000,2,-1.6704100370,,,
17.8125000000,2,-1.6774899960,,,
17.8281250000,2,-1.4816889763,,,
17.8437500000,2,-1.1204830408,,,
17.8593750000,2,-0.6838378906,,,
17.8750000000,2,-0.2918700874,,,
17.8906250000,2,-0.0537109412,,,
17.9062500000,2,-0.0177002009,,,
17.9218750000,2,-0.1832274944,,,
17.9375000000,2,-0.4927979112,,,
17.9531250000,2,-0.8797606826,,,
17.9687500000,2,-1.2891850471,,,
17.9843750000,2,-1.6933590174,,,
18.0000000000,2,-2.0665280819,,,
18.0156250000,2,-2.3787839413,,,
18.0312500000,2,-2.5716550350,,,
18.0468750000,2,-2.5797119141,,,
18.0625000000,2,-2.3842771053,,,
18.0781250000,2,-2.0257570744,,,
18.0937500000,2,-1.6307369471,,,
18.1093750000,2,-1.3432619572,,,
18.1250000000,2,-1.2547609806,,,
18.1406250000,2,-1.3312989473,,,
18.1562500000,2,-1.4545899630,,,
18.1718750000,2,-1.4548339844,,,
18.1875000000,2,-1.2191159725,,,
18.2031250000,2,-0.7207031250,,,
18.2187500000,2,-0.0191650409,,,
18.2343750000,2,0.7696533203,,,
18.2500000000,2,1.5274660587,,,
18.2656250000,2,2.1357419491,,,
18.2812500000,2,2.5003659725,,,
18.2968750000,2,2.5520019531,,,
18.3125000000,2,2.2800290585,,,
18.3281250000,2,1.7292480469,,,
18.3437500000,2,1.0039060116,,,
18.3593750000,2,0.2255858928,,,
18.3750000000,2,-0.5006104112,,,
18.3906250000,2,-1.1153559685,,,
18.4062500000,2,-1.5976560116,,,
18.4218750000,2,-1.9514160156,,,
18.4375000000,2,-2.1783449650,,,
18.4531250000,2,-2.2761230469,,,
18.4687500000,2,-2.2379150391,,,
18.4843750000,2,-2.0909419060,,,
18.5000000000,2,-1.8437500000,,,
18.5156250000,2,-1.5363769531,,,
18.5312500000,2,-1.1937259436,,,
18.5468750000,2,-0.8475341797,,,
18.5625000000,2,-0.5502930284,,,
18.5781250000,2,-0.3609619141,,,
18.5937500000,2,-0.3159179986,,,
18.6093750000,2,-0.4260253906,,,
18.6250000000,2,-0.6606444716,,,
18.6406250000,2,-0.9423828125,,,
18.6562500000,2,-1.1960450411,,,
18.6718750000,2,-1.3378909826,,,
18.6875000000,2,-1.3222659826,,,
18.7031250000,2,-1.1351319551,,,
18.7187500000,2,-0.8266602159,,,
18.7343750000,2,-0.4903563857,,,
18.7500000000,2,-0.2436522990,,,
18.7656250000,2,-0.1712646037,,,
18.7812500000,2,-0.2542724907,,,
18.7968750000,2,-0.3948974907,,,
18.8125000000,2,-0.4587402046,,,
18.8281250000,2,-0.3784179986,,,
18.8437500000,2,-0.2038574070,,,
18.8593750000,2,-0.0747070313,,,
18.8750000000,2,-0.1215820014,,,
18.8906250000,2,-0.3533936143,,,
18.9062500000,2,-0.6262207031,,,
18.9218750000,2,-0.7312011719,,,
18.9375000000,2,-0.5218505859,,,
18.9531250000,2,-0.0035400391,,,
18.9687500000,2,0.6678466797,,,
18.9843750000,2,1.2730710506,,,
19.0000000000,2,1.6849370003,,,
19.0156250000,2,1.8854980469,,,
19.0312500000,2,1.9683840275,,,
19.0468750000,2,2.0325930119,,,
19.0625000000,2,2.1035161018,,,
19.0781250000,2,2.1141359806,,,
19.0937500000,2,1.9633790255,,,
19.1093750000,2,1.5887449980,,,
19.1250000000,2,1.0239260197,,,
19.1406250000,2,0.3999023139,,,
19.1562500000,2,-0.1166991964,,,
19.1718750000,2,-0.3847655952,,,
19.1875000000,2,-0.3618164063,,,
19.2031250000,2,-0.0989990234,,,
19.2187500000,2,0.2708739936,,,
19.2343750000,2,0.6394042969,,,
19.2500000000,2,0.9460449219,,,
19.2656250000,2,1.2031250000,,,
19.2812500000,2,1.4334720373,,,
19.2968750000,2,1.6193850040,,,
19.3125000000,2,1.6777340174,,,
19.3281250000,2,1.4860839844,,,
19.3437500000,2,0.9689940810,,,
19.3593750000,2,0.1673583984,,,
19.3750000000,2,-0.7512207031,,,
19.3906250000,2,-1.5528559685,,,
19.4062500000,2,-2.0657958984,,,
19.4218750000,2,-2.2587890625,,,
19.4375000000,2,-2.2606201172,,,
19.4531250000,2,-2.2709960938,,,
19.4687500000,2,-2.4641110897,,,
19.4843750000,2,-2.9035639763,,,
19.5000000000,2,-3.5212399960,,,
19.5156250000,2,-4.1960449219,,,
19.5312500000,2,-4.7912597656,,,
19.5468750000,2,-5.2456049919,,,
19.5625000000,2,-5.5595698357,,,
19.5781250000,2,-5.7496337891,,,
19.5937500000,2,-5.8094477654,,,
19.6093750000,2,-5.6762700081,,,
19.6250000000,2,-5.2523188591,,,
19.6406250000,2,-4.4700927734,,,
19.6562500000,2,-3.3605959415,,,
19.6718750000,2,-2.0372309685,,,
19.6875000000,2,-0.6772460938,,,
19.7031250000,2,0.5837401748,,,
19.7187500000,2,1.6754150391,,,
19.7343750000,2,2.6110839844,,,
19.7500000000,2,3.4165039063,,,
19.7656250000,2,4.1024169922,,,
19.7812500000,2,4.6003417969,,,
19.7968750000,2,4.8107910156,,,
19.8125000000,2,4.6773681641,,,
19.8281250000,2,4.2626948357,,,
19.8437500000,2,3.7316889763,,,
19.8593750000,2,3.3001708984,,,
19.8750000000,2,3.1037600040,,,
19.8906250000,2,3.1328129768,,,
19.9062500000,2,3.2451169491,,,
19.9218750000,2,3.2706298828,,,
19.9375000000,2,3.1314699650,,,
19.9531250000,2,2.9047849178,,,
19.9687500000,2,2.7764890194,,,
19.9843750000,2,2.9334719181,,,
20.0000000000,2,3.4627690315,,,
20.0156250000,2,4.2698969841,,,
20.0312500000,2,5.1260991096,,,
20.0468750000,2,5.7474370003,,,
20.0625000000,2,5.8907470703,,,
20.0781250000,2,5.4261469841,,,
20.0937500000,2,4.3460688591,,,
20.1093750000,2,2.7508540154,,,
20.1250000000,2,0.8128662109,,,
20.1406250000,2,-1.2648930550,,,
20.1562500000,2,-3.2753911018,,,
20.1718750000,2,-5.0600590706,,,
20.1875000000,2,-6.5085449219,,,
20.2031250000,2,-7.5567631721,,,
20.2187500000,2,-8.1671142578,,,
20.2343750000,2,-8.3061523438,,,
20.2500000000,2,-7.9711909294,,,
20.2656250000,2,-7.2126460075,,,
20.2812500000,2,-6.1727290154,,,
20.2968750000,2,-5.0620121956,,,
20.3125000000,2,-4.1079101563,,,
20.3281250000,2,-3.4915769100,,,
20.3437500000,2,-3.3477780819,,,
20.3593750000,2,-3.7337648869,,,
20.3750000000,2,-4.6533198357,,,
20.3906250000,2,-6.0358891487,,,
20.4062500000,2,-7.7354741096,,,
20.4218750000,2,-9.5468750000,,,
20.4375000000,2,-11.2585401535,,,
20.4531250000,2,-12.7130098343,,,
20.4687500000,2,-13.8266601563,,,
20.4843750000,2,-14.5704298019,,,
20.5000000000,2,-14.9201698303,,,
20.5156250000,2,-14.8200702667,,,
20.5312500000,2,-14.2015399933,,,
20.5468750000,2,-13.0430898666,,,
20.5625000000,2,-11.4145498276,,,
20.5781250000,2,-9.4744873047,,,
20.5937500000,2,-7.4135742188,,,
20.6093750000,2,-5.3928217888,,,
20.6250000000,2,-3.5152590275,,,
20.6406250000,2,-1.8391109705,,,
20.6562500000,2,-0.3957520127,,,
20.6718750000,2,0.7716063857,,,
20.6875000000,2,1.6623539925,,,
20.7031250000,2,2.3310549259,,,
20.7187500000,2,2.8695070744,,,
20.7343750000,2,3.3713378906,,,
20.7500000000,2,3.8629150391,,,
20.7656250000,2,4.3122558594,,,
20.7812500000,2,4.6558837891,,,
20.7968750000,2,4.8710942268,,,
20.8125000000,2,5.0078129768,,,
20.8281250000,2,5.1613769531,,,
20.8437500000,2,5.3944091797,,,
20.8593750000,2,5.6953129768,,,
20.8750000000,2,5.9664311409,,,
20.8906250000,2,6.0700678825,,,
20.9062500000,2,5.9140629768,,,
20.9218750000,2,5.4948730469,,,
20.9375000000,2,4.9061279297,,,
20.9531250000,2,4.2777099609,,,
20.9687500000,2,3.7100830078,,,
20.9843750000,2,3.2364499569,,,
21.0000000000,2,2.8448491096,,,
21.0156250000,2,2.5353999138,,,
21.0312500000,2,2.3798830509,,,
21.0468750000,2,2.5141599178,,,
21.0625000000,2,3.0572509766,,,
21.0781250000,2,3.9948730469,,,
21.0937500000,2,5.1276860237,,,
21.1093750000,2,6.1229248047,,,
21.1250000000,2,6.6700439453,,,
21.1406250000,2,6.6444091797,,,
21.1562500000,2,6.1981201172,,,
21.1718750000,2,5.6574711800,,,
21.1875000000,2,5.3540039063,,,
21.2031250000,2,5.4320068359,,,
21.2187500000,2,5.7683110237,,,
21.2343750000,2,6.0549321175,,,
21.2500000000,2,5.9592289925,,,
21.2656250000,2,5.2868652344,,,
21.2812500000,2,4.0506591797,,,
21.2968750000,2,2.4112548828,,,
21.3125000000,2,0.6180419922,,,
21.3281250000,2,-1.0695799589,,,
21.3437500000,2,-2.4224851131,,,
21.3593750000,2,-3.2426760197,,,
21.3750000000,2,-3.3979489803,,,
21.3906250000,2,-2.8751220703,,,
21.4062500000,2,-1.7832030058,,,
21.4218750000,2,-0.3330078125,,,
21.4375000000,2,1.2633060217,,,
21.4531250000,2,2.8649899960,,,
21.4687500000,2,4.4190669060,,,
21.4843750000,2,5.9102778435,,,
21.5000000000,2,7.3015141487,,,
21.5156250000,2,8.4942626953,,,
21.5312500000,2,9.3635253906,,,
21.5468750000,2,9.8012695313,,,
21.5625000000,2,9.7687988281,,,
21.5781250000,2,9.3067626953,,,
21.5937500000,2,8.5057373047,,,
21.6093750000,2,7.4855961800,,,
21.6250000000,2,6.3790278435,,,
21.6406250000,2,5.3267822266,,,
21.6562500000,2,4.4554438591,,,
21.6718750000,2,3.8436279297,,,
21.6875000000,2,3.5042719841,,,
21.7031250000,2,3.3817141056,,,
21.7187500000,2,3.3957519531,,,
21.7343750000,2,3.5073239803,,,
21.7500000000,2,3.7418210506,,,
21.7656250000,2,4.1469731331,,,
21.7812500000,2,4.7668461800,,,
21.7968750000,2,5.5783691406,,,
21.8125000000,2,6.4860839844,,,
21.8281250000,2,7.3665771484,,,
21.8437500000,2,8.1154794693,,,
21.8593750000,2,8.6851806641,,,
21.8750000000,2,9.0817871094,,,
21.8906250000,2,9.3308105469,,,
21.9062500000,2,9.4173583984,,,
21.9218750000,2,9.2509765625,,,
21.9375000000,2,8.6942138672,,,
21.9531250000,2,7.6197509766,,,
21.9687500000,2,6.0158691406,,,
21.9843750000,2,4.0142822266,,,
22.0000000000,2,1.8905030489,,,
22.0156250000,2,-0.0430908203,,,
22.0312500000,2,-1.5777590275,,,
22.0468750000,2,-2.6491699219,,,
22.0625000000,2,-3.3631589413,,,
22.0781250000,2,-3.9102780819,,,
22.0937500000,2,-4.4761958122,,,
22.1093750000,2,-5.1833500862,,,
22.1250000000,2,-6.0784912109,,,
22.1406250000,2,-7.1368408203,,,
22.1562500000,2,-8.2878417969,,,
22.1718750000,2,-9.4158935547,,,
22.1875000000,2,-10.3663301468,,,
22.2031250000,2,-10.9899902344,,,
22.2187500000,2,-11.2034902573,,,
22.2343750000,2,-11.0378398895,,,
22.2500000000,2,-10.6320800781,,,
22.2656250000,2,-10.1613798141,,,
22.2812500000,2,-9.7426757813,,,
22.2968750000,2,-9.3610839844,,,
22.3125000000,2,-8.9113769531,,,
22.3281250000,2,-8.2846679688,,,
22.3437500000,2,-7.4428710938,,,
22.3593750000,2,-6.4468989372,,,
22.3750000000,2,-5.4040532112,,,
22.3906250000,2,-4.3684082031,,,
22.4062500000,2,-3.2972409725,,,
22.4218750000,2,-2.1121830940,,,
22.4375000000,2,-0.7785645127,,,
22.4531250000,2,0.6130371094,,,
22.4687500000,2,1.8554689884,,,
22.4843750000,2,2.7167971134,,,
22.5000000000,2,3.0808110237,,,
22.5156250000,2,3.0301508904,,,
22.5312500000,2,2.7767329216,,,
22.5468750000,2,2.5592041016,,,
22.5625000000,2,2.5081789494,,,
22.5781250000,2,2.5820310116,,,
22.5937500000,2,2.6457519531,,,
22.6093750000,2,2.5854489803,,,
22.6250000000,2,2.3861079216,,,
22.6406250000,2,2.1304929256,,,
22.6562500000,2,1.9257810116,,,
22.6718750000,2,1.8010250330,,,
22.6875000000,2,1.6849370003,,,
22.7031250000,2,1.4759520292,,,
22.7187500000,2,1.1199949980,,,
22.7343750000,2,0.6934813857,,,
22.7500000000,2,0.3521729112,,,
22.7656250000,2,0.2363280952,,,
22.7812500000,2,0.3627929986,,,
22.7968750000,2,0.5963134766,,,
22.8125000000,2,0.7459716797,,,
22.8281250000,2,0.6596680284,,,
22.8437500000,2,0.3593750000,,,
22.8593750000,2,0.0126953097,,,
22.8750000000,2,-0.1801757962,,,
22.8906250000,2,-0.1293945014,,,
22.9062500000,2,0.0694580078,,,
22.9218750000,2,0.1662597954,,,
22.9375000000,2,-0.0839843825,,,
22.9531250000,2,-0.7683104873,,,
22.9687500000,2,-1.7755130529,,,
22.9843750000,2,-2.8555910587,,,
23.0000000000,2,-3.7574460506,,,
23.0156250000,2,-4.3549799919,,,
23.0312500000,2,-4.6568598747,,,
23.0468750000,2,-4.7708740234,,,
23.0625000000,2,-4.7696528435,,,
23.0781250000,2,-4.6577148438,,,
23.0937500000,2,-4.3724370003,,,
23.1093750000,2,-3.8592529297,,,
23.1250000000,2,-3.1112060547,,,
23.1406250000,2,-2.2100830078,,,
23.1562500000,2,-1.2784420252,,,
23.1718750000,2,-0.4263916016,,,
23.1875000000,2,0.2712402046,,,
23.2031250000,2,0.8038330078,,,
23.2187500000,2,1.1782230139,,,
23.2343750000,2,1.4165040255,,,
23.2500000000,2,1.5238039494,,,
23.2656250000,2,1.5031739473,,,
23.2812500000,2,1.3406980038,,,
23.2968750000,2,1.0299069881,,,
23.3125000000,2,0.6070557237,,,
23.3281250000,2,0.1518554986,,,
23.3437500000,2,-0.1901855022,,,
23.3593750000,2,-0.2897948921,,,
23.3750000000,2,-0.0941162109,,,
23.3906250000,2,0.3134765923,,,
23.4062500000,2,0.7482910156,,,
23.4218750000,2,0.9877930284,,,
23.4375000000,2,0.9304199219,,,
23.4531250000,2,0.6251220703,,,
23.4687500000,2,0.2426757962,,,
23.4843750000,2,-0.0493164100,,,
23.5000000000,2,-0.1781006008,,,
23.5156250000,2,-0.1992187947,,,
23.5312500000,2,-0.2152100056,,,
23.5468750000,2,-0.2873534858,,,
23.5625000000,2,-0.3791503906,,,
23.5781250000,2,-0.4111328125,,,
23.5937500000,2,-0.3391112983,,,
23.6093750000,2,-0.2167969048,,,
23.6250000000,2,-0.1585693061,,,
23.6406250000,2,-0.2556152046,,,
23.6562500000,2,-0.4680176079,,,
23.6718750000,2,-0.6138916016,,,
23.6875000000,2,-0.4669188857,,,
23.7031250000,2,0.1060791016,,,
23.7187500000,2,1.0506589413,,,
23.7343750000,2,2.1357419491,,,
23.7500000000,2,3.0692141056,,,
23.7656250000,2,3.6314699650,,,
23.7812500000,2,3.7722170353,,,
23.7968750000,2,3.6070559025,,,
23.8125000000,2,3.3498539925,,,
23.8281250000,2,3.2203369141,,,
23.8437500000,2,3.3641359806,,,
23.8593750000,2,3.8067629337,,,
23.8750000000,2,4.4453129768,,,
23.8906250000,2,5.1002202034,,,
23.9062500000,2,5.5943598747,,,
23.9218750000,2,5.8166499138,,,
23.9375000000,2,5.7908940315,,,
23.9531250000,2,5.6579589844,,,
23.9687500000,2,5.6173100471,,,
23.9843750000,2,5.8079829216,,,
24.0000000000,3,6.2414550781,,,
24.0156250000,3,6.7923579216,,,
24.0312500000,3,7.2302250862,,,
24.0468750000,3,7.3062739372,,,
24.0625000000,3,6.9230961800,,,
24.0781250000,3,6.1794428825,,,
24.0937500000,3,5.3923339844,,,
24.1093750000,3,5.0158691406,,,
24.1250000000,3,5.4626460075,,,
24.1406250000,3,6.9425048828,,,
24.1562500000,3,9.3461914063,,,
24.1718750000,3,12.2847900391,,,
24.1875000000,3,15.2153301239,,,
24.2031250000,3,17.7027606964,,,
24.2187500000,3,19.5738506317,,,
24.2343750000,3,21.0192909241,,,
24.2500000000,3,22.5671405792,,,
24.2656250000,3,24.8254394531,,,
24.2812500000,3,28.2213096619,,,
24.2968750000,3,32.7175292969,,,
24.3125000000,3,37.7646484375,,,
24.3281250000,3,42.4715003967,,,
24.3437500000,3,46.1068687439,,,
24.3593750000,3,48.5749511719,,,
24.3750000000,3,50.5731811523,,,
24.3906250000,3,53.3192710876,,,
24.4062500000,3,58.0174598694,,,
24.4218750000,3,65.2977905273,,,
24.4375000000,3,74.8575973511,,,
24.4531250000,3,85.4546508789,,,
24.4687500000,3,95.0106201172,,,
24.4843750000,3,100.7976989746,,,
24.5000000000,3,99.7369384766,,,
24.5156250000,3,89.0523681641,,,
24.5312500000,3,67.2976074219,,,
24.5468750000,3,35.3778686523,,,
24.5625000000,3,-2.9154050350,,,
24.5781250000,3,-41.5690917969,,,
24.5937500000,3,-74.0516967773,,,
24.6093750000,3,-95.5294799805,,,
24.6250000000,3,-104.3811035156,,,
24.6406250000,3,-102.3955993652,,,
24.6562500000,3,-93.5553588867,,,
24.6718750000,3,-82.1487426758,,,
24.6875000000,3,-71.2924194336,,,
24.7031250000,3,-62.3688392639,,,
24.7187500000,3,-55.4882812500,,,
24.7343750000,3,-50.2880210876,,,
24.7500000000,3,-46.4959716797,,,
24.7656250000,3,-44.0468788147,,,
24.7812500000,3,-42.8409385681,,,
24.7968750000,3,-42.4602699280,,,
24.8125000000,3,-42.1062583923,,,
24.8281250000,3,-40.9228515625,,,
24.8437500000,3,-38.3751792908,,,
24.8593750000,3,-34.5091590881,,,
24.8750000000,3,-29.9476299286,,,
24.8906250000,3,-25.6389198303,,,
24.9062500000,3,-22.4301109314,,,
24.9218750000,3,-20.7080097198,,,
24.9375000000,3,-20.2581806183,,,
24.9531250000,3,-20.3593101501,,,
24.9687500000,3,-20.1567401886,,,
24.9843750000,3,-19.0146503448,,,
25.0000000000,3,-16.8232994080,,,
25.0156250000,3,-14.0064096451,,,
25.0312500000,3,-11.2858295441,,,
25.0468750000,3,-9.3304443359,,,
25.0625000000,3,-8.4381713867,,,
25.0781250000,3,-8.4406738281,,,
25.0937500000,3,-8.7857666016,,,
25.1093750000,3,-8.8743896484,,,
25.1250000000,3,-8.2786245346,,,
25.1406250000,3,-6.9507451057,,,
25.1562500000,3,-5.1679081917,,,
25.1718750000,3,-3.3814699650,,,
25.1875000000,3,-1.9925539494,,,
25.2031250000,3,-1.2166140079,,,
25.2187500000,3,-1.0278929472,,,
25.2343750000,3,-1.2406009436,,,
25.2500000000,3,-1.6242680550,,,
25.2656250000,3,-1.9774780273,,,
25.2812500000,3,-2.1958010197,,,
25.2968750000,3,-2.2632451057,,,
25.3125000000,3,-2.1966550350,,,
25.3281250000,3,-2.0307009220,,,
25.3437500000,3,-1.7803339958,,,
25.3593750000,3,-1.4455569983,,,
25.3750000000,3,-1.0330200195,,,
25.3906250000,3,-0.5758057237,,,
25.4062500000,3,-0.1457519978,,,
25.4218750000,3,0.1860962063,,,
25.4375000000,3,0.3610840142,,,
25.4531250000,3,0.3867797852,,,
25.4687500000,3,0.3330078125,,,
25.4843750000,3,0.3079223931,,,
25.5000000000,3,0.3845824897,,,
25.5156250000,3,0.5525513291,,,
25.5312500000,3,0.7146605849,,,
25.5468750000,3,0.7487183213,,,
25.5625000000,3,0.5794066787,,,
25.5781250000,3,0.2214965969,,,
25.5937500000,3,-0.2045287937,,,
25.6093750000,3,-0.5716552734,,,
25.6250000000,3,-0.7758789063,,,
25.6406250000,3,-0.7955933213,,,
25.6562500000,3,-0.6644287109,,,
25.6718750000,3,-0.4622803032,,,
25.6875000000,3,-0.2371215969,,,
25.7031250000,3,-0.0219726600,,,
25.7187500000,3,0.1713256985,,,
25.7343750000,3,0.3261719048,,,
25.7500000000,3,0.4221191108,,,
25.7656250000,3,0.4297485054,,,
25.7812500000,3,0.3267211914,,,
25.7968750000,3,0.1022339016,,,
25.8125000000,3,-0.2210083008,,,
25.8281250000,3,-0.6064453125,,,
25.8437500000,3,-1.0087280273,,,
25.8593750000,3,-1.3664549589,,,
25.8750000000,3,-1.6321409941,,,
25.8906250000,3,-1.7816770077,,,
25.9062500000,3,-1.8294069767,,,
25.9218750000,3,-1.7847290039,,,
25.9375000000,3,-1.6471560001,,,
25.9531250000,3,-1.4072879553,,,
25.9687500000,3,-1.0622559786,,,
25.9843750000,3,-0.6435546875,,,
26.0000000000,3,-0.2296752930,,,
26.0156250000,3,0.0692749023,,,
26.0312500000,3,0.1907958984,,,
26.0468750000,3,0.1321410984,,,
26.0625000000,3,-0.0227661096,,,
26.0781250000,3,-0.1535644978,,,
26.0937500000,3,-0.1677245945,,,
26.1093750000,3,-0.0511474609,,,
26.1250000000,3,0.1367798001,,,
26.1406250000,3,0.3198853135,,,
26.1562500000,3,0.4603882134,,,
26.1718750000,3,0.5578613281,,,
26.1875000000,3,0.6539916992,,,
26.2031250000,3,0.7876586914,,,
26.2187500000,3,0.9816895127,,,
26.2343750000,3,1.2036130428,,,
26.2500000000,3,1.3944089413,,,
26.2656250000,3,1.4732060432,,,
26.2812500000,3,1.3804930449,,,
26.2968750000,3,1.1051030159,,,
26.3125000000,3,0.7015991211,,,
26.3281250000,3,0.2714233100,,,
26.3437500000,3,-0.0772705078,,,
26.3593750000,3,-0.2880859077,,,
26.3750000000,3,-0.3674316108,,,
26.3906250000,3,-0.3756713867,,,
26.4062500000,3,-0.3868407905,,,
26.4218750000,3,-0.4152832031,,,
26.4375000000,3,-0.4255371094,,,
26.4531250000,3,-0.3402709961,,,
26.4687500000,3,-0.1358643025,,,
26.4843750000,3,0.1383666992,,,
26.5000000000,3,0.3547362983,,,
26.5156250000,3,0.3808594048,,,
26.5312500000,3,0.1730957031,,,
26.5468750000,3,-0.2180785984,,,
26.5625000000,3,-0.6773071289,,,
26.5781250000,3,-1.0566409826,,,
26.5937500000,3,-1.2562259436,,,
26.6093750000,3,-1.2204589844,,,
26.6250000000,3,-0.9555053711,,,
26.6406250000,3,-0.5147705078,,,
26.6562500000,3,0.0363769494,,,
26.6718750000,3,0.5942993164,,,
26.6875000000,3,1.0539549589,,,
26.7031250000,3,1.3161619902,,,
26.7187500000,3,1.3461910486,,,
26.7343750000,3,1.1823120117,,,
26.7500000000,3,0.9364014268,,,
26.7656250000,3,0.7252197266,,,
26.7812500000,3,0.6246337891,,,
26.7968750000,3,0.6362305284,,,
26.8125000000,3,0.6947020888,,,
26.8281250000,3,0.7164916992,,,
26.8437500000,3,0.6606444716,,,
26.8593750000,3,0.5395507813,,,
26.8750000000,3,0.4099121094,,,
26.8906250000,3,0.3179320991,,,
26.9062500000,3,0.2639771104,,,
26.9218750000,3,0.2058715969,,,
26.9375000000,3,0.0776977465,,,
26.9531250000,3,-0.1514281929,,,
26.9687500000,3,-0.4484862983,,,
26.9843750000,3,-0.7104492188,,,
27.0000000000,3,-0.8217772841,,,
27.0156250000,3,-0.7172852159,,,
27.0312500000,3,-0.4169921875,,,
27.0468750000,3,-0.0290527306,,,
27.0625000000,3,0.2990722954,,,
27.0781250000,3,0.4592896104,,,
27.0937500000,3,0.4222412109,,,
27.1093750000,3,0.2502441108,,,
27.1250000000,3,0.0222778302,,,
27.1406250000,3,-0.2098388970,,,
27.1562500000,3,-0.4386596978,,,
27.1718750000,3,-0.7027587891,,,
27.1875000000,3,-1.0360720158,,,
27.2031250000,3,-1.4268189669,,,
27.2187500000,3,-1.8181760311,,,
27.2343750000,3,-2.1145019531,,,
27.2500000000,3,-2.2142329216,,,
27.2656250000,3,-2.0674440861,,,
27.2812500000,3,-1.6853640079,,,
27.2968750000,3,-1.1422120333,,,
27.3125000000,3,-0.5475463867,,,
27.3281250000,3,-0.0234375000,,,
27.3437500000,3,0.3317261040,,,
27.3593750000,3,0.4634399116,,,
27.3750000000,3,0.3778075874,,,
27.3906250000,3,0.1501464993,,,
27.4062500000,3,-0.1025390998,,,
27.4218750000,3,-0.2592163086,,,
27.4375000000,3,-0.2224120945,,,
27.4531250000,3,0.0230712909,,,
27.4687500000,3,0.4158936143,,,
27.4843750000,3,0.8111572266,,,
27.5000000000,3,1.0534670353,,,
27.5156250000,3,1.0304570198,,,
27.5312500000,3,0.7306519151,,,
27.5468750000,3,0.2595824897,,,
27.5625000000,3,-0.1994629055,,,
27.5781250000,3,-0.4719237983,,,
27.5937500000,3,-0.4668579102,,,
27.6093750000,3,-0.1887816936,,,
27.6250000000,3,0.2616577148,,,
27.6406250000,3,0.7402954102,,,
27.6562500000,3,1.1146240234,,,
27.6718750000,3,1.2950439453,,,
27.6875000000,3,1.2269899845,,,
27.7031250000,3,0.9094238281,,,
27.7187500000,3,0.3804931939,,,
27.7343750000,3,-0.2786254883,,,
27.7500000000,3,-0.9240111709,,,
27.7656250000,3,-1.4152829647,,,
27.7812500000,3,-1.6344599724,,,
27.7968750000,3,-1.5465699434,,,
27.8125000000,3,-1.2078249454,,,
27.8281250000,3,-0.7270507813,,,
27.8437500000,3,-0.2248535007,,,
27.8593750000,3,0.1976929009,,,
27.8750000000,3,0.4818114936,,,
27.8906250000,3,0.6136475205,,,
27.9062500000,3,0.5921021104,,,
27.9218750000,3,0.4382323921,,,
27.9375000000,3,0.2047729045,,,
27.9531250000,3,-0.0343017615,,,
27.9687500000,3,-0.1815185994,,,
27.9843750000,3,-0.1453856975,,,
28.0000000000,3,0.1163939983,,,
28.0156250000,3,0.5643311143,,,
28.0312500000,3,1.0786739588,,,
28.0468750000,3,1.5054320097,,,
28.0625000000,3,1.7263180017,,,
28.0781250000,3,1.7176510096,,,
28.0937500000,3,1.5325319767,,,
28.1093750000,3,1.2762449980,,,
28.1250000000,3,1.0290529728,,,
28.1406250000,3,0.8231201172,,,
28.1562500000,3,0.6141356826,,,
28.1718750000,3,0.3665770888,,,
28.1875000000,3,0.0888061523,,,
28.2031250000,3,-0.1481322944,,,
28.2187500000,3,-0.2453612983,,,
28.2343750000,3,-0.1481322944,,,
28.2500000000,3,0.0903930664,,,
28.2656250000,3,0.3283691108,,,
28.2812500000,3,0.4101563096,,,
28.2968750000,3,0.2633666992,,,
28.3125000000,3,-0.0708007813,,,
28.3281250000,3,-0.4331665039,,,
28.3437500000,3,-0.6386718750,,,
28.3593750000,3,-0.5822753906,,,
28.3750000000,3,-0.2776488960,,,
28.3906250000,3,0.1430054009,,,
28.4062500000,3,0.5155029297,,,
28.4218750000,3,0.7177733779,,,
28.4375000000,3,0.7358397841,,,
28.4531250000,3,0.6278076172,,,
28.4687500000,3,0.4904784858,,,
28.4843750000,3,0.3679198921,,,
28.5000000000,3,0.2367554009,,,
28.5156250000,3,0.0499877892,,,
28.5312500000,3,-0.2395019978,,,
28.5468750000,3,-0.6068726182,,,
28.5625000000,3,-0.9829102159,,,
28.5781250000,3,-1.2701419592,,,
28.5937500000,3,-1.4014279842,,,
28.6093750000,3,-1.3823850155,,,
28.6250000000,3,-1.2666629553,,,
28.6406250000,3,-1.1005250216,,,
28.6562500000,3,-0.9044799805,,,
28.6718750000,3,-0.6785889268,,,
28.6875000000,3,-0.4368895888,,,
28.7031250000,3,-0.2358397990,,,
28.7187500000,3,-0.1630249023,,,
28.7343750000,3,-0.2502441108,,,
28.7500000000,3,-0.4578857124,,,
28.7656250000,3,-0.6607056260,,,
28.7812500000,3,-0.7178955078,,,
28.7968750000,3,-0.5764160156,,,
28.8125000000,3,-0.3250732124,,,
28.8281250000,3,-0.1363524944,,,
28.8437500000,3,-0.1695556939,,,
28.8593750000,3,-0.4613646865,,,
28.8750000000,3,-0.8882446289,,,
28.8906250000,3,-1.2335209846,,,
28.9062500000,3,-1.3179320097,,,
28.9218750000,3,-1.0964360237,,,
28.9375000000,3,-0.6416016221,,,
28.9531250000,3,-0.1260375977,,,
28.9687500000,3,0.3242188096,,,
28.9843750000,3,0.6544799805,,,
29.0000000000,3,0.8750609756,,,
29.0156250000,3,1.0370479822,,,
29.0312500000,3,1.1580810547,,,
29.0468750000,3,1.2074580193,,,
29.0625000000,3,1.1375730038,,,
29.0781250000,3,0.9200438857,,,
29.0937500000,3,0.5876464844,,,
29.1093750000,3,0.2224120945,,,
29.1250000000,3,-0.0928344727,,,
29.1406250000,3,-0.3037720025,,,
29.1562500000,3,-0.3990479112,,,
29.1718750000,3,-0.4047851861,,,
29.1875000000,3,-0.3443604112,,,
29.2031250000,3,-0.2230834961,,,
29.2187500000,3,-0.0470581092,,,
29.2343750000,3,0.1721190959,,,
29.2500000000,3,0.3773193061,,,
29.2656250000,3,0.4744873047,,,
29.2812500000,3,0.3937987983,,,
29.2968750000,3,0.1295166016,,,
29.3125000000,3,-0.2344360054,,,
29.3281250000,3,-0.5531616211,,,
29.3437500000,3,-0.6808472276,,,
29.3593750000,3,-0.5522460938,,,
29.3750000000,3,-0.2054443061,,,
29.3906250000,3,0.2457886040,,,
29.4062500000,3,0.6605834961,,,
29.4218750000,3,0.9235839844,,,
29.4375000000,3,0.9859619141,,,
29.4531250000,3,0.8553466797,,,
29.4687500000,3,0.5956420898,,,
29.4843750000,3,0.3114624023,,,
29.5000000000,3,0.1049193963,,,
29.5156250000,3,0.0444946289,,,
29.5312500000,3,0.1459351033,,,
29.5468750000,3,0.3461914063,,,
29.5625000000,3,0.5602416992,,,
29.5781250000,3,0.7006226182,,,
29.5937500000,3,0.7338867188,,,
29.6093750000,3,0.6718750000,,,
29.6250000000,3,0.5438231826,,,
29.6406250000,3,0.3724975884,,,
29.6562500000,3,0.1721802056,,,
29.6718750000,3,-0.0476074181,,,
29.6875000000,3,-0.2536621094,,,
29.7031250000,3,-0.3909912109,,,
29.7187500000,3,-0.4114989936,,,
29.7343750000,3,-0.3119507134,,,
29.7500000000,3,-0.1528320014,,,
29.7656250000,3,-0.0404052697,,,
29.7812500000,3,-0.0875854492,,,
29.7968750000,3,-0.3413695991,,,
29.8125000000,3,-0.7778319716,,,
29.8281250000,3,-1.2989499569,,,
29.8437500000,3,-1.7653199434,,,
29.8593750000,3,-2.0638430119,,,
29.8750000000,3,-2.1378169060,,,
29.8906250000,3,-2.0099489689,,,
29.9062500000,3,-1.7556760311,,,
29.9218750000,3,-1.4685670137,,,
29.9375000000,3,-1.2245479822,,,
29.9531250000,3,-1.0620729923,,,
29.9687500000,3,-0.9995117188,,,
29.9843750000,3,-1.0299680233,,,
30.0000000000,3,-1.1369019747,,,
30.0156250000,3,-1.2827759981,,,
30.0312500000,3,-1.4042359591,,,
30.0468750000,3,-1.4313960075,,,
30.0625000000,3,-1.2996829748,,,
30.0781250000,3,-1.0034790039,,,
30.0937500000,3,-0.6022949219,,,
30.1093750000,3,-0.1973876953,,,
30.1250000000,3,0.1116333008,,,
30.1406250000,3,0.2810058892,,,
30.1562500000,3,0.3473511040,,,
30.1718750000,3,0.4114379883,,,
30.1875000000,3,0.5965576172,,,
30.2031250000,3,0.9528198242,,,
30.2187500000,3,1.4518430233,,,
30.2343750000,3,1.9727779627,,,
30.2500000000,3,2.3645019531,,,
30.2656250000,3,2.5188601017,,,
30.2812500000,3,2.4056398869,,,
30.2968750000,3,2.1115720272,,,
30.3125000000,3,1.7564090490,,,
30.3281250000,3,1.4441529512,,,
30.3437500000,3,1.2152099609,,,
30.3593750000,3,1.0460820198,,,
30.3750000000,3,0.8886107802,,,
30.3906250000,3,0.7166748047,,,
30.4062500000,3,0.5623779297,,,
30.4218750000,3,0.4668579102,,,
30.4375000000,3,0.4640502930,,,
30.4531250000,3,0.5541381836,,,
30.4687500000,3,0.6976317763,,,
30.4843750000,3,0.8403931260,,,
30.5000000000,3,0.9360961914,,,
30.5156250000,3,0.9488524795,,,
30.5312500000,3,0.8703002930,,,
30.5468750000,3,0.6986083984,,,
30.5625000000,3,0.4644775093,,,
30.5781250000,3,0.2252196968,,,
30.5937500000,3,0.0463256799,,,
30.6093750000,3,-0.0339355506,,,
30.6250000000,3,-0.0364379883,,,
30.6406250000,3,-0.0204467792,,,
30.6562500000,3,-0.0573120117,,,
30.6718750000,3,-0.1717528999,,,
30.6875000000,3,-0.3300170898,,,
30.7031250000,3,-0.4736328125,,,
30.7187500000,3,-0.5419921875,,,
30.7343750000,3,-0.5379027724,,,
30.7500000000,3,-0.4833984077,,,
30.7656250000,3,-0.4110718071,,,
30.7812500000,3,-0.3329468071,,,
30.7968750000,3,-0.2407227010,,,
30.8125000000,3,-0.1288451999,,,
30.8281250000,3,-0.0220336895,,,
30.8437500000,3,0.0419311486,,,
30.8593750000,3,0.0255127009,,,
30.8750000000,3,-0.0668945313,,,
30.8906250000,3,-0.2025146037,,,
30.9062500000,3,-0.3176270127,,,
30.9218750000,3,-0.3665161133,,,
30.9375000000,3,-0.3552246094,,,
30.9531250000,3,-0.3208617866,,,
30.9687500000,3,-0.3310546875,,,
30.9843750000,3,-0.4342651069,,,
31.0000000000,3,-0.6292725205,,,
31.0156250000,3,-0.8726807237,,,
31.0312500000,3,-1.0690310001,,,
31.0468750000,3,-1.1369630098,,,
31.0625000000,3,-1.0460209846,,,
31.0781250000,3,-0.8418579102,,,
31.0937500000,3,-0.6182860732,,,
31.1093750000,3,-0.4683228135,,,
31.1250000000,3,-0.4454956055,,,
31.1406250000,3,-0.5314940810,,,
31.1562500000,3,-0.6599121094,,,
31.1718750000,3,-0.7473145127,,,
31.1875000000,3,-0.7518311143,,,
31.2031250000,3,-0.6835327148,,,
31.2187500000,3,-0.5776367188,,,
31.2343750000,3,-0.5043944716,,,
31.2500000000,3,-0.5017089844,,,
31.2656250000,3,-0.5790405273,,,
31.2812500000,3,-0.6950073242,,,
31.2968750000,3,-0.8054810166,,,
31.3125000000,3,-0.8582764268,,,
31.3281250000,3,-0.8514404297,,,
31.3437500000,3,-0.8087158203,,,
31.3593750000,3,-0.7856444716,,,
31.3750000000,3,-0.8253784180,,,
31.3906250000,3,-0.9298706055,,,
31.4062500000,3,-1.0442500114,,,
31.4218750000,3,-1.0703740120,,,
31.4375000000,3,-0.9382324219,,,
31.4531250000,3,-0.6209716797,,,
31.4687500000,3,-0.1507568061,,,
31.4843750000,3,0.4030762017,,,
31.5000000000,3,0.9824829102,,,
31.5156250000,3,1.5350949764,,,
31.5312500000,3,2.0221560001,,,
31.5468750000,3,2.3913569450,,,
31.5625000000,3,2.5793459415,,,
31.5781250000,3,2.5164179802,,,
31.5937500000,3,2.1973879337,,,
31.6093750000,3,1.6964110136,,,
31.6250000000,3,1.1599730253,,,
31.6406250000,3,0.7431030273,,,
31.6562500000,3,0.5354003906,,,
31.6718750000,3,0.5247191787,,,
31.6875000000,3,0.5949097276,,,
31.7031250000,3,0.6038817763,,,
31.7187500000,3,0.4571532905,,,
31.7343750000,3,0.1677855998,,,
31.7500000000,3,-0.1693114936,,,
31.7656250000,3,-0.4354248047,,,
31.7812500000,3,-0.5590209961,,,
31.7968750000,3,-0.5422974229,,,
31.8125000000,3,-0.4310913086,,,
31.8281250000,3,-0.3062134087,,,
31.8437500000,3,-0.2287597954,,,
31.8593750000,3,-0.2237548977,,,
31.8750000000,3,-0.2710570991,,,
31.8906250000,3,-0.3179320991,,,
31.9062500000,3,-0.3010253906,,,
31.9218750000,3,-0.1528320014,,,
31.9375000000,3,0.1595458984,,,
31.9531250000,3,0.6009520888,,,
31.9687500000,3,1.0970460176,,,
31.9843750000,3,1.5427249670,,,
32.0000000000,4,1.8627320528,,,
32.0156250000,4,2.0155029297,,,
32.0312500000,4,1.9893189669,,,
32.0468750000,4,1.7824709415,,,
32.0625000000,4,1.3983759880,,,
32.0781250000,4,0.8494873047,,,
32.0937500000,4,0.2067261040,,,
32.1093750000,4,-0.4017333984,,,
32.1250000000,4,-0.8499146104,,,
32.1406250000,4,-1.0674439669,,,
32.1562500000,4,-1.0843509436,,,
32.1718750000,4,-0.9903563857,,,
32.1875000000,4,-0.8777465820,,,
32.2031250000,4,-0.7672728896,,,
32.2187500000,4,-0.6301270127,,,
32.2343750000,4,-0.4047240913,,,
32.2500000000,4,-0.0849609375,,,
32.2656250000,4,0.2572632134,,,
32.2812500000,4,0.5137938857,,,
32.2968750000,4,0.6028441787,,,
32.3125000000,4,0.5132446289,,,
32.3281250000,4,0.3010253906,,,
32.3437500000,4,0.0454101600,,,
32.3593750000,4,-0.2079468071,,,
32.3750000000,4,-0.4732666016,,,
32.3906250000,4,-0.7684326172,,,
32.4062500000,4,-1.1066279411,,,
32.4218750000,4,-1.4506839514,,,
32.4375000000,4,-1.7373659611,,,
32.4531250000,4,-1.9057010412,,,
32.4687500000,4,-1.9131469727,,,
32.4843750000,4,-1.7615360022,,,
32.5000000000,4,-1.4894410372,,,
32.5156250000,4,-1.1447139978,,,
32.5312500000,4,-0.7781981826,,,
32.5468750000,4,-0.4342651069,,,
32.5625000000,4,-0.1213989034,,,
32.5781250000,4,0.1436156929,,,
32.5937500000,4,0.3463135064,,,
32.6093750000,4,0.4694213867,,,
32.6250000000,4,0.5028076172,,,
32.6406250000,4,0.4501953125,,,
32.6562500000,4,0.3529663086,,,
32.6718750000,4,0.2626953125,,,
32.6875000000,4,0.2160034031,,,
32.7031250000,4,0.2175903022,,,
32.7187500000,4,0.2228394002,,,
32.7343750000,4,0.2054443061,,,
32.7500000000,4,0.1888428032,,,
32.7656250000,4,0.2409058064,,,
32.7812500000,4,0.4526978135,,,
32.7968750000,4,0.8746948242,,,
32.8125000000,4,1.4424439669,,,
32.8281250000,4,1.9830930233,,,
32.8437500000,4,2.2974240780,,,
32.8593750000,4,2.2529299259,,,
32.8750000000,4,1.8614499569,,,
32.8906250000,4,1.2951049805,,,
32.9062500000,4,0.7813720703,,,
32.9218750000,4,0.5068969727,,,
32.9375000000,4,0.5117188096,,,
32.9531250000,4,0.6854248047,,,
32.9687500000,4,0.8336182237,,,
32.9843750000,4,0.7980347276,,,
33.0000000000,4,0.5060424805,,,
33.0156250000,4,0.0299682599,,,
33.0312500000,4,-0.4918212891,,,
33.0468750000,4,-0.9390869141,,,
33.0625000000,4,-1.2414549589,,,
33.0781250000,4,-1.4124759436,,,
33.0937500000,4,-1.4921259880,,,
33.1093750000,4,-1.5171509981,,,
33.1250000000,4,-1.4778439999,,,
33.1406250000,4,-1.3720090389,,,
33.1562500000,4,-1.2031250000,,,
33.1718750000,4,-1.0063480139,,,
33.1875000000,4,-0.8285521865,,,
33.2031250000,4,-0.6970825195,,,
33.2187500000,4,-0.6153563857,,,
33.2343750000,4,-0.5407103896,,,
33.2500000000,4,-0.4414672852,,,
33.2656250000,4,-0.3187255859,,,
33.2812500000,4,-0.2160034031,,,
33.2968750000,4,-0.2009887993,,,
33.3125000000,4,-0.2954101861,,,
33.3281250000,4,-0.4579468071,,,
33.3437500000,4,-0.5803223252,,,
33.3593750000,4,-0.5546265244,,,
33.3750000000,4,-0.3254395127,,,
33.3906250000,4,0.0563964806,,,
33.4062500000,4,0.4614258111,,,
33.4218750000,4,0.7436522841,,,
33.4375000000,4,0.8009644151,,,
33.4531250000,4,0.6264038086,,,
33.4687500000,4,0.2980346978,,,
33.4843750000,4,-0.0523071289,,,
33.5000000000,4,-0.3244018853,,,
33.5156250000,4,-0.4545898139,,,
33.5312500000,4,-0.4682616889,,,
33.5468750000,4,-0.4312744141,,,
33.5625000000,4,-0.3948363960,,,
33.5781250000,4,-0.3730469048,,,
33.5937500000,4,-0.3232421875,,,
33.6093750000,4,-0.2019653022,,,
33.6250000000,4,0.0056762700,,,
33.6406250000,4,0.2498778999,,,
33.6562500000,4,0.4454956055,,,
33.6718750000,4,0.5106812119,,,
33.6875000000,4,0.4384154975,,,
33.7031250000,4,0.2908936143,,,
33.7187500000,4,0.1680908054,,,
33.7343750000,4,0.1418457031,,,
33.7500000000,4,0.2153320014,,,
33.7656250000,4,0.3300780952,,,
33.7812500000,4,0.4188232124,,,
33.7968750000,4,0.4415282905,,,
33.8125000000,4,0.3969726861,,,
33.8281250000,4,0.3281860054,,,
33.8437500000,4,0.2507934868,,,
33.8593750000,4,0.1629028022,,,
33.8750000000,4,0.0797729492,,,
33.8906250000,4,0.0445556603,,,
33.9062500000,4,0.1084595025,,,
33.9218750000,4,0.3007202148,,,
33.9375000000,4,0.5603026748,,,
33.9531250000,4,0.7578125000,,,
33.9687500000,4,0.7543944716,,,
33.9843750000,4,0.4902344048,,,
34.0000000000,4,0.0252685491,,,
34.0156250000,4,-0.4686889946,,,
34.0312500000,4,-0.8072509766,,,
34.0468750000,4,-0.8979492188,,,
34.0625000000,4,-0.7947998047,,,
34.0781250000,4,-0.6514893174,,,
34.0937500000,4,-0.6202393174,,,
34.1093750000,4,-0.7591552734,,,
34.1250000000,4,-0.9996948242,,,
34.1406250000,4,-1.1872559786,,,
34.1562500000,4,-1.1963499784,,,
34.1718750000,4,-1.0004270077,,,
34.1875000000,4,-0.6660156250,,,
34.2031250000,4,-0.3124389946,,,
34.2187500000,4,-0.0084228516,,,
34.2343750000,4,0.2439575046,,,
34.2500000000,4,0.4923706055,,,
34.2656250000,4,0.7853394151,,,
34.2812500000,4,1.1007080078,,,
34.2968750000,4,1.3466190100,,,
34.3125000000,4,1.3961180449,,,
34.3281250000,4,1.1812740564,,,
34.3437500000,4,0.7451782227,,,
34.3593750000,4,0.2402953953,,,
34.3750000000,4,-0.1596069038,,,
34.3906250000,4,-0.3353882134,,,
34.4062500000,4,-0.2789306939,,,
34.4218750000,4,-0.0715942383,,,
34.4375000000,4,0.1665039063,,,
34.4531250000,4,0.3503417969,,,
34.4687500000,4,0.4486083984,,,
34.4843750000,4,0.4756470025,,,
34.5000000000,4,0.4583129883,,,
34.5156250000,4,0.3892821968,,,
34.5312500000,4,0.2622070014,,,
34.5468750000,4,0.0873413086,,,
34.5625000000,4,-0.0883178711,,,
34.5781250000,4,-0.1810912937,,,
34.5937500000,4,-0.1030272990,,,
34.6093750000,4,0.1580200046,,,
34.6250000000,4,0.5078734756,,,
34.6406250000,4,0.7875977159,,,
34.6562500000,4,0.8258057237,,,
34.6718750000,4,0.5318604112,,,
34.6875000000,4,-0.0408325195,,,
34.7031250000,4,-0.7228394151,,,
34.7187500000,4,-1.2962650061,,,
34.7343750000,4,-1.5692139864,,,
34.7500000000,4,-1.4553829432,,,
34.7656250000,4,-0.9785767198,,,
34.7812500000,4,-0.2459105998,,,
34.7968750000,4,0.5941162109,,,
34.8125000000,4,1.4083859921,,,
34.8281250000,4,2.0809938908,,,
34.8437500000,4,2.5228269100,,,
34.8593750000,4,2.6682739258,,,
34.8750000000,4,2.4887700081,,,
34.8906250000,4,2.0087280273,,,
34.9062500000,4,1.3306269646,,,
34.9218750000,4,0.6034545898,,,
34.9375000000,4,-0.0321655311,,,
34.9531250000,4,-0.4787597954,,,
34.9687500000,4,-0.7346190810,,,
34.9843750000,4,-0.8557739258,,,
35.0000000000,4,-0.8969727159,,,
35.0156250000,4,-0.8988037109,,,
35.0312500000,4,-0.8515015244,,,
35.0468750000,4,-0.7373046875,,,
35.0625000000,4,-0.5597534180,,,
35.0781250000,4,-0.3747558892,,,
35.0937500000,4,-0.2864989936,,,
35.1093750000,4,-0.3728027046,,,
35.1250000000,4,-0.6672974229,,,
35.1406250000,4,-1.1171259880,,,
35.1562500000,4,-1.6101679802,,,
35.1718750000,4,-2.0247189999,,,
35.1875000000,4,-2.2831420898,,,
35.2031250000,4,-2.3753659725,,,
35.2187500000,4,-2.3721919060,,,
35.2343750000,4,-2.3640749454,,,
35.2500000000,4,-2.4240720272,,,
35.2656250000,4,-2.5785520077,,,
35.2812500000,4,-2.7725219727,,,
35.2968750000,4,-2.8916630745,,,
35.3125000000,4,-2.8049321175,,,
35.3281250000,4,-2.4510500431,,,
35.3437500000,4,-1.8851929903,,,
35.3593750000,4,-1.2722779512,,,
35.3750000000,4,-0.8185424805,,,
35.3906250000,4,-0.6754760742,,,
35.4062500000,4,-0.8367310166,,,
35.4218750000,4,-1.1533809900,,,
35.4375000000,4,-1.4041140079,,,
35.4531250000,4,-1.4196779728,,,
35.4687500000,4,-1.1638790369,,,
35.4843750000,4,-0.7377318740,,,
35.5000000000,4,-0.2966918945,,,
35.5156250000,4,0.0401611291,,,
35.5312500000,4,0.2520751953,,,
35.5468750000,4,0.3966063857,,,
35.5625000000,4,0.5655518174,,,
35.5781250000,4,0.8081055284,,,
35.5937500000,4,1.0968019962,,,
35.6093750000,4,1.3709720373,,,
35.6250000000,4,1.5805660486,,,
35.6406250000,4,1.7181400061,,,
35.6562500000,4,1.8102420568,,,
35.6718750000,4,1.8920290470,,,
35.6875000000,4,1.9615479708,,,
35.7031250000,4,1.9945679903,,,
35.7187500000,4,1.9443969727,,,
35.7343750000,4,1.7824709415,,,
35.7500000000,4,1.5073239803,,,
35.7656250000,4,1.1380000114,,,
35.7812500000,4,0.7117919922,,,
35.7968750000,4,0.2540282905,,,
35.8125000000,4,-0.2008056939,,,
35.8281250000,4,-0.6348267198,,,
35.8437500000,4,-1.0227049589,,,
35.8593750000,4,-1.3301999569,,,
35.8750000000,4,-1.5176999569,,,
35.8906250000,4,-1.5790410042,,,
35.9062500000,4,-1.5323489904,,,
35.9218750000,4,-1.4279789925,,,
35.9375000000,4,-1.3056030273,,,
35.9531250000,4,-1.1674189568,,,
35.9687500000,4,-0.9780272841,,,
35.9843750000,4,-0.6857299805,,,
36.0000000000,4,-0.2675780952,,,
36.0156250000,4,0.2326049954,,,
36.0312500000,4,0.7185668945,,,
36.0468750000,4,1.0699460506,,,
36.0625000000,4,1.2119749784,,,
36.0781250000,4,1.1481930017,,,
36.0937500000,4,0.9741210938,,,
36.1093750000,4,0.8105468750,,,
36.1250000000,4,0.7329102159,,,
36.1406250000,4,0.7307739258,,,
36.1562500000,4,0.7266845703,,,
36.1718750000,4,0.6570435166,,,
36.1875000000,4,0.5072020888,,,
36.2031250000,4,0.3337402046,,,
36.2187500000,4,0.2094116062,,,
36.2343750000,4,0.1731566936,,,
36.2500000000,4,0.1902465969,,,
36.2656250000,4,0.2038574070,,,
36.2812500000,4,0.1734618992,,,
36.2968750000,4,0.1163330004,,,
36.3125000000,4,0.0990600586,,,
36.3281250000,4,0.1669311970,,,
36.3437500000,4,0.3023070991,,,
36.3593750000,4,0.4122925103,,,
36.3750000000,4,0.3904418945,,,
36.3906250000,4,0.1912230998,,,
36.4062500000,4,-0.1055298001,,,
36.4218750000,4,-0.3275145888,,,
36.4375000000,4,-0.2858887017,,,
36.4531250000,4,0.1060791016,,,
36.4687500000,4,0.7753295898,,,
36.4843750000,4,1.5137939453,,,
36.5000000000,4,2.0740358829,,,
36.5156250000,4,2.2686159611,,,
36.5312500000,4,2.0443120003,,,
36.5468750000,4,1.5059200525,,,
36.5625000000,4,0.8554688096,,,
36.5781250000,4,0.3039551079,,,
36.5937500000,4,-0.0192871094,,,
36.6093750000,4,-0.0973510668,,,
36.6250000000,4,-0.0051879878,,,
36.6406250000,4,0.1394042969,,,
36.6562500000,4,0.2454833984,,,
36.6718750000,4,0.2847900093,,,
36.6875000000,4,0.2756347954,,,
36.7031250000,4,0.2621459961,,,
36.7187500000,4,0.2692261040,,,
36.7343750000,4,0.2913208008,,,
36.7500000000,4,0.2857666016,,,
36.7656250000,4,0.2122803032,,,
36.7812500000,4,0.0445556603,,,
36.7968750000,4,-0.1818847954,,,
36.8125000000,4,-0.3911742866,,,
36.8281250000,4,-0.4931029975,,,
36.8437500000,4,-0.4390259087,,,
36.8593750000,4,-0.2458495945,,,
36.8750000000,4,0.0033569341,,,
36.8906250000,4,0.2079468071,,,
36.9062500000,4,0.2864379883,,,
36.9218750000,4,0.2326049954,,,
36.9375000000,4,0.1251831055,,,
36.9531250000,4,0.0581054688,,,
36.9687500000,4,0.0875854492,,,
36.9843750000,4,0.1643065959,,,
37.0000000000,4,0.1755980998,,,
37.0156250000,4,0.0239257794,,,
37.0312500000,4,-0.2902832031,,,
37.0468750000,4,-0.6506348252,,,
37.0625000000,4,-0.8533325195,,,
37.0781250000,4,-0.7378540039,,,
37.0937500000,4,-0.2645874023,,,
37.1093750000,4,0.4564208984,,,
37.1250000000,4,1.2158199549,,,
37.1406250000,4,1.7910159826,,,
37.1562500000,4,2.0337519646,,,
37.1718750000,4,1.9278559685,,,
37.1875000000,4,1.5545649529,,,
37.2031250000,4,1.0594480038,,,
37.2187500000,4,0.5864257813,,,
37.2343750000,4,0.2215576023,,,
37.2500000000,4,-0.0032348630,,,
37.2656250000,4,-0.1032714993,,,
37.2812500000,4,-0.1374512017,,,
37.2968750000,4,-0.1506347954,,,
37.3125000000,4,-0.1835937947,,,
37.3281250000,4,-0.2346190959,,,
37.3437500000,4,-0.2866820991,,,
37.3593750000,4,-0.2949219048,,,
37.3750000000,4,-0.2246094048,,,
37.3906250000,4,-0.0656127930,,,
37.4062500000,4,0.1673583984,,,
37.4218750000,4,0.4359740913,,,
37.4375000000,4,0.7025145888,,,
37.4531250000,4,0.9442749023,,,
37.4687500000,4,1.1503909826,,,
37.4843750000,4,1.2999880314,,,
37.5000000000,4,1.3666989803,,,
37.5156250000,4,1.3085329533,,,
37.5312500000,4,1.1068730354,,,
37.5468750000,4,0.7653809190,,,
37.5625000000,4,0.3494873047,,,
37.5781250000,4,-0.0610351600,,,
37.5937500000,4,-0.3886719048,,,
37.6093750000,4,-0.6036376953,,,
37.6250000000,4,-0.7162476182,,,
37.6406250000,4,-0.7521361709,,,
37.6562500000,4,-0.7319335938,,,
37.6718750000,4,-0.6613159180,,,
37.6875000000,4,-0.5566406250,,,
37.7031250000,4,-0.4553833008,,,
37.7187500000,4,-0.3922728896,,,
37.7343750000,4,-0.3847655952,,,
37.7500000000,4,-0.3942871094,,,
37.7656250000,4,-0.3699341118,,,
37.7812500000,4,-0.2667846978,,,
37.7968750000,4,-0.0883789137,,,
37.8125000000,4,0.1072387993,,,
37.8281250000,4,0.2575683892,,,
37.8437500000,4,0.3029175103,,,
37.8593750000,4,0.2269286960,,,
37.8750000000,4,0.0507202111,,,
37.8906250000,4,-0.1864624023,,,
37.9062500000,4,-0.4296875000,,,
37.9218750000,4,-0.5967407227,,,
37.9375000000,4,-0.6065673828,,,
37.9531250000,4,-0.3969726861,,,
37.9687500000,4,0.0108642597,,,
37.9843750000,4,0.4943847954,,,
38.0000000000,4,0.8634033203,,,
38.0156250000,4,0.9381713867,,,
38.0312500000,4,0.6343994141,,,
38.0468750000,4,0.0092163086,,,
38.0625000000,4,-0.7592772841,,,
38.0781250000,4,-1.4690550566,,,
38.0937500000,4,-1.9584350586,,,
38.1093750000,4,-2.1521000862,,,
38.1250000000,4,-2.0497438908,,,
38.1406250000,4,-1.7023930550,,,
38.1562500000,4,-1.2023930550,,,
38.1718750000,4,-0.6617432237,,,
38.1875000000,4,-0.1890258938,,,
38.2031250000,4,0.1199951023,,,
38.2187500000,4,0.2336425930,,,
38.2343750000,4,0.1878661960,,,
38.2500000000,4,0.0957641602,,,
38.2656250000,4,0.0702514574,,,
38.2812500000,4,0.1748656929,,,
38.2968750000,4,0.3950195014,,,
38.3125000000,4,0.6442871094,,,
38.3281250000,4,0.8192139268,,,
38.3437500000,4,0.8361206055,,,
38.3593750000,4,0.6661376953,,,
38.3750000000,4,0.3485718071,,,
38.3906250000,4,-0.0124511700,,,
38.4062500000,4,-0.3024902046,,,
38.4218750000,4,-0.4003905952,,,
38.4375000000,4,-0.2377929986,,,
38.4531250000,4,0.1653441936,,,
38.4687500000,4,0.6781005859,,,
38.4843750000,4,1.1295779943,,,
38.5000000000,4,1.3662719727,,,
38.5156250000,4,1.3437500000,,,
38.5312500000,4,1.1318969727,,,
38.5468750000,4,0.8731079102,,,
38.5625000000,4,0.6748657227,,,
38.5781250000,4,0.5585938096,,,
38.5937500000,4,0.4517821968,,,
38.6093750000,4,0.2505492866,,,
38.6250000000,4,-0.0761718825,,,
38.6406250000,4,-0.4557495117,,,
38.6562500000,4,-0.7843627930,,,
38.6718750000,4,-0.9792479873,,,
38.6875000000,4,-1.0365600586,,,
38.7031250000,4,-1.0224610567,,,
38.7187500000,4,-1.0011600256,,,
38.7343750000,4,-0.9934691787,,,
38.7500000000,4,-0.9592896104,,,
38.7656250000,4,-0.8616333008,,,
38.7812500000,4,-0.7084351182,,,
38.7968750000,4,-0.5744628906,,,
38.8125000000,4,-0.5572509766,,,
38.8281250000,4,-0.7142333984,,,
38.8437500000,4,-1.0196529627,,,
38.8593750000,4,-1.3812869787,,,
38.8750000000,4,-1.6806639433,,,
38.8906250000,4,-1.8367309570,,,
38.9062500000,4,-1.8398439884,,,
38.9218750000,4,-1.7160029411,,,
38.9375000000,4,-1.5101319551,,,
38.9531250000,4,-1.2621459961,,,
38.9687500000,4,-1.0111080408,,,
38.9843750000,4,-0.7953491211,,,
39.0000000000,4,-0.6528319716,,,
39.0156250000,4,-0.5979003906,,,
39.0312500000,4,-0.6134644151,,,
39.0468750000,4,-0.6423339844,,,
39.0625000000,4,-0.6166381836,,,
39.0781250000,4,-0.4982909858,,,
39.0937500000,4,-0.2726440132,,,
39.1093750000,4,0.0548706092,,,
39.1250000000,4,0.4797973931,,,
39.1406250000,4,1.0119630098,,,
39.1562500000,4,1.6218260527,,,
39.1718750000,4,2.2221069336,,,
39.1875000000,4,2.6610720158,,,
39.2031250000,4,2.7833249569,,,
39.2187500000,4,2.5112299919,,,
39.2343750000,4,1.9121090174,,,
39.2500000000,4,1.1674189568,,,
39.2656250000,4,0.4766846001,,,
39.2812500000,4,-0.0457153283,,,
39.2968750000,4,-0.4115600884,,,
39.3125000000,4,-0.7185059190,,,
39.3281250000,4,-1.0505369902,,,
39.3437500000,4,-1.3768919706,,,
39.3593750000,4,-1.5810550451,,,
39.3750000000,4,-1.5140379667,,,
39.3906250000,4,-1.1355589628,,,
39.4062500000,4,-0.5623168945,,,
39.4218750000,4,-0.0128173800,,,
39.4375000000,4,0.2970581055,,,
39.4531250000,4,0.2917479873,,,
39.4687500000,4,0.0775756836,,,
39.4843750000,4,-0.1308594048,,,
39.5000000000,4,-0.1290894002,,,
39.5156250000,4,0.1463012993,,,
39.5312500000,4,0.5839843750,,,
39.5468750000,4,0.9712523818,,,
39.5625000000,4,1.1245119572,,,
39.5781250000,4,0.9928588867,,,
39.5937500000,4,0.6803588867,,,
39.6093750000,4,0.3654175103,,,
39.6250000000,4,0.1893310994,,,
39.6406250000,4,0.1839600056,,,
39.6562500000,4,0.2595824897,,,
39.6718750000,4,0.3059692085,,,
39.6875000000,4,0.2463988960,,,
39.7031250000,4,0.0927124023,,,
39.7187500000,4,-0.0985717773,,,
39.7343750000,4,-0.2632445991,,,
39.7500000000,4,-0.3937987983,,,
39.7656250000,4,-0.4993286133,,,
39.7812500000,4,-0.5913696289,,,
39.7968750000,4,-0.6452636719,,,
39.8125000000,4,-0.6060181260,,,
39.8281250000,4,-0.4767456055,,,
39.8437500000,4,-0.3188476861,,,
39.8593750000,4,-0.2346802056,,,
39.8750000000,4,-0.3023681939,,,
39.8906250000,4,-0.4976195991,,,
39.9062500000,4,-0.6878051758,,,
39.9218750000,4,-0.6948853135,,,
39.9375000000,4,-0.4255371094,,,
39.9531250000,4,0.0868530273,,,
39.9687500000,4,0.6807860732,,,
39.9843750000,4,1.1412349939,,,
40.0000000000,5,1.3175660372,,,
40.0156250000,5,1.2070920467,,,
40.0312500000,5,0.9186400771,,,
40.0468750000,5,0.6193848252,,,
40.0625000000,5,0.4218750000,,,
40.0781250000,5,0.3400878906,,,
40.0937500000,5,0.3148804009,,,
40.1093750000,5,0.2581787109,,,
40.1250000000,5,0.1347046047,,,
40.1406250000,5,-0.0281982403,,,
40.1562500000,5,-0.1763916016,,,
40.1718750000,5,-0.2494506985,,,
40.1875000000,5,-0.2319945991,,,
40.2031250000,5,-0.1629638970,,,
40.2187500000,5,-0.1130980998,,,
40.2343750000,5,-0.1341553032,,,
40.2500000000,5,-0.2608642876,,,
40.2656250000,5,-0.4581908882,,,
40.2812500000,5,-0.6724854112,,,
40.2968750000,5,-0.8316040039,,,
40.3125000000,5,-0.8952636719,,,
40.3281250000,5,-0.8577880859,,,
40.3437500000,5,-0.7513427734,,,
40.3593750000,5,-0.6203002930,,,
40.3750000000,5,-0.5166625977,,,
40.3906250000,5,-0.4696654975,,,
40.4062500000,5,-0.4767456055,,,
40.4218750000,5,-0.5028076172,,,
40.4375000000,5,-0.5166625977,,,
40.4531250000,5,-0.5125731826,,,
40.4687500000,5,-0.5255736709,,,
40.4843750000,5,-0.6093750000,,,
40.5000000000,5,-0.8043823242,,,
40.5156250000,5,-1.0926510096,,,
40.5312500000,5,-1.3786009550,,,
40.5468750000,5,-1.5317380428,,,
40.5625000000,5,-1.4443969727,,,
40.5781250000,5,-1.0924680233,,,
40.5937500000,5,-0.5584105849,,,
40.6093750000,5,-0.0162963904,,,
40.6250000000,5,0.3605346978,,,
40.6406250000,5,0.4763183892,,,
40.6562500000,5,0.3441162109,,,
40.6718750000,5,0.0772094727,,,
40.6875000000,5,-0.1772460938,,,
40.7031250000,5,-0.3066405952,,,
40.7187500000,5,-0.2786864936,,,
40.7343750000,5,-0.1401977986,,,
40.7500000000,5,0.0241699200,,,
40.7656250000,5,0.1558838040,,,
40.7812500000,5,0.2360229045,,,
40.7968750000,5,0.3242188096,,,
40.8125000000,5,0.4979858100,,,
40.8281250000,5,0.8145751953,,,
40.8437500000,5,1.2578129768,,,
40.8593750000,5,1.7399289608,,,
40.8750000000,5,2.1263430119,,,
40.8906250000,5,2.3157351017,,,
40.9062500000,5,2.2808229923,,,
40.9218750000,5,2.0772089958,,,
40.9375000000,5,1.8133540154,,,
40.9531250000,5,1.6018680334,,,
40.9687500000,5,1.4745479822,,,
40.9843750000,5,1.3851929903,,,
41.0000000000,5,1.2437130213,,,
41.0156250000,5,0.9602050781,,,
41.0312500000,5,0.5275878906,,,
41.0468750000,5,0.0335083008,,,
41.0625000000,5,-0.3754883111,,,
41.0781250000,5,-0.5543212891,,,
41.0937500000,5,-0.4165649116,,,
41.1093750000,5,-0.0032348630,,,
41.1250000000,5,0.5468140244,,,
41.1406250000,5,1.0244139433,,,
41.1562500000,5,1.2355959415,,,
41.1718750000,5,1.0817869902,,,
41.1875000000,5,0.5993041992,,,
41.2031250000,5,-0.0614013709,,,
41.2187500000,5,-0.6821289063,,,
41.2343750000,5,-1.0847779512,,,
41.2500000000,5,-1.1973880529,,,
41.2656250000,5,-1.0667109489,,,
41.2812500000,5,-0.8388062119,,,
41.2968750000,5,-0.6616210938,,,
41.3125000000,5,-0.6251831055,,,
41.3281250000,5,-0.7297363281,,,
41.3437500000,5,-0.8811035156,,,
41.3593750000,5,-0.9557495117,,,
41.3750000000,5,-0.8663330078,,,
41.3906250000,5,-0.6109008789,,,
41.4062500000,5,-0.2638550103,,,
41.4218750000,5,0.0494384803,,,
41.4375000000,5,0.2112427056,,,
41.4531250000,5,0.1700439006,,,
41.4687500000,5,-0.0430908203,,,
41.4843750000,5,-0.3304443061,,,
41.5000000000,5,-0.5851439834,,,
41.5156250000,5,-0.7430419922,,,
41.5312500000,5,-0.8328247070,,,
41.5468750000,5,-0.9086914063,,,
41.5625000000,5,-1.0112919807,,,
41.5781250000,5,-1.1057130098,,,
41.5937500000,5,-1.0827640295,,,
41.6093750000,5,-0.8493041992,,,
41.6250000000,5,-0.3889771104,,,
41.6406250000,5,0.1943970025,,,
41.6562500000,5,0.7130126953,,,
41.6718750000,5,0.9844359756,,,
41.6875000000,5,0.9531859756,,,
41.7031250000,5,0.6948853135,,,
41.7187500000,5,0.3893432915,,,
41.7343750000,5,0.1920776069,,,
41.7500000000,5,0.1673583984,,,
41.7656250000,5,0.2729491889,,,
41.7812500000,5,0.3761596978,,,
41.7968750000,5,0.3783569038,,,
41.8125000000,5,0.2539672852,,,
41.8281250000,5,0.0534668006,,,
41.8437500000,5,-0.1427001953,,,
41.8593750000,5,-0.2783203125,,,
41.8750000000,5,-0.3504638970,,,
41.8906250000,5,-0.3919067085,,,
41.9062500000,5,-0.4416503906,,,
41.9218750000,5,-0.4961547852,,,
41.9375000000,5,-0.5200194716,,,
41.9531250000,5,-0.4692383111,,,
41.9687500000,5,-0.3338623047,,,
41.9843750000,5,-0.1624145955,,,
42.0000000000,5,-0.0179443397,,,
42.0156250000,5,0.0775146484,,,
42.0312500000,5,0.1259154975,,,
42.0468750000,5,0.1752929986,,,
42.0625000000,5,0.2442017049,,,
42.0781250000,5,0.3052367866,,,
42.0937500000,5,0.3057861030,,,
42.1093750000,5,0.2117310017,,,
42.1250000000,5,0.0475463904,,,
42.1406250000,5,-0.1067505032,,,
42.1562500000,5,-0.1564331055,,,
42.1718750000,5,-0.0452880897,,,
42.1875000000,5,0.2156981975,,,
42.2031250000,5,0.5426024795,,,
42.2187500000,5,0.8452758789,,,
42.2343750000,5,1.0388790369,,,
42.2500000000,5,1.0877690315,,,
42.2656250000,5,1.0206300020,,,
42.2812500000,5,0.9099121094,,,
42.2968750000,5,0.8388671875,,,
42.3125000000,5,0.8766478896,,,
42.3281250000,5,1.0322879553,,,
42.3437500000,5,1.2421259880,,,
42.3593750000,5,1.3829959631,,,
42.3750000000,5,1.3150019646,,,
42.3906250000,5,0.9781494141,,,
42.4062500000,5,0.4200438857,,,
42.4218750000,5,-0.2054443061,,,
42.4375000000,5,-0.7151489258,,,
42.4531250000,5,-0.9996337891,,,
42.4687500000,5,-1.0571899414,,,
42.4843750000,5,-0.9761353135,,,
42.5000000000,5,-0.8745117188,,,
42.5156250000,5,-0.8039550781,,,
42.5312500000,5,-0.7450562119,,,
42.5468750000,5,-0.6176146865,,,
42.5625000000,5,-0.3699950874,,,
42.5781250000,5,-0.0219726600,,,
42.5937500000,5,0.3211669922,,,
42.6093750000,5,0.5108643174,,,
42.6250000000,5,0.4462279975,,,
42.6406250000,5,0.1367187947,,,
42.6562500000,5,-0.2942504883,,,
42.6718750000,5,-0.6797484756,,,
42.6875000000,5,-0.8988646865,,,
42.7031250000,5,-0.9497681260,,,
42.7187500000,5,-0.9376831055,,,
42.7343750000,5,-0.9967650771,,,
42.7500000000,5,-1.1897579432,,,
42.7656250000,5,-1.4712519646,,,
42.7812500000,5,-1.6975100040,,,
42.7968750000,5,-1.7363890409,,,
42.8125000000,5,-1.5219730139,,,
42.8281250000,5,-1.1193850040,,,
42.8437500000,5,-0.6691895127,,,
42.8593750000,5,-0.3131713867,,,
42.8750000000,5,-0.1422729045,,,
42.8906250000,5,-0.1513672024,,,
42.9062500000,5,-0.2703247070,,,
42.9218750000,5,-0.4182128906,,,
42.9375000000,5,-0.5191040039,,,
42.9531250000,5,-0.5299683213,,,
42.9687500000,5,-0.4495849907,,,
42.9843750000,5,-0.2949219048,,,
43.0000000000,5,-0.1151733026,,,
43.0156250000,5,0.0471801795,,,
43.0312500000,5,0.1558838040,,,
43.0468750000,5,0.1944579929,,,
43.0625000000,5,0.1593018025,,,
43.0781250000,5,0.0576171912,,,
43.0937500000,5,-0.0978393629,,,
43.1093750000,5,-0.2849731147,,,
43.1250000000,5,-0.4641112983,,,
43.1406250000,5,-0.5892333984,,,
43.1562500000,5,-0.6137694716,,,
43.1718750000,5,-0.5314940810,,,
43.1875000000,5,-0.3741455078,,,
43.2031250000,5,-0.1729125977,,,
43.2187500000,5,0.0433349609,,,
43.2343750000,5,0.2913208008,,,
43.2500000000,5,0.5914916992,,,
43.2656250000,5,0.9418944716,,,
43.2812500000,5,1.2721560001,,,
43.2968750000,5,1.4653929472,,,
43.3125000000,5,1.4469599724,,,
43.3281250000,5,1.2304079533,,,
43.3437500000,5,0.9320678711,,,
43.3593750000,5,0.6953734756,,,
43.3750000000,5,0.6082152724,,,
43.3906250000,5,0.6427001953,,,
43.4062500000,5,0.7036132813,,,
43.4218750000,5,0.6917114258,,,
43.4375000000,5,0.5809937119,,,
43.4531250000,5,0.4207763970,,,
43.4687500000,5,0.2813721001,,,
43.4843750000,5,0.1860352010,,,
43.5000000000,5,0.0769653320,,,
43.5156250000,5,-0.1284179986,,,
43.5312500000,5,-0.4797973931,,,
43.5468750000,5,-0.9436035156,,,
43.5625000000,5,-1.4069210291,,,
43.5781250000,5,-1.7315059900,,,
43.5937500000,5,-1.8275150061,,,
43.6093750000,5,-1.6848750114,,,
43.6250000000,5,-1.3573000431,,,
43.6406250000,5,-0.9316406250,,,
43.6562500000,5,-0.4833984077,,,
43.6718750000,5,-0.0635986328,,,
43.6875000000,5,0.2979736030,,,
43.7031250000,5,0.6091918945,,,
43.7187500000,5,0.8826293945,,,
43.7343750000,5,1.1228640079,,,
43.7500000000,5,1.2918699980,,,
43.7656250000,5,1.3260500431,,,
43.7812500000,5,1.1563719511,,,
43.7968750000,5,0.7691649795,,,
43.8125000000,5,0.2387084961,,,
43.8281250000,5,-0.2778930962,,,
43.8437500000,5,-0.5992432237,,,
43.8593750000,5,-0.6339110732,,,
43.8750000000,5,-0.4066162109,,,
43.8906250000,5,-0.0574340783,,,
43.9062500000,5,0.2478027046,,,
43.9218750000,5,0.4041748047,,,
43.9375000000,5,0.4212645888,,,
43.9531250000,5,0.3933104873,,,
43.9687500000,5,0.4145508111,,,
43.9843750000,5,0.5055541992,,,
44.0000000000,5,0.5784301758,,,
44.0156250000,5,0.5045166016,,,
44.0312500000,5,0.2136840969,,,
44.0468750000,5,-0.2565917969,,,
44.0625000000,5,-0.7506713867,,,
44.0781250000,5,-1.1006469727,,,
44.0937500000,5,-1.2054439783,,,
44.1093750000,5,-1.0960079432,,,
44.1250000000,5,-0.8977661133,,,
44.1406250000,5,-0.7512816787,,,
44.1562500000,5,-0.7229614258,,,
44.1718750000,5,-0.7667847276,,,
44.1875000000,5,-0.7744141221,,,
44.2031250000,5,-0.6321411133,,,
44.2187500000,5,-0.2961426079,,,
44.2343750000,5,0.1723022014,,,
44.2500000000,5,0.6298217773,,,
44.2656250000,5,0.9319458008,,,
44.2812500000,5,0.9826049805,,,
44.2968750000,5,0.7856444716,,,
44.3125000000,5,0.4310303032,,,
44.3281250000,5,0.0391235389,,,
44.3437500000,5,-0.2622680962,,,
44.3593750000,5,-0.4075317085,,,
44.3750000000,5,-0.3864136040,,,
44.3906250000,5,-0.2357787937,,,
44.4062500000,5,-0.0316162109,,,
44.4218750000,5,0.1581421047,,,
44.4375000000,5,0.2589721978,,,
44.4531250000,5,0.2462769002,,,
44.4687500000,5,0.1328735054,,,
44.4843750000,5,-0.0296630897,,,
44.5000000000,5,-0.1414185017,,,
44.5156250000,5,-0.1154785007,,,
44.5312500000,5,0.1047362983,,,
44.5468750000,5,0.4884032905,,,
44.5625000000,5,0.9506226182,,,
44.5781250000,5,1.3577270508,,,
44.5937500000,5,1.6030269861,,,
44.6093750000,5,1.6134029627,,,
44.6250000000,5,1.3932499886,,,
44.6406250000,5,0.9973145127,,,
44.6562500000,5,0.5134276748,,,
44.6718750000,5,0.0499267615,,,
44.6875000000,5,-0.2835693061,,,
44.7031250000,5,-0.4159545898,,,
44.7187500000,5,-0.3309937119,,,
44.7343750000,5,-0.0822753906,,,
44.7500000000,5,0.1983643025,,,
44.7656250000,5,0.3730469048,,,
44.7812500000,5,0.3637084961,,,
44.7968750000,5,0.1907348931,,,
44.8125000000,5,-0.0281982403,,,
44.8281250000,5,-0.1599120945,,,
44.8437500000,5,-0.1203612983,,,
44.8593750000,5,0.0844116211,,,
44.8750000000,5,0.3606567085,,,
44.8906250000,5,0.5940551758,,,
44.9062500000,5,0.6921386719,,,
44.9218750000,5,0.6326293945,,,
44.9375000000,5,0.4320679009,,,
44.9531250000,5,0.1312256008,,,
44.9687500000,5,-0.2350464016,,,
44.9843750000,5,-0.6313477159,,,
45.0000000000,5,-0.9932860732,,,
45.0156250000,5,-1.2304689884,,,
45.0312500000,5,-1.2519530058,,,
45.0468750000,5,-1.0281369686,,,
45.0625000000,5,-0.6090698242,,,
45.0781250000,5,-0.1433715969,,,
45.0937500000,5,0.2241820991,,,
45.1093750000,5,0.3793334961,,,
45.1250000000,5,0.3166503906,,,
45.1406250000,5,0.1196288988,,,
45.1562500000,5,-0.1013794020,,,
45.1718750000,5,-0.2561646104,,,
45.1875000000,5,-0.3010253906,,,
45.2031250000,5,-0.2553100884,,,
45.2187500000,5,-0.1619262993,,,
45.2343750000,5,-0.0575561486,,,
45.2500000000,5,0.0505981408,,,
45.2656250000,5,0.1948242038,,,
45.2812500000,5,0.4140625000,,,
45.2968750000,5,0.7162476182,,,
45.3125000000,5,1.0413819551,,,
45.3281250000,5,1.2791140079,,,
45.3437500000,5,1.3049319983,,,
45.3593750000,5,1.0724489689,,,
45.3750000000,5,0.6459351182,,,
45.3906250000,5,0.1854248047,,,
45.4062500000,5,-0.1309814006,,,
45.4218750000,5,-0.2067261040,,,
45.4375000000,5,-0.0811767578,,,
45.4531250000,5,0.1150512993,,,
45.4687500000,5,0.2265625000,,,
45.4843750000,5,0.1718750000,,,
45.5000000000,5,-0.0172119103,,,
45.5156250000,5,-0.2304076999,,,
45.5312500000,5,-0.3753052056,,,
45.5468750000,5,-0.4204711914,,,
45.5625000000,5,-0.4028320014,,,
45.5781250000,5,-0.3835448921,,,
45.5937500000,5,-0.3860473931,,,
45.6093750000,5,-0.3958739936,,,
45.6250000000,5,-0.3614501953,,,
45.6406250000,5,-0.2472534031,,,
45.6562500000,5,-0.0513305701,,,
45.6718750000,5,0.1859131008,,,
45.6875000000,5,0.4169921875,,,
45.7031250000,5,0.5899047852,,,
45.7187500000,5,0.6654663086,,,
45.7343750000,5,0.6051635742,,,
45.7500000000,5,0.3964844048,,,
45.7656250000,5,0.0557861291,,,
45.7812500000,5,-0.3678588867,,,
45.7968750000,5,-0.7839965820,,,
45.8125000000,5,-1.0968019962,,,
45.8281250000,5,-1.2206419706,,,
45.8437500000,5,-1.1515500546,,,
45.8593750000,5,-0.9549561143,,,
45.8750000000,5,-0.7549437881,,,
45.8906250000,5,-0.6588745117,,,
45.9062500000,5,-0.7122191787,,,
45.9218750000,5,-0.8606566787,,,
45.9375000000,5,-0.9784545898,,,
45.9531250000,5,-0.9408568740,,,
45.9687500000,5,-0.6989135742,,,
45.9843750000,5,-0.3135986030,,,
46.0000000000,5,0.0720214769,,,
46.0156250000,5,0.3253174126,,,
46.0312500000,5,0.3735351861,,,
46.0468750000,5,0.2471313030,,,
46.0625000000,5,0.0184936505,,,
46.0781250000,5,-0.2343750000,,,
46.0937500000,5,-0.5006713867,,,
46.1093750000,5,-0.7967529297,,,
46.1250000000,5,-1.1080319881,,,
46.1406250000,5,-1.3480219841,,,
46.1562500000,5,-1.3536380529,,,
46.1718750000,5,-1.0001829863,,,
46.1875000000,5,-0.2850342095,,,
46.2031250000,5,0.6187744141,,,
46.2187500000,5,1.4345699549,,,
46.2343750000,5,1.8928220272,,,
46.2500000000,5,1.8660889864,,,
46.2656250000,5,1.4126590490,,,
46.2812500000,5,0.7216187119,,,
46.2968750000,5,0.0130004901,,,
46.3125000000,5,-0.5638427734,,,
46.3281250000,5,-0.9483032227,,,
46.3437500000,5,-1.1513060331,,,
46.3593750000,5,-1.1964110136,,,
46.3750000000,5,-1.1014399529,,,
46.3906250000,5,-0.8623046875,,,
46.4062500000,5,-0.4987792969,,,
46.4218750000,5,-0.0809326172,,,
46.4375000000,5,0.3005981147,,,
46.4531250000,5,0.5509033203,,,
46.4687500000,5,0.6233521104,,,
46.4843750000,5,0.5394287109,,,
46.5000000000,5,0.3564453125,,,
46.5156250000,5,0.1601562947,,,
46.5312500000,5,0.0119018601,,,
46.5468750000,5,-0.0542602502,,,
46.5625000000,5,-0.0526123010,,,
46.5781250000,5,0.0057373052,,,
46.5937500000,5,0.0917968825,,,
46.6093750000,5,0.1787108928,,,
46.6250000000,5,0.2651978135,,,
46.6406250000,5,0.3406982124,,,
46.6562500000,5,0.3893432915,,,
46.6718750000,5,0.3745116889,,,
46.6875000000,5,0.2727051079,,,
46.7031250000,5,0.0630493164,,,
46.7187500000,5,-0.2301024944,,,
46.7343750000,5,-0.5361937881,,,
46.7500000000,5,-0.7584838867,,,
46.7656250000,5,-0.8045654297,,,
46.7812500000,5,-0.6218261719,,,
46.7968750000,5,-0.2384033054,,,
46.8125000000,5,0.2680664063,,,
46.8281250000,5,0.7839354873,,,
46.8437500000,5,1.2019649744,,,
46.8593750000,5,1.4477540255,,,
46.8750000000,5,1.4860839844,,,
46.8906250000,5,1.3206789494,,,
46.9062500000,5,0.9719849229,,,
46.9218750000,5,0.4591063857,,,
46.9375000000,5,-0.1539916992,,,
46.9531250000,5,-0.7794799805,,,
46.9687500000,5,-1.3016970158,,,
46.9843750000,5,-1.5961300135,,,
47.0000000000,5,-1.5956419706,,,
47.0156250000,5,-1.3294680119,,,
47.0312500000,5,-0.9033203125,,,
47.0468750000,5,-0.4637450874,,,
47.0625000000,5,-0.1409911960,,,
47.0781250000,5,0.0196533203,,,
47.0937500000,5,0.0657958984,,,
47.1093750000,5,0.0732421875,,,
47.1250000000,5,0.1059570014,,,
47.1406250000,5,0.1689452976,,,
47.1562500000,5,0.2098999023,,,
47.1718750000,5,0.1735839993,,,
47.1875000000,5,0.0626220703,,,
47.2031250000,5,-0.0645141602,,,
47.2187500000,5,-0.1144409031,,,
47.2343750000,5,-0.0360107385,,,
47.2500000000,5,0.1242676005,,,
47.2656250000,5,0.2551879883,,,
47.2812500000,5,0.2615967095,,,
47.2968750000,5,0.1037598029,,,
47.3125000000,5,-0.1511840969,,,
47.3281250000,5,-0.3743895888,,,
47.3437500000,5,-0.4476929009,,,
47.3593750000,5,-0.3406372070,,,
47.3750000000,5,-0.0994262695,,,
47.3906250000,5,0.1785888970,,,
47.4062500000,5,0.4082030952,,,
47.4218750000,5,0.5534667969,,,
47.4375000000,5,0.6369628906,,,
47.4531250000,5,0.6781005859,,,
47.4687500000,5,0.6756591797,,,
47.4843750000,5,0.5964965820,,,
47.5000000000,5,0.4103393853,,,
47.5156250000,5,0.1307982951,,,
47.5312500000,5,-0.1730957031,,,
47.5468750000,5,-0.4214478135,,,
47.5625000000,5,-0.5494995117,,,
47.5781250000,5,-0.5344849229,,,
47.5937500000,5,-0.3947143853,,,
47.6093750000,5,-0.1497803032,,,
47.6250000000,5,0.1769409031,,,
47.6406250000,5,0.5440673828,,,
47.6562500000,5,0.8671265244,,,
47.6718750000,5,1.0539549589,,,
47.6875000000,5,1.0348509550,,,
47.7031250000,5,0.8051757813,,,
47.7187500000,5,0.4497070014,,,
47.7343750000,5,0.1002196968,,,
47.7500000000,5,-0.1461791992,,,
47.7656250000,5,-0.2602539063,,,
47.7812500000,5,-0.2966918945,,,
47.7968750000,5,-0.3502807915,,,
47.8125000000,5,-0.4785155952,,,
47.8281250000,5,-0.6636353135,,,
47.8437500000,5,-0.8266602159,,,
47.8593750000,5,-0.8908081055,,,
47.8750000000,5,-0.8203734756,,,
47.8906250000,5,-0.6486206055,,,
47.9062500000,5,-0.4256592095,,,
47.9218750000,5,-0.1941528022,,,
47.9375000000,5,0.0585327111,,,
47.9531250000,5,0.3653563857,,,
47.9687500000,5,0.7637938857,,,
47.9843750000,5,1.2446290255,,,
48.0000000000,6,1.7215579748,,,
48.0156250000,6,2.0544428825,,,
48.0312500000,6,2.1213378906,,,
48.0468750000,6,1.8610229492,,,
48.0625000000,6,1.3064579964,,,
48.0781250000,6,0.5812377930,,,
48.0937500000,6,-0.1895751953,,,
48.1093750000,6,-0.8911743164,,,
48.1250000000,6,-1.4569089413,,,
48.1406250000,6,-1.8637080193,,,
48.1562500000,6,-2.0903320313,,,
48.1718750000,6,-2.1003420353,,,
48.1875000000,6,-1.8778690100,,,
48.2031250000,6,-1.4319460392,,,
48.2187500000,6,-0.8427124023,,,
48.2343750000,6,-0.2379149944,,,
48.2500000000,6,0.2335814983,,,
48.2656250000,6,0.4795531929,,,
48.2812500000,6,0.4902954102,,,
48.2968750000,6,0.3307495117,,,
48.3125000000,6,0.0919189528,,,
48.3281250000,6,-0.1563110054,,,
48.3437500000,6,-0.3713988960,,,
48.3593750000,6,-0.5348510742,,,
48.3750000000,6,-0.6422119141,,,
48.3906250000,6,-0.6779174805,,,
48.4062500000,6,-0.6329345703,,,
48.4218750000,6,-0.5146483779,,,
48.4375000000,6,-0.3565062881,,,
48.4531250000,6,-0.2058105022,,,
48.4687500000,6,-0.0823974609,,,
48.4843750000,6,0.0267334003,,,
48.5000000000,6,0.1693114936,,,
48.5156250000,6,0.3720703125,,,
48.5312500000,6,0.6174926758,,,
48.5468750000,6,0.8406981826,,,
48.5625000000,6,0.9449462891,,,
48.5781250000,6,0.8601685166,,,
48.5937500000,6,0.5681763291,,,
48.6093750000,6,0.1078490987,,,
48.6250000000,6,-0.4443359077,,,
48.6406250000,6,-0.9992064834,,,
48.6562500000,6,-1.4686280489,,,
48.6718750000,6,-1.7645870447,,,
48.6875000000,6,-1.8254389763,,,
48.7031250000,6,-1.6156619787,,,
48.7187500000,6,-1.1743160486,,,
48.7343750000,6,-0.6273192763,,,
48.7500000000,6,-0.1613769978,,,
48.7656250000,6,0.0597534217,,,
48.7812500000,6,-0.0365600586,,,
48.7968750000,6,-0.3693237007,,,
48.8125000000,6,-0.7438964844,,,
48.8281250000,6,-0.9601439834,,,
48.8437500000,6,-0.9069824219,,,
48.8593750000,6,-0.5975341797,,,
48.8750000000,6,-0.1710204929,,,
48.8906250000,6,0.2088012993,,,
48.9062500000,6,0.4443359077,,,
48.9218750000,6,0.5471190810,,,
48.9375000000,6,0.6293944716,,,
48.9531250000,6,0.7958983779,,,
48.9687500000,6,1.0877079964,,,
48.9843750000,6,1.4420169592,,,
49.0000000000,6,1.7507929802,,,
49.0156250000,6,1.9271850586,,,
49.0312500000,6,1.9742430449,,,
49.0468750000,6,1.9874880314,,,
49.0625000000,6,2.0828859806,,,
49.0781250000,6,2.3098139763,,,
49.0937500000,6,2.6085209846,,,
49.1093750000,6,2.8322141171,,,
49.1250000000,6,2.8210449219,,,
49.1406250000,6,2.4959719181,,,
49.1562500000,6,1.9006960392,,,
49.1718750000,6,1.1790159941,,,
49.1875000000,6,0.4855957031,,,
49.2031250000,6,-0.0730590820,,,
49.2187500000,6,-0.4645996094,,,
49.2343750000,6,-0.7428588867,,,
49.2500000000,6,-0.9619141221,,,
49.2656250000,6,-1.1635739803,,,
49.2812500000,6,-1.3579100370,,,
49.2968750000,6,-1.5319819450,,,
49.3125000000,6,-1.6773680449,,,
49.3281250000,6,-1.7896729708,,,
49.3437500000,6,-1.8758540154,,,
49.3593750000,6,-1.9274289608,,,
49.3750000000,6,-1.9227290154,,,
49.3906250000,6,-1.8183590174,,,
49.4062500000,6,-1.5698850155,,,
49.4218750000,6,-1.1883540154,,,
49.4375000000,6,-0.7429199219,,,
49.4531250000,6,-0.3635863960,,,
49.4687500000,6,-0.1766968071,,,
49.4843750000,6,-0.2504883111,,,
49.5000000000,6,-0.5393676758,,,
49.5156250000,6,-0.9080811143,,,
49.5312500000,6,-1.1824949980,,,
49.5468750000,6,-1.2230830193,,,
49.5625000000,6,-0.9965819716,,,
49.5781250000,6,-0.5731201172,,,
49.5937500000,6,-0.0977783203,,,
49.6093750000,6,0.2835693061,,,
49.6250000000,6,0.4746704102,,,
49.6406250000,6,0.4630737007,,,
49.6562500000,6,0.2920531929,,,
49.6718750000,6,0.0594482385,,,
49.6875000000,6,-0.1312866062,,,
49.7031250000,6,-0.2108764946,,,
49.7187500000,6,-0.1491699070,,,
49.7343750000,6,0.0151367197,,,
49.7500000000,6,0.2124633938,,,
49.7656250000,6,0.3516846001,,,
49.7812500000,6,0.3795776069,,,
49.7968750000,6,0.2866820991,,,
49.8125000000,6,0.1236571968,,,
49.8281250000,6,-0.0357055701,,,
49.8437500000,6,-0.1109009013,,,
49.8593750000,6,-0.0515747108,,,
49.8750000000,6,0.1271972954,,,
49.8906250000,6,0.3799437881,,,
49.9062500000,6,0.6541138291,,,
49.9218750000,6,0.9163208008,,,
49.9375000000,6,1.1613160372,,,
49.9531250000,6,1.3664549589,,,
49.9687500000,6,1.5026249886,,,
49.9843750000,6,1.5314940214,,,
50.0000000000,6,1.4289549589,,,
50.0156250000,6,1.2233890295,,,
50.0312500000,6,0.9716796875,,,
50.0468750000,6,0.7219849229,,,
50.0625000000,6,0.4696654975,,,
50.0781250000,6,0.1856689006,,,
50.0937500000,6,-0.1645507962,,,
50.1093750000,6,-0.5509644151,,,
50.1250000000,6,-0.8794556260,,,
50.1406250000,6,-1.0458370447,,,
50.1562500000,6,-0.9813842773,,,
50.1718750000,6,-0.7356566787,,,
50.1875000000,6,-0.4092406929,,,
50.2031250000,6,-0.1160278022,,,
50.2187500000,6,0.0973510668,,,
50.2343750000,6,0.2560425103,,,
50.2500000000,6,0.4065552056,,,
50.2656250000,6,0.5591431260,,,
50.2812500000,6,0.6900634766,,,
50.2968750000,6,0.7521361709,,,
50.3125000000,6,0.7346190810,,,
50.3281250000,6,0.6495360732,,,
50.3437500000,6,0.5335692763,,,
50.3593750000,6,0.4091796875,,,
50.3750000000,6,0.2808837891,,,
50.3906250000,6,0.1525269002,,,
50.4062500000,6,0.0528564490,,,
50.4218750000,6,0.0075683589,,,
50.4375000000,6,0.0150756799,,,
50.4531250000,6,0.0230712909,,,
50.4687500000,6,-0.0499267615,,,
50.4843750000,6,-0.2474976033,,,
50.5000000000,6,-0.5252686143,,,
50.5156250000,6,-0.7627562881,,,
50.5312500000,6,-0.8208618164,,,
50.5468750000,6,-0.6306151748,,,
50.5625000000,6,-0.2636719048,,,
50.5781250000,6,0.1087645963,,,
50.5937500000,6,0.3143920898,,,
50.6093750000,6,0.2684325874,,,
50.6250000000,6,0.0024414060,,,
50.6406250000,6,-0.4052734077,,,
50.6562500000,6,-0.8551024795,,,
50.6718750000,6,-1.2845460176,,,
50.6875000000,6,-1.6303709745,,,
50.7031250000,6,-1.8004759550,,,
50.7187500000,6,-1.6892700195,,,
50.7343750000,6,-1.2368769646,,,
50.7500000000,6,-0.4966430962,,,
50.7656250000,6,0.3413695991,,,
50.7812500000,6,1.0373539925,,,
50.7968750000,6,1.4013669491,,,
50.8125000000,6,1.4025269747,,,
50.8281250000,6,1.1670529842,,,
50.8437500000,6,0.8903198242,,,
50.8593750000,6,0.7246093750,,,
50.8750000000,6,0.7113037109,,,
50.8906250000,6,0.7936400771,,,
50.9062500000,6,0.8941649795,,,
50.9218750000,6,0.9793701172,,,
50.9375000000,6,1.0568239689,,,
50.9531250000,6,1.1367800236,,,
50.9687500000,6,1.1762080193,,,
50.9843750000,6,1.0683590174,,,
51.0000000000,6,0.7310181260,,,
51.0156250000,6,0.1707153022,,,
51.0312500000,6,-0.4888916016,,,
51.0468750000,6,-1.0405880213,,,
51.0625000000,6,-1.2961430550,,,
51.0781250000,6,-1.2092900276,,,
51.0937500000,6,-0.8986206055,,,
51.1093750000,6,-0.5819091797,,,
51.1250000000,6,-0.4600220025,,,
51.1406250000,6,-0.6212769151,,,
51.1562500000,6,-1.0038449764,,,
51.1718750000,6,-1.4561769962,,,
51.1875000000,6,-1.8368530273,,,
51.2031250000,6,-2.0652470589,,,
51.2187500000,6,-2.1250000000,,,
51.2343750000,6,-2.0407099724,,,
51.2500000000,6,-1.8220210075,,,
51.2656250000,6,-1.4805910587,,,
51.2812500000,6,-1.0349119902,,,
51.2968750000,6,-0.5524901748,,,
51.3125000000,6,-0.1333618015,,,
51.3281250000,6,0.1382445991,,,
51.3437500000,6,0.2510986030,,,
51.3593750000,6,0.2760010064,,,
51.3750000000,6,0.3232421875,,,
51.3906250000,6,0.4983521104,,,
51.4062500000,6,0.8195800781,,,
51.4218750000,6,1.2133179903,,,
51.4375000000,6,1.5682979822,,,
51.4531250000,6,1.7824709415,,,
51.4687500000,6,1.8259279728,,,
51.4843750000,6,1.7282710075,,,
51.5000000000,6,1.5444949865,,,
51.5156250000,6,1.3269040585,,,
51.5312500000,6,1.0988160372,,,
51.5468750000,6,0.8381348252,,,
51.5625000000,6,0.5324097276,,,
51.5781250000,6,0.2096558064,,,
51.5937500000,6,-0.0803833008,,,
51.6093750000,6,-0.2630004883,,,
51.6250000000,6,-0.3045653999,,,
51.6406250000,6,-0.2291260064,,,
51.6562500000,6,-0.1239013970,,,
51.6718750000,6,-0.0908813477,,,
51.6875000000,6,-0.2077637017,,,
51.7031250000,6,-0.4906005859,,,
51.7187500000,6,-0.8944091797,,,
51.7343750000,6,-1.3367309570,,,
51.7500000000,6,-1.7225949764,,,
51.7656250000,6,-1.9729000330,,,
51.7812500000,6,-2.0447390079,,,
51.7968750000,6,-1.9426269531,,,
51.8125000000,6,-1.7073969841,,,
51.8281250000,6,-1.4204100370,,,
51.8437500000,6,-1.1381230354,,,
51.8593750000,6,-0.8934937119,,,
51.8750000000,6,-0.6941527724,,,
51.8906250000,6,-0.5105590820,,,
51.9062500000,6,-0.3261108100,,,
51.9218750000,6,-0.1492920071,,,
51.9375000000,6,-0.0018310550,,,
51.9531250000,6,0.0906982422,,,
51.9687500000,6,0.1292725056,,,
51.9843750000,6,0.1275635064,,,
52.0000000000,6,0.1098633036,,,
52.0156250000,6,0.0723877028,,,
52.0312500000,6,0.0231323205,,,
52.0468750000,6,-0.0307006799,,,
52.0625000000,6,-0.0582885705,,,
52.0781250000,6,-0.0062255859,,,
52.0937500000,6,0.1452637017,,,
52.1093750000,6,0.3658446968,,,
52.1250000000,6,0.5573120117,,,
52.1406250000,6,0.6091918945,,,
52.1562500000,6,0.4539184868,,,
52.1718750000,6,0.1127318963,,,
52.1875000000,6,-0.3054809868,,,
52.2031250000,6,-0.6566771865,,,
52.2187500000,6,-0.8259276748,,,
52.2343750000,6,-0.7709960938,,,
52.2500000000,6,-0.5366821289,,,
52.2656250000,6,-0.2262572944,,,
52.2812500000,6,0.0523071289,,,
52.2968750000,6,0.2283935994,,,
52.3125000000,6,0.2924804986,,,
52.3281250000,6,0.2711791992,,,
52.3437500000,6,0.2163695991,,,
52.3593750000,6,0.1876221001,,,
52.3750000000,6,0.2319945991,,,
52.3906250000,6,0.3683471978,,,
52.4062500000,6,0.5955200195,,,
52.4218750000,6,0.8500977159,,,
52.4375000000,6,1.0327759981,,,
52.4531250000,6,1.0463869572,,,
52.4687500000,6,0.8446044922,,,
52.4843750000,6,0.4558104873,,,
52.5000000000,6,-0.0111084003,,,
52.5156250000,6,-0.4227904975,,,
52.5312500000,6,-0.6549683213,,,
52.5468750000,6,-0.6508789063,,,
52.5625000000,6,-0.4225463867,,,
52.5781250000,6,-0.0342407189,,,
52.5937500000,6,0.4292603135,,,
52.6093750000,6,0.8692017198,,,
52.6250000000,6,1.2117919922,,,
52.6406250000,6,1.3970340490,,,
52.6562500000,6,1.4099730253,,,
52.6718750000,6,1.2863769531,,,
52.6875000000,6,1.1352540255,,,
52.7031250000,6,1.0704350471,,,
52.7187500000,6,1.1499630213,,,
52.7343750000,6,1.3552249670,,,
52.7500000000,6,1.5854489803,,,
52.7656250000,6,1.7181400061,,,
52.7812500000,6,1.6776729822,,,
52.7968750000,6,1.4608149529,,,
52.8125000000,6,1.1173709631,,,
52.8281250000,6,0.7301635742,,,
52.8437500000,6,0.3629150093,,,
52.8593750000,6,0.0656738281,,,
52.8750000000,6,-0.1364136040,,,
52.8906250000,6,-0.2457274944,,,
52.9062500000,6,-0.2685546875,,,
52.9218750000,6,-0.2500000000,,,
52.9375000000,6,-0.2398681939,,,
52.9531250000,6,-0.2911376953,,,
52.9687500000,6,-0.4221802056,,,
52.9843750000,6,-0.5913085938,,,
53.0000000000,6,-0.7106323242,,,
53.0156250000,6,-0.7112426758,,,
53.0312500000,6,-0.5649414063,,,
53.0468750000,6,-0.3293457031,,,
53.0625000000,6,-0.1217650995,,,
53.0781250000,6,-0.0599975586,,,
53.0937500000,6,-0.2073363960,,,
53.1093750000,6,-0.5294799805,,,
53.1250000000,6,-0.8977050781,,,
53.1406250000,6,-1.1603389978,,,
53.1562500000,6,-1.2213129997,,,
53.1718750000,6,-1.0978389978,,,
53.1875000000,6,-0.9088745117,,,
53.2031250000,6,-0.7930297852,,,
53.2187500000,6,-0.8234252930,,,
53.2343750000,6,-0.9487305284,,,
53.2500000000,6,-1.0330810547,,,
53.2656250000,6,-0.9591674805,,,
53.2812500000,6,-0.7175292969,,,
53.2968750000,6,-0.4141846001,,,
53.3125000000,6,-0.2052612007,,,
53.3281250000,6,-0.1868896037,,,
53.3437500000,6,-0.3383789063,,,
53.3593750000,6,-0.5424193740,,,
53.3750000000,6,-0.6953734756,,,
53.3906250000,6,-0.7637329102,,,
53.4062500000,6,-0.7966309190,,,
53.4218750000,6,-0.8605957031,,,
53.4375000000,6,-0.9489135742,,,
53.4531250000,6,-0.9733275771,,,
53.4687500000,6,-0.8022460938,,,
53.4843750000,6,-0.3743895888,,,
53.5000000000,6,0.2423096001,,,
53.5156250000,6,0.8704224229,,,
53.5312500000,6,1.3112180233,,,
53.5468750000,6,1.4379270077,,,
53.5625000000,6,1.2460329533,,,
53.5781250000,6,0.8361206055,,,
53.5937500000,6,0.3386229873,,,
53.6093750000,6,-0.1235352010,,,
53.6250000000,6,-0.4835815132,,,
53.6406250000,6,-0.7179564834,,,
53.6562500000,6,-0.8391113281,,,
53.6718750000,6,-0.8717041016,,,
53.6875000000,6,-0.8416138291,,,
53.7031250000,6,-0.7640380859,,,
53.7187500000,6,-0.6419677734,,,
53.7343750000,6,-0.4842528999,,,
53.7500000000,6,-0.3167724907,,,
53.7656250000,6,-0.1778564006,,,
53.7812500000,6,-0.0964355469,,,
53.7968750000,6,-0.0583496094,,,
53.8125000000,6,-0.0023193359,,,
53.8281250000,6,0.1568603963,,,
53.8437500000,6,0.4633789063,,,
53.8593750000,6,0.8822631836,,,
53.8750000000,6,1.2804570198,,,
53.8906250000,6,1.5046999454,,,
53.9062500000,6,1.4520260096,,,
53.9218750000,6,1.1428220272,,,
53.9375000000,6,0.7242432237,,,
53.9531250000,6,0.3765259087,,,
53.9687500000,6,0.2607421875,,,
53.9843750000,6,0.4308471978,,,
54.0000000000,6,0.8200073242,,,
54.0156250000,6,1.2774050236,,,
54.0312500000,6,1.6416020393,,,
54.0468750000,6,1.7785029411,,,
54.0625000000,6,1.6472170353,,,
54.0781250000,6,1.2979129553,,,
54.0937500000,6,0.8474730849,,,
54.1093750000,6,0.4519653022,,,
54.1250000000,6,0.2243652046,,,
54.1406250000,6,0.1947631985,,,
54.1562500000,6,0.2974242866,,,
54.1718750000,6,0.3970336914,,,
54.1875000000,6,0.3601684868,,,
54.2031250000,6,0.1252440959,,,
54.2187500000,6,-0.2523193061,,,
54.2343750000,6,-0.6308593750,,,
54.2500000000,6,-0.8590698242,,,
54.2656250000,6,-0.8626099229,,,
54.2812500000,6,-0.6733397841,,,
54.2968750000,6,-0.4135132134,,,
54.3125000000,6,-0.2222899944,,,
54.3281250000,6,-0.1689452976,,,
54.3437500000,6,-0.2218018025,,,
54.3593750000,6,-0.2809447944,,,
54.3750000000,6,-0.2547607124,,,
54.3906250000,6,-0.1221313030,,,
54.4062500000,6,0.0513916016,,,
54.4218750000,6,0.1661376953,,,
54.4375000000,6,0.1744994968,,,
54.4531250000,6,0.0863037109,,,
54.4687500000,6,-0.0252685491,,,
54.4843750000,6,-0.0876464769,,,
54.5000000000,6,-0.0750122070,,,
54.5156250000,6,-0.0070800781,,,
54.5312500000,6,0.0794067383,,,
54.5468750000,6,0.1548462063,,,
54.5625000000,6,0.1923218071,,,
54.5781250000,6,0.1496582031,,,
54.5937500000,6,-0.0227661096,,,
54.6093750000,6,-0.3513183892,,,
54.6250000000,6,-0.7998657227,,,
54.6406250000,6,-1.2442630529,,,
54.6562500000,6,-1.5036009550,,,
54.6718750000,6,-1.4368900061,,,
54.6875000000,6,-1.0321660042,,,
54.7031250000,6,-0.4457396865,,,
54.7187500000,6,0.0755004883,,,
54.7343750000,6,0.3109130859,,,
54.7500000000,6,0.1887207031,,,
54.7656250000,6,-0.1799927056,,,
54.7812500000,6,-0.5799561143,,,
54.7968750000,6,-0.8081055284,,,
54.8125000000,6,-0.7927246094,,,
54.8281250000,6,-0.5991821289,,,
54.8437500000,6,-0.3480834961,,,
54.8593750000,6,-0.1317749023,,,
54.8750000000,6,0.0493774414,,,
54.8906250000,6,0.2736206055,,,
54.9062500000,6,0.5992432237,,,
54.9218750000,6,0.9921265244,,,
54.9375000000,6,1.3384399414,,,
54.9531250000,6,1.4692989588,,,
54.9687500000,6,1.2631839514,,,
54.9843750000,6,0.7061157227,,,
55.0000000000,6,-0.0899047926,,,
55.0156250000,6,-0.9362792969,,,
55.0312500000,6,-1.6395260096,,,
55.0468750000,6,-2.0549929142,,,
55.0625000000,6,-2.1088259220,,,
55.0781250000,6,-1.8198239803,,,
55.0937500000,6,-1.2683110237,,,
55.1093750000,6,-0.5880126953,,,
55.1250000000,6,0.0671386719,,,
55.1406250000,6,0.5627440810,,,
55.1562500000,6,0.8276978135,,,
55.1718750000,6,0.8677368164,,,
55.1875000000,6,0.7633057237,,,
55.2031250000,6,0.6145020127,,,
55.2187500000,6,0.5012207031,,,
55.2343750000,6,0.4419555962,,,
55.2500000000,6,0.3847045898,,,
55.2656250000,6,0.2561646104,,,
55.2812500000,6,0.0214843806,,,
55.2968750000,6,-0.2788085938,,,
55.3125000000,6,-0.5567626953,,,
55.3281250000,6,-0.7229003906,,,
55.3437500000,6,-0.7353516221,,,
55.3593750000,6,-0.6182250977,,,
55.3750000000,6,-0.4420166016,,,
55.3906250000,6,-0.2707520127,,,
55.4062500000,6,-0.1452026069,,,
55.4218750000,6,-0.0687255934,,,
55.4375000000,6,-0.0266723596,,,
55.4531250000,6,0.0101928702,,,
55.4687500000,6,0.0463256799,,,
55.4843750000,6,0.0942382813,,,
55.5000000000,6,0.1561889946,,,
55.5156250000,6,0.2365112007,,,
55.5312500000,6,0.3425292969,,,
55.5468750000,6,0.4567261040,,,
55.5625000000,6,0.5370482802,,,
55.5781250000,6,0.5394896865,,,
55.5937500000,6,0.4400635064,,,
55.6093750000,6,0.2648926079,,,
55.6250000000,6,0.0590820313,,,
55.6406250000,6,-0.1351929009,,,
55.6562500000,6,-0.2915649116,,,
55.6718750000,6,-0.4152221978,,,
55.6875000000,6,-0.5169066787,,,
55.7031250000,6,-0.5979614258,,,
55.7187500000,6,-0.6424561143,,,
55.7343750000,6,-0.6246948242,,,
55.7500000000,6,-0.5352783203,,,
55.7656250000,6,-0.3969726861,,,
55.7812500000,6,-0.2619018853,,,
55.7968750000,6,-0.2064819038,,,
55.8125000000,6,-0.2700805962,,,
55.8281250000,6,-0.4411621094,,,
55.8437500000,6,-0.6646118164,,,
55.8593750000,6,-0.8585814834,,,
55.8750000000,6,-0.9796752930,,,
55.8906250000,6,-1.0022579432,,,
55.9062500000,6,-0.9298706055,,,
55.9218750000,6,-0.7681884766,,,
55.9375000000,6,-0.5145874023,,,
55.9531250000,6,-0.1600341946,,,
55.9687500000,6,0.2701416016,,,
55.9843750000,6,0.7131958008,,,
56.0000000000,7,1.0887449980,,,
56.0156250000,7,1.3207399845,,,
56.0312500000,7,1.3710939884,,,
56.0468750000,7,1.2498780489,,,
56.0625000000,7,0.9907227159,,,
56.0781250000,7,0.6566771865,,,
56.0937500000,7,0.3064574897,,,
56.1093750000,7,0.0084838867,,,
56.1250000000,7,-0.1862183064,,,
56.1406250000,7,-0.2444458008,,,
56.1562500000,7,-0.1804810017,,,
