Time:64Hz,Epoch,Channel 1,Event Id,Event Date,Event Duration
0.0000000000,0,0.3916015923,,,
0.0156250000,0,0.9140625000,,,
0.0312500000,0,1.5255130529,,,
0.0468750000,0,2.1087648869,,,
0.0625000000,0,2.5145258904,,,
0.0781250000,0,2.6123049259,,,
0.0937500000,0,2.3533940315,,,
0.1093750000,0,1.7979739904,,,
0.1250000000,0,1.0898439884,,,
0.1406250000,0,0.4041748047,,,
0.1562500000,0,-0.1501464993,,,
0.1718750000,0,-0.5567626953,,,
0.1875000000,0,-0.8822020888,,,
0.2031250000,0,-1.2028809786,,,
0.2187500000,0,-1.5462650061,,,
0.2343750000,0,-1.8487550020,,,
0.2500000000,0,-1.9906009436,,,
0.2656250000,0,-1.8551030159,,,
0.2812500000,0,-1.3958740234,,,
0.2968750000,0,-0.6593018174,,,
0.3125000000,0,0.2048339993,,,
0.3281250000,0,1.0114749670,,,
0.3437500000,0,1.5965579748,,,
0.3593750000,0,1.8707280159,,,
0.3750000000,0,1.8334959745,,,
0.3906250000,0,1.5653079748,,,
0.4062500000,0,1.1948239803,,,
0.4218750000,0,0.8530272841,,,
0.4375000000,0,0.6396483779,,,
0.4531250000,0,0.5989990234,,,
0.4687500000,0,0.6872559190,,,
0.4843750000,0,0.8054199219,,,
0.5000000000,0,0.8079833984,,,
0.5156250000,0,0.5814208984,,,
0.5312500000,0,0.0866699219,,,
0.5468750000,0,-0.5869141221,,,
0.5625000000,0,-1.2513430119,,,
0.5781250000,0,-1.7037349939,,,
0.5937500000,0,-1.7998050451,,,
0.6093750000,0,-1.5418699980,,,
0.6250000000,0,-1.0778809786,,,
0.6406250000,0,-0.6051024795,,,
0.6562500000,0,-0.2644042969,,,
0.6718750000,0,-0.0749511719,,,
0.6875000000,0,0.0480956994,,,
0.7031250000,0,0.2158202976,,,
0.7187500000,0,0.4611816108,,,
0.7343750000,0,0.7263184190,,,
0.7500000000,0,0.8941649795,,,
0.7656250000,0,0.8914794922,,,
0.7812500000,0,0.7231444716,,,
0.7968750000,0,0.4782715142,,,
0.8125000000,0,0.2508544922,,,
0.8281250000,0,0.0734863281,,,
0.8437500000,0,-0.0882568434,,,
0.8593750000,0,-0.2913818061,,,
0.8750000000,0,-0.5574951172,,,
0.8906250000,0,-0.8170166016,,,
0.9062500000,0,-0.9656981826,,,
0.9218750000,0,-0.9287108779,,,
0.9375000000,0,-0.7275391221,,,
0.9531250000,0,-0.4730224907,,,
0.9687500000,0,-0.3090820014,,,
0.9843750000,0,-0.3273926079,,,
1.0000000000,0,-0.5270996094,,,
1.0156250000,0,-0.8159180284,,,
1.0312500000,0,-1.0694580078,,,
1.0468750000,0,-1.1768800020,,,
1.0625000000,0,-1.0946040154,,,
1.0781250000,0,-0.8341063857,,,
1.0937500000,0,-0.4360351861,,,
1.1093750000,0,0.0445556603,,,
1.1250000000,0,0.5599365234,,,
1.1406250000,0,1.0491939783,,,
1.1562500000,0,1.4389649630,,,
1.1718750000,0,1.6596679688,,,
1.1875000000,0,1.6640629768,,,
1.2031250000,0,1.4551999569,,,
1.2187500000,0,1.0968019962,,,
1.2343750000,0,0.6772460938,,,
1.2500000000,0,0.2752686143,,,
1.2656250000,0,-0.0633544922,,,
1.2812500000,0,-0.3448486030,,,
1.2968750000,0,-0.5760498047,,,
1.3125000000,0,-0.7579345703,,,
1.3281250000,0,-0.8734130859,,,
1.3437500000,0,-0.9184569716,,,
1.3593750000,0,-0.9010009766,,,
1.3750000000,0,-0.8869628906,,,
1.3906250000,0,-0.9376220703,,,
1.4062500000,0,-1.0795899630,,,
1.4218750000,0,-1.3101810217,,,
1.4375000000,0,-1.5893549919,,,
1.4531250000,0,-1.8759770393,,,
1.4687500000,0,-2.1453859806,,,
1.4843750000,0,-2.3773190975,,,
1.5000000000,0,-2.5118410587,,,
1.5156250000,0,-2.4738769531,,,
1.5312500000,0,-2.1984860897,,,
1.5468750000,0,-1.6677249670,,,
1.5625000000,0,-0.9584960938,,,
1.5781250000,0,-0.2231445014,,,
1.5937500000,0,0.3602294922,,,
1.6093750000,0,0.6619873047,,,
1.6250000000,0,0.6280518174,,,
1.6406250000,0,0.2847900093,,,
1.6562500000,0,-0.3071289063,,,
1.6718750000,0,-1.0643310547,,,
1.6875000000,0,-1.8563230038,,,
1.7031250000,0,-2.5371088982,,,
1.7187500000,0,-2.9422609806,,,
1.7343750000,0,-2.9613039494,,,
1.7500000000,0,-2.5880129337,,,
1.7656250000,0,-1.9414060116,,,
1.7812500000,0,-1.2120360136,,,
1.7968750000,0,-0.5920410156,,,
1.8125000000,0,-0.1788329929,,,
1.8281250000,0,0.0406494103,,,
1.8437500000,0,0.1480713040,,,
1.8593750000,0,0.2553710938,,,
1.8750000000,0,0.4183349907,,,
1.8906250000,0,0.6447753906,,,
1.9062500000,0,0.9058837891,,,
1.9218750000,0,1.1547850370,,,
1.9375000000,0,1.3334959745,,,
1.9531250000,0,1.3813480139,,,
1.9687500000,0,1.2507319450,,,
1.9843750000,0,0.9206542969,,,
2.0000000000,0,0.4500732124,,,
2.0156250000,0,-0.0258789100,,,
2.0312500000,0,-0.3574219048,,,
2.0468750000,0,-0.4449462891,,,
2.0625000000,0,-0.2673340142,,,
2.0781250000,0,0.1051025018,,,
2.0937500000,0,0.5604248047,,,
2.1093750000,0,1.0131839514,,,
2.1250000000,0,1.3999019861,,,
2.1406250000,0,1.6967769861,,,
2.1562500000,0,1.8601069450,,,
2.1718750000,0,1.8187259436,,,
2.1875000000,0,1.5294189453,,,
2.2031250000,0,0.9891356826,,,
2.2187500000,0,0.2857666016,,,
2.2343750000,0,-0.4273681939,,,
2.2500000000,0,-0.9991455078,,,
2.2656250000,0,-1.3602290154,,,
2.2812500000,0,-1.5294189453,,,
2.2968750000,0,-1.6002199650,,,
2.3125000000,0,-1.6472170353,,,
2.3281250000,0,-1.6885989904,,,
2.3437500000,0,-1.6705319881,,,
2.3593750000,0,-1.5201419592,,,
2.3750000000,0,-1.2126460075,,,
2.3906250000,0,-0.7912598252,,,
2.4062500000,0,0.0528564490,,,
2.4218750000,0,0.3792724907,,,
2.4375000000,0,0.6623535156,,,
2.4531250000,0,0.9295654297,,,
2.4687500000,0,1.2094730139,,,
2.4843750000,0,1.4747309685,,,
2.5000000000,0,1.6779789925,,,
2.5156250000,0,1.7667239904,,,
2.5312500000,0,1.6917719841,,,
2.5468750000,0,1.4383540154,,,
2.5625000000,0,1.0181879997,,,
2.5781250000,0,0.4654541016,,,
2.5937500000,0,-0.1232910007,,,
2.6093750000,0,-0.6280518174,,,
2.6250000000,0,-0.8962401748,,,
2.6406250000,0,-0.8228759766,,,
2.6562500000,0,-0.3786621094,,,
2.6718750000,0,0.3582763970,,,
2.6875000000,0,1.1915279627,,,
2.7031250000,0,1.8929439783,,,
2.7187500000,0,2.2806398869,,,
2.7343750000,0,2.2800290585,,,
2.7500000000,0,1.9481199980,,,
2.7656250000,0,1.4514160156,,,
2.7812500000,0,0.9973145127,,,
2.7968750000,0,0.7625731826,,,
2.8125000000,0,0.8365479112,,,
2.8281250000,0,1.1807860136,,,
2.8437500000,0,1.6536870003,,,
2.8593750000,0,2.0804440975,,,
2.8750000000,0,2.3343510628,,,
2.8906250000,0,2.3742680550,,,
2.9062500000,0,2.2410891056,,,
2.9218750000,0,1.9935300350,,,
2.9375000000,0,1.6856689453,,,
2.9531250000,0,1.3063960075,,,
2.9687500000,0,0.8621826172,,,
2.9843750000,0,0.4125976861,,,
3.0000000000,0,0.0651855469,,,
3.0156250000,0,-0.0516357385,,,
3.0312500000,0,0.1147461012,,,
3.0468750000,0,0.4915770888,,,
3.0625000000,0,0.8957520127,,,
3.0781250000,0,1.1090090275,,,
3.0937500000,0,1.0283199549,,,
3.1093750000,0,0.6962891221,,,
3.1250000000,0,0.2935791016,,,
3.1406250000,0,-0.0074462891,,,
3.1562500000,0,-0.1518554986,,,
3.1718750000,0,-0.1997070014,,,
3.1875000000,0,-0.2790527046,,,
3.2031250000,0,-0.4569092095,,,
3.2187500000,0,-0.6708983779,,,
3.2343750000,0,-0.7595214844,,,
3.2500000000,0,-0.5806884766,,,
3.2656250000,0,-0.1177979037,,,
3.2812500000,0,0.4677734077,,,
3.2968750000,0,0.9234619141,,,
3.3125000000,0,1.0401610136,,,
3.3281250000,0,0.7573242188,,,
3.3437500000,0,0.1752929986,,,
3.3593750000,0,-0.5209960938,,,
3.3750000000,0,-1.1389160156,,,
3.3906250000,0,-1.5540770292,,,
3.4062500000,0,-1.7120360136,,,
3.4218750000,0,-1.6225589514,,,
3.4375000000,0,-1.3197020292,,,
3.4531250000,0,-0.8695067763,,,
3.4687500000,0,-0.3892821968,,,
3.4843750000,0,0.0013427730,,,
3.5000000000,0,0.1860352010,,,
3.5156250000,0,0.1188964993,,,
3.5312500000,0,-0.1700439006,,,
3.5468750000,0,-0.5744628906,,,
3.5625000000,0,-0.9649658203,,,
3.5781250000,0,-1.2440190315,,,
3.5937500000,0,-1.3505860567,,,
3.6093750000,0,-1.3002929688,,,
3.6250000000,0,-1.1312259436,,,
3.6406250000,0,-0.8895264268,,,
3.6562500000,0,-0.6145020127,,,
3.6718750000,0,-0.3173828125,,,
3.6875000000,0,0.0141601600,,,
3.7031250000,0,0.4002686143,,,
3.7187500000,0,0.8237305284,,,
3.7343750000,0,1.2247309685,,,
3.7500000000,0,1.5130620003,,,
3.7656250000,0,1.6258540154,,,
3.7812500000,0,1.5789790154,,,
3.7968750000,0,1.4632569551,,,
3.8125000000,0,1.4024660587,,,
3.8281250000,0,1.4967039824,,,
3.8437500000,0,1.7324219942,,,
3.8593750000,0,1.9855959415,,,
3.8750000000,0,2.0701899529,,,
3.8906250000,0,1.8507080078,,,
3.9062500000,0,1.3148189783,,,
3.9218750000,0,0.5975341797,,,
3.9375000000,0,-0.0795898363,,,
3.9531250000,0,-0.5161132813,,,
3.9687500000,0,-0.6263427734,,,
3.9843750000,0,-0.4649657905,,,
4.0000000000,0,-0.1956786960,,,
4.0156250000,0,0.0075683589,,,
4.0312500000,0,0.0385742188,,,
4.0468750000,0,-0.1213378981,,,
4.0625000000,0,-0.4259032905,,,
4.0781250000,0,-0.7901610732,,,
4.0937500000,0,-1.1346440315,,,
4.1093750000,0,-1.3807369471,,,
4.1250000000,0,-1.4444580078,,,
4.1406250000,0,-1.2490229607,,,
4.1562500000,0,-0.7518311143,,,
4.1718750000,0,0.0009765625,,,
4.1875000000,0,0.8543701172,,,
4.2031250000,0,1.6068120003,,,
4.2187500000,0,2.0642089844,,,
4.2343750000,0,2.1373291016,,,
4.2500000000,0,1.8703609705,,,
4.2656250000,0,1.3997800350,,,
4.2812500000,0,0.9013671875,,,
4.2968750000,0,0.5063477159,,,
4.3125000000,0,0.2597655952,,,
4.3281250000,0,0.1212157980,,,
4.3437500000,0,0.0080566406,,,
4.3593750000,0,-0.1517333984,,,
4.3750000000,0,-0.3968505859,,,
4.3906250000,0,-0.7178955078,,,
4.4062500000,0,-1.0848389864,,,
4.4218750000,0,-1.4516600370,,,
4.4375000000,0,-1.7873539925,,,
4.4531250000,0,-2.0656740665,,,
4.4687500000,0,-2.2738039494,,,
4.4843750000,0,-2.3963620663,,,
4.5000000000,0,-2.4414060116,,,
4.5156250000,0,-2.4049069881,,,
4.5312500000,0,-2.2814939022,,,
4.5468750000,0,-2.0648190975,,,
4.5625000000,0,-1.7646479607,,,
4.5781250000,0,-1.4013669491,,,
4.5937500000,0,-1.0311280489,,,
4.6093750000,0,-0.7294921875,,,
4.6250000000,0,-0.5656738281,,,
4.6406250000,0,-0.5621337891,,,
4.6562500000,0,-0.6462401748,,,
4.6718750000,0,-0.6805419922,,,
4.6875000000,0,-0.5363770127,,,
4.7031250000,0,-0.1317138970,,,
4.7187500000,0,0.4654541016,,,
4.7343750000,0,1.0849610567,,,
4.7500000000,0,1.5190429688,,,
4.7656250000,0,1.6281739473,,,
4.7812500000,0,1.3812259436,,,
4.7968750000,0,0.8737792969,,,
4.8125000000,0,0.2723388970,,,
4.8281250000,0,-0.2629395127,,,
4.8437500000,0,-0.6081542969,,,
4.8593750000,0,-0.7054442763,,,
4.8750000000,0,-0.5413817763,,,
4.8906250000,0,-0.1470946968,,,
4.9062500000,0,0.3985596001,,,
4.9218750000,0,0.9774169922,,,
4.9375000000,0,1.4334720373,,,
4.9531250000,0,1.6267089844,,,
4.9687500000,0,1.4921879768,,,
4.9843750000,0,1.0745849609,,,
5.0000000000,0,0.4842528999,,,
5.0156250000,0,-0.1132813022,,,
5.0312500000,0,-0.5754395127,,,
5.0468750000,0,-0.8267822266,,,
5.0625000000,0,-0.8551024795,,,
5.0781250000,0,-0.7191162109,,,
5.0937500000,0,-0.4882813096,,,
5.1093750000,0,-0.2457274944,,,
5.1250000000,0,-0.0343017615,,,
5.1406250000,0,0.1301269978,,,
5.1562500000,0,0.2653808892,,,
5.1718750000,0,0.4078369141,,,
5.1875000000,0,0.5682373047,,,
5.2031250000,0,0.7326660156,,,
5.2187500000,0,0.8526610732,,,
5.2343750000,0,0.8648682237,,,
5.2500000000,0,0.7305908203,,,
5.2656250000,0,0.4620361030,,,
5.2812500000,0,0.1007080004,,,
5.2968750000,0,-0.2795409858,,,
5.3125000000,0,-0.6215819716,,,
5.3281250000,0,-0.9104003906,,,
5.3437500000,0,-1.1721190214,,,
5.3593750000,0,-1.4416500330,,,
5.3750000000,0,-1.7238769531,,,
5.3906250000,0,-1.9709470272,,,
5.4062500000,0,-2.1136469841,,,
5.4218750000,0,-2.0985109806,,,
5.4375000000,0,-1.9539790154,,,
5.4531250000,0,-1.7707519531,,,
5.4687500000,0,-1.6546629667,,,
5.4843750000,0,-1.6395260096,,,
5.5000000000,0,-1.6658940315,,,
5.5156250000,0,-1.6079100370,,,
5.5312500000,0,-1.3330080509,,,
5.5468750000,0,-0.8212891221,,,
5.5625000000,0,-0.1351318061,,,
5.5781250000,0,0.5798339844,,,
5.5937500000,0,1.1818850040,,,
5.6093750000,0,1.5582280159,,,
5.6250000000,0,1.6737060547,,,
5.6406250000,0,1.5402829647,,,
5.6562500000,0,1.2059329748,,,
5.6718750000,0,0.7757567763,,,
5.6875000000,0,0.3690186143,,,
5.7031250000,0,0.1020508036,,,
5.7187500000,0,0.0280761700,,,
5.7343750000,0,0.1048583984,,,
5.7500000000,0,0.2342528999,,,
5.7656250000,0,0.3145751953,,,
5.7812500000,0,0.3140869141,,,
5.7968750000,0,0.2807616889,,,
5.8125000000,0,0.2895508111,,,
5.8281250000,0,0.3828125000,,,
5.8437500000,0,0.5256348252,,,
5.8593750000,0,0.6413574219,,,
5.8750000000,0,0.6706542969,,,
5.8906250000,0,0.6157227159,,,
5.9062500000,0,0.5323485732,,,
5.9218750000,0,0.5050048828,,,
5.9375000000,0,0.5598145127,,,
5.9531250000,0,0.6649169922,,,
5.9687500000,0,0.7313231826,,,
5.9843750000,0,0.6661376953,,,
6.0000000000,0,0.4158936143,,,
6.0156250000,0,0.0090332031,,,
6.0312500000,0,-0.4605712891,,,
6.0468750000,0,-0.8798828125,,,
6.0625000000,0,-1.1359859705,,,
6.0781250000,0,-1.1773680449,,,
6.0937500000,0,-0.9932860732,,,
6.1093750000,0,-0.6363524795,,,
6.1250000000,0,-0.2037353963,,,
6.1406250000,0,0.1967772990,,,
6.1562500000,0,0.4571532905,,,
6.1718750000,0,0.5111083984,,,
6.1875000000,0,0.3497313857,,,
6.2031250000,0,0.0244140606,,,
6.2187500000,0,-0.3699950874,,,
6.2343750000,0,-0.7305908203,,,
6.2500000000,0,-0.9804688096,,,
6.2656250000,0,-1.1043699980,,,
6.2812500000,0,-1.1456300020,,,
6.2968750000,0,-1.1737060547,,,
6.3125000000,0,-1.2401119471,,,
6.3281250000,0,-1.3382569551,,,
6.3437500000,0,-1.4013669491,,,
6.3593750000,0,-1.3566889763,,,
6.3750000000,0,-1.1767580509,,,
6.3906250000,0,-0.9000244141,,,
6.4062500000,0,-0.6240233779,,,
6.4218750000,0,-0.4466553032,,,
6.4375000000,0,-0.4002686143,,,
6.4531250000,0,-0.4372558892,,,
6.4687500000,0,-0.4692383111,,,
6.4843750000,0,-0.4206542969,,,
6.5000000000,0,-0.2967528999,,,
6.5156250000,0,-0.1606445014,,,
6.5312500000,0,-0.0999755934,,,
6.5468750000,0,-0.1647949070,,,
6.5625000000,0,-0.3173828125,,,
6.5781250000,0,-0.4683837891,,,
6.5937500000,0,-0.5362548828,,,
6.6093750000,0,-0.5007324219,,,
6.6250000000,0,-0.4310303032,,,
6.6406250000,0,-0.4355469048,,,
6.6562500000,0,-0.5904541016,,,
6.6718750000,0,-0.8928223252,,,
6.6875000000,0,-1.2365720272,,,
6.7031250000,0,-1.4998780489,,,
6.7187500000,0,-1.6048580408,,,
6.7343750000,0,-1.5483399630,,,
6.7500000000,0,-1.4105219841,,,
6.7656250000,0,-1.2989499569,,,
6.7812500000,0,-1.2840579748,,,
6.7968750000,0,-1.3874510527,,,
6.8125000000,0,-1.5577390194,,,
6.8281250000,0,-1.7211910486,,,
6.8437500000,0,-1.8045649529,,,
6.8593750000,0,-1.7645260096,,,
6.8750000000,0,-1.5861819983,,,
6.8906250000,0,-1.2833249569,,,
6.9062500000,0,-0.8975830078,,,
6.9218750000,0,-0.4832763970,,,
6.9375000000,0,-0.0847167969,,,
6.9531250000,0,0.3001708984,,,
6.9687500000,0,0.6861572266,,,
6.9843750000,0,1.0734859705,,,
7.0000000000,0,1.4105219841,,,
7.0156250000,0,1.5847170353,,,
7.0312500000,0,1.5073239803,,,
7.0468750000,0,1.1757810116,,,
7.0625000000,0,0.7202147841,,,
7.0781250000,0,0.3498534858,,,
7.0937500000,0,0.2238769978,,,
7.1093750000,0,0.3413085938,,,
7.1250000000,0,0.5404052734,,,
7.1406250000,0,0.6209716797,,,
7.1562500000,0,0.4631347954,,,
7.1718750000,0,0.1285399944,,,
7.1875000000,0,-0.1875000000,,,
7.2031250000,0,-0.2817383111,,,
7.2187500000,0,-0.1115723029,,,
7.2343750000,0,0.1997070014,,,
7.2500000000,0,0.4400635064,,,
7.2656250000,0,0.4376221001,,,
7.2812500000,0,0.2003173977,,,
7.2968750000,0,-0.1494141072,,,
7.3125000000,0,-0.4238280952,,,
7.3281250000,0,-0.5145264268,,,
7.3437500000,0,-0.4055176079,,,
7.3593750000,0,-0.1757812947,,,
7.3750000000,0,0.0889892578,,,
7.3906250000,0,0.3428955078,,,
7.4062500000,0,0.5787354112,,,
7.4218750000,0,0.8007813096,,,
7.4375000000,0,0.9707031250,,,
7.4531250000,0,1.0384520292,,,
7.4687500000,0,0.9390869141,,,
7.4843750000,0,0.6552733779,,,
7.5000000000,0,0.2615967095,,,
7.5156250000,0,-0.0980224609,,,
7.5312500000,0,-0.2606200874,,,
7.5468750000,0,-0.1352539063,,,
7.5625000000,0,0.2434082031,,,
7.5781250000,0,0.7154541016,,,
7.5937500000,0,1.0838619471,,,
7.6093750000,0,1.2026369572,,,
7.6250000000,0,1.0522459745,,,
7.6406250000,0,0.7541503906,,,
7.6562500000,0,0.4967041016,,,
7.6718750000,0,0.4475097954,,,
7.6875000000,0,0.6658936143,,,
7.7031250000,0,1.0877690315,,,
7.7187500000,0,1.5325930119,,,
7.7343750000,0,1.8212889433,,,
7.7500000000,0,1.8323969841,,,
7.7656250000,0,1.5428470373,,,
7.7812500000,0,1.0360109806,,,
7.7968750000,0,0.4396972954,,,
7.8125000000,0,-0.1118163988,,,
7.8281250000,0,-0.5332031250,,,
7.8437500000,0,-0.7835692763,,,
7.8593750000,0,-0.8883057237,,,
7.8750000000,0,-0.8869628906,,,
7.8906250000,0,-0.8342285156,,,
7.9062500000,0,-0.7581787109,,,
7.9218750000,0,-0.6477050781,,,
7.9375000000,0,-0.4754638970,,,
7.9531250000,0,-0.1900635064,,,
7.9687500000,0,0.2236327976,,,
7.9843750000,0,0.7410889268,,,
8.0000000000,1,1.2600100040,,,
8.0156250000,1,1.6275629997,,,
8.0312500000,1,1.7036130428,,,
8.0468750000,1,1.4235839844,,,
8.0625000000,1,0.8591309190,,,
8.0781250000,1,0.2309570014,,,
8.0937500000,1,-0.1945800930,,,
8.1093750000,1,-0.2132568061,,,
8.1250000000,1,0.2109375000,,,
8.1406250000,1,0.9337158203,,,
8.1562500000,1,1.7170410156,,,
8.1718750000,1,2.3286130428,,,
8.1875000000,1,2.6560060978,,,
8.2031250000,1,2.7069089413,,,
8.2187500000,1,2.5439450741,,,
8.2343750000,1,2.2211909294,,,
8.2500000000,1,1.7440190315,,,
8.2656250000,1,1.1264649630,,,
8.2812500000,1,0.4442138970,,,
8.2968750000,1,-0.1411132962,,,
8.3125000000,1,-0.4666748047,,,
8.3281250000,1,-0.4587402046,,,
8.3437500000,1,-0.1761475056,,,
8.3593750000,1,0.1982422024,,,
8.3750000000,1,0.4963378906,,,
8.3906250000,1,0.6335449219,,,
8.4062500000,1,0.6446533203,,,
8.4218750000,1,0.6165770888,,,
8.4375000000,1,0.5989990234,,,
8.4531250000,1,0.5728759766,,,
8.4687500000,1,0.4782715142,,,
8.4843750000,1,0.3026123047,,,
8.5000000000,1,0.1135253981,,,
8.5156250000,1,0.0230712909,,,
8.5312500000,1,0.0922851637,,,
8.5468750000,1,0.2766112983,,,
8.5625000000,1,0.4304198921,,,
8.5781250000,1,0.4176025093,,,
8.5937500000,1,0.2049560994,,,
8.6093750000,1,-0.1331786960,,,
8.6250000000,1,-0.4827880859,,,
8.6406250000,1,-0.7762451172,,,
8.6562500000,1,-1.0184329748,,,
8.6718750000,1,-1.2521970272,,,
8.6875000000,1,-1.4816889763,,,
8.7031250000,1,-1.6478270292,,,
8.7187500000,1,-1.6610109806,,,
8.7343750000,1,-1.4770510197,,,
8.7500000000,1,-1.1425780058,,,
8.7656250000,1,-0.7911376953,,,
8.7812500000,1,-0.5482177734,,,
8.7968750000,1,-0.4456787109,,,
8.8125000000,1,-0.4045409858,,,
8.8281250000,1,-0.2829590142,,,
8.8437500000,1,0.0236816406,,,
8.8593750000,1,0.5112305284,,,
8.8750000000,1,1.0628659725,,,
8.8906250000,1,1.5018310547,,,
8.9062500000,1,1.6633299589,,,
8.9218750000,1,1.4577640295,,,
8.9375000000,1,0.8835449219,,,
8.9531250000,1,0.0490722694,,,
8.9687500000,1,-0.8538817763,,,
8.9843750000,1,-1.6062010527,,,
9.0000000000,1,-2.0351560116,,,
9.0156250000,1,-2.0749509335,,,
9.0312500000,1,-1.7988280058,,,
9.0468750000,1,-1.3668210506,,,
9.0625000000,1,-0.9339600205,,,
9.0781250000,1,-0.5863037109,,,
9.0937500000,1,-0.3099364936,,,
9.1093750000,1,-0.0494384803,,,
9.1250000000,1,0.2138672024,,,
9.1406250000,1,0.4450683892,,,
9.1562500000,1,0.5700684190,,,
9.1718750000,1,0.5225830078,,,
9.1875000000,1,0.3095703125,,,
9.2031250000,1,-0.0056152339,,,
9.2187500000,1,-0.3386229873,,,
9.2343750000,1,-0.6146240234,,,
9.2500000000,1,-0.7792968750,,,
9.2656250000,1,-0.8071289063,,,
9.2812500000,1,-0.6921386719,,,
9.2968750000,1,-0.4471436143,,,
9.3125000000,1,-0.1407471001,,,
9.3281250000,1,0.1406250000,,,
9.3437500000,1,0.3238525093,,,
9.3593750000,1,0.3950195014,,,
9.3750000000,1,0.4252929986,,,
9.3906250000,1,0.5290526748,,,
9.4062500000,1,0.7832031250,,,
9.4218750000,1,1.1754150391,,,
9.4375000000,1,1.5842289925,,,
9.4531250000,1,1.8724370003,,,
9.4687500000,1,1.9538569450,,,
9.4843750000,1,1.8496090174,,,
9.5000000000,1,1.6383060217,,,
9.5156250000,1,1.4005130529,,,
9.5312500000,1,1.1701660156,,,
9.5468750000,1,0.9404296875,,,
9.5625000000,1,0.7208251953,,,
9.5781250000,1,0.5704345703,,,
9.5937500000,1,0.5886229873,,,
9.6093750000,1,0.8560791016,,,
9.6250000000,1,1.3304439783,,,
9.6406250000,1,1.8460689783,,,
9.6562500000,1,2.1525878906,,,
9.6718750000,1,2.0323491096,,,
9.6875000000,1,1.4217530489,,,
9.7031250000,1,0.4697265923,,,
9.7187500000,1,-0.5400391221,,,
9.7343750000,1,-1.3009029627,,,
9.7500000000,1,-1.6342769861,,,
9.7656250000,1,-1.5555419922,,,
9.7812500000,1,-1.2480469942,,,
9.7968750000,1,-0.9276123047,,,
9.8125000000,1,-0.7365723252,,,
9.8281250000,1,-0.6774901748,,,
9.8437500000,1,-0.6564940810,,,
9.8593750000,1,-0.5759276748,,,
9.8750000000,1,-0.3996582031,,,
9.8906250000,1,-0.1807861030,,,
9.9062500000,1,-0.0089111328,,,
9.9218750000,1,0.0496826209,,,
9.9375000000,1,-0.0212402306,,,
9.9531250000,1,-0.1804199070,,,
9.9687500000,1,-0.3846436143,,,
9.9843750000,1,-0.5996093750,,,
10.0000000000,1,-0.8311768174,,,
10.0156250000,1,-1.1093750000,,,
10.0312500000,1,-1.4631350040,,,
10.0468750000,1,-1.8984379768,,,
10.0625000000,1,-2.3803710938,,,
10.0781250000,1,-2.8221440315,,,
10.0937500000,1,-3.1126708984,,,
10.1093750000,1,-3.1505129337,,,
10.1250000000,1,-2.9038090706,,,
10.1406250000,1,-2.4183349609,,,
10.1562500000,1,-1.8234859705,,,
10.1718750000,1,-1.2741700411,,,
10.1875000000,1,-0.8803710938,,,
10.2031250000,1,-0.6503906250,,,
10.2187500000,1,-0.5117188096,,,
10.2343750000,1,-0.3660888970,,,
10.2500000000,1,-0.1553954929,,,
10.2656250000,1,0.0942382813,,,
10.2812500000,1,0.3050537109,,,
10.2968750000,1,0.3929443061,,,
10.3125000000,1,0.3073729873,,,
10.3281250000,1,0.0671386719,,,
10.3437500000,1,-0.2575683892,,,
10.3593750000,1,-0.5681151748,,,
10.3750000000,1,-0.7559813857,,,
10.3906250000,1,-0.7551270127,,,
10.4062500000,1,-0.5428466797,,,
10.4218750000,1,-0.1643065959,,,
10.4375000000,1,0.2990722954,,,
10.4531250000,1,0.7513427734,,,
10.4687500000,1,1.1403809786,,,
10.4843750000,1,1.4436039925,,,
10.5000000000,1,1.6696779728,,,
10.5156250000,1,1.8269040585,,,
10.5312500000,1,1.9121090174,,,
10.5468750000,1,1.9035639763,,,
10.5625000000,1,1.7794189453,,,
10.5781250000,1,1.5256350040,,,
10.5937500000,1,1.1649169922,,,
10.6093750000,1,0.7597656250,,,
10.6250000000,1,0.3903808892,,,
10.6406250000,1,0.1450195014,,,
10.6562500000,1,0.0861816406,,,
10.6718750000,1,0.2200928032,,,
10.6875000000,1,0.4880371094,,,
10.7031250000,1,0.7915039063,,,
10.7187500000,1,1.0322270393,,,
10.7343750000,1,1.1281739473,,,
10.7500000000,1,1.0563960075,,,
10.7656250000,1,0.8157958984,,,
10.7812500000,1,0.4298096001,,,
10.7968750000,1,-0.0715332031,,,
10.8125000000,1,-0.6380615234,,,
10.8281250000,1,-1.1906739473,,,
10.8437500000,1,-1.6397709846,,,
10.8593750000,1,-1.9125980139,,,
10.8750000000,1,-1.9951169491,,,
10.8906250000,1,-1.9132080078,,,
10.9062500000,1,-1.7144780159,,,
10.9218750000,1,-1.4343260527,,,
10.9375000000,1,-1.0541989803,,,
10.9531250000,1,-0.5649414063,,,
10.9687500000,1,0.0126953097,,,
10.9843750000,1,0.5783690810,,,
11.0000000000,1,0.9896240234,,,
11.0156250000,1,1.1268310547,,,
11.0312500000,1,0.9847412109,,,
11.0468750000,1,0.6763916016,,,
11.0625000000,1,0.3906250000,,,
11.0781250000,1,0.2773438096,,,
11.0937500000,1,0.3651123047,,,
11.1093750000,1,0.5489501953,,,
11.1250000000,1,0.6700438857,,,
11.1406250000,1,0.6190186143,,,
11.1562500000,1,0.4169921875,,,
11.1718750000,1,0.2170410007,,,
11.1875000000,1,0.2001952976,,,
11.2031250000,1,0.4342041016,,,
11.2187500000,1,0.8371582031,,,
11.2343750000,1,1.2080080509,,,
11.2500000000,1,1.3417969942,,,
11.2656250000,1,1.1718750000,,,
11.2812500000,1,0.8100585938,,,
11.2968750000,1,0.4628905952,,,
11.3125000000,1,0.2952880859,,,
11.3281250000,1,0.3322753906,,,
11.3437500000,1,0.4404296875,,,
11.3593750000,1,0.4451903999,,,
11.3750000000,1,0.2292480022,,,
11.3906250000,1,-0.1787108928,,,
11.4062500000,1,-0.6318358779,,,
11.4218750000,1,-0.9918212891,,,
11.4375000000,1,-1.2209470272,,,
11.4531250000,1,-1.3986819983,,,
11.4687500000,1,-1.6453859806,,,
11.4843750000,1,-2.0286870003,,,
11.5000000000,1,-2.4707028866,,,
11.5156250000,1,-2.8059079647,,,
11.5312500000,1,-2.8559570313,,,
11.5468750000,1,-2.5305180550,,,
11.5625000000,1,-1.8930660486,,,
11.5781250000,1,-1.1090090275,,,
11.5937500000,1,-0.3616943061,,,
11.6093750000,1,0.2089844048,,,
11.6250000000,1,0.5372313857,,,
11.6406250000,1,0.6210938096,,,
11.6562500000,1,0.4985351861,,,
11.6718750000,1,0.2167969048,,,
11.6875000000,1,-0.1365966946,,,
11.7031250000,1,-0.4704590142,,,
11.7187500000,1,-0.6986083984,,,
11.7343750000,1,-0.7609863281,,,
11.7500000000,1,-0.6785889268,,,
11.7656250000,1,-0.5175781250,,,
11.7812500000,1,-0.3765869141,,,
11.7968750000,1,-0.3281250000,,,
11.8125000000,1,-0.3896484077,,,
11.8281250000,1,-0.5269774795,,,
11.8437500000,1,-0.6948242188,,,
11.8593750000,1,-0.8690186143,,,
11.8750000000,1,-1.0570069551,,,
11.8906250000,1,-1.2977290154,,,
11.9062500000,1,-1.5859379768,,,
11.9218750000,1,-1.8648680449,,,
11.9375000000,1,-2.0427250862,,,
11.9531250000,1,-2.0209960938,,,
11.9687500000,1,-1.7551269531,,,
11.9843750000,1,-1.3105469942,,,
12.0000000000,1,-0.8292235732,,,
12.0156250000,1,-0.4572753906,,,
12.0312500000,1,-0.2868652046,,,
12.0468750000,1,-0.2785645127,,,
12.0625000000,1,-0.3195801079,,,
12.0781250000,1,-0.2603760064,,,
12.0937500000,1,-0.0328369103,,,
12.1093750000,1,0.3118895888,,,
12.1250000000,1,0.6418457031,,,
12.1406250000,1,0.8065186143,,,
12.1562500000,1,0.7446289063,,,
12.1718750000,1,0.4642333984,,,
12.1875000000,1,0.0472412109,,,
12.2031250000,1,-0.4180907905,,,
12.2187500000,1,-0.8825684190,,,
12.2343750000,1,-1.3352049589,,,
12.2500000000,1,-1.7845460176,,,
12.2656250000,1,-2.1986079216,,,
12.2812500000,1,-2.5271000862,,,
12.2968750000,1,-2.7019040585,,,
12.3125000000,1,-2.6787109375,,,
12.3281250000,1,-2.4442141056,,,
12.3437500000,1,-2.0410161018,,,
12.3593750000,1,-1.5668950081,,,
12.3750000000,1,-1.1257319450,,,
12.3906250000,1,-0.8209229112,,,
12.4062500000,1,-0.6959229112,,,
12.4218750000,1,-0.7310791016,,,
12.4375000000,1,-0.8455811143,,,
12.4531250000,1,-0.9069824219,,,
12.4687500000,1,-0.7894287109,,,
12.4843750000,1,-0.4299316108,,,
12.5000000000,1,0.1124268025,,,
12.5156250000,1,0.7064208984,,,
12.5312500000,1,1.1789549589,,,
12.5468750000,1,1.4224849939,,,
12.5625000000,1,1.4294430017,,,
12.5781250000,1,1.3183590174,,,
12.5937500000,1,1.2360839844,,,
12.6093750000,1,1.2768549919,,,
12.6250000000,1,1.4260250330,,,
12.6406250000,1,1.5659179688,,,
12.6562500000,1,1.5714110136,,,
12.6718750000,1,1.3676760197,,,
12.6875000000,1,0.9945067763,,,
12.7031250000,1,0.5744628906,,,
12.7187500000,1,0.2269286960,,,
12.7343750000,1,-0.0024414060,,,
12.7500000000,1,-0.1733397990,,,
12.7656250000,1,-0.3701171875,,,
12.7812500000,1,-0.6297606826,,,
12.7968750000,1,-0.8907470703,,,
12.8125000000,1,-1.0322270393,,,
12.8281250000,1,-0.9405518174,,,
12.8437500000,1,-0.6074218750,,,
12.8593750000,1,-0.1281737983,,,
12.8750000000,1,0.3571777046,,,
12.8906250000,1,0.7413330078,,,
12.9062500000,1,1.0080569983,,,
12.9218750000,1,1.2097170353,,,
12.9375000000,1,1.4031980038,,,
12.9531250000,1,1.6073000431,,,
12.9687500000,1,1.7972409725,,,
12.9843750000,1,1.9271240234,,,
13.0000000000,1,1.9663089514,,,
13.0156250000,1,1.9206540585,,,
13.0312500000,1,1.8247070313,,,
13.0468750000,1,1.7131350040,,,
13.0625000000,1,1.6175539494,,,
13.0781250000,1,1.5621340275,,,
13.0937500000,1,1.5578609705,,,
13.1093750000,1,1.5882569551,,,
13.1250000000,1,1.5834959745,,,
13.1406250000,1,1.4703370333,,,
13.1562500000,1,1.2171629667,,,
13.1718750000,1,0.8630371094,,,
13.1875000000,1,0.5264893174,,,
13.2031250000,1,0.3371582031,,,
13.2187500000,1,0.3574219048,,,
13.2343750000,1,0.5512694716,,,
13.2500000000,1,0.7930908203,,,
13.2656250000,1,0.9577636719,,,
13.2812500000,1,0.9826660156,,,
13.2968750000,1,0.9011229873,,,
13.3125000000,1,0.7893065810,,,
13.3281250000,1,0.7188720703,,,
13.3437500000,1,0.6988524795,,,
13.3593750000,1,0.6864014268,,,
13.3750000000,1,0.6313477159,,,
13.3906250000,1,0.5189208984,,,
13.4062500000,1,0.3793945014,,,
13.4218750000,1,0.2606200874,,,
13.4375000000,1,0.2047118992,,,
13.4531250000,1,0.2286376953,,,
13.4687500000,1,0.3320313096,,,
13.4843750000,1,0.5058593750,,,
13.5000000000,1,0.7255858779,,,
13.5156250000,1,0.9395751953,,,
13.5312500000,1,1.0837399960,,,
13.5468750000,1,1.1192630529,,,
13.5625000000,1,1.0683590174,,,
13.5781250000,1,1.0062259436,,,
13.5937500000,1,1.0383299589,,,
13.6093750000,1,1.2329100370,,,
13.6250000000,1,1.5736080408,,,
13.6406250000,1,1.9418950081,,,
13.6562500000,1,2.1791989803,,,
13.6718750000,1,2.1605219841,,,
13.6875000000,1,1.8569339514,,,
13.7031250000,1,1.3439940214,,,
13.7187500000,1,0.7656250000,,,
13.7343750000,1,0.2617188096,,,
13.7500000000,1,-0.0854492188,,,
13.7656250000,1,-0.2532958984,,,
13.7812500000,1,-0.2764892876,,,
13.7968750000,1,-0.2264403999,,,
13.8125000000,1,-0.1870117038,,,
13.8281250000,1,-0.2211914063,,,
13.8437500000,1,-0.3765869141,,,
13.8593750000,1,-0.6557617188,,,
13.8750000000,1,-1.0239260197,,,
13.8906250000,1,-1.4266359806,,,
13.9062500000,1,-1.8004150391,,,
13.9218750000,1,-2.0783689022,,,
13.9375000000,1,-2.2069089413,,,
13.9531250000,1,-2.1523439884,,,
13.9687500000,1,-1.9467769861,,,
13.9843750000,1,-1.6663819551,,,
14.0000000000,1,-1.4321290255,,,
14.0156250000,1,-1.3360600471,,,
14.0312500000,1,-1.3984379768,,,
14.0468750000,1,-1.5561519861,,,
14.0625000000,1,-1.7028809786,,,
14.0781250000,1,-1.7618410587,,,
14.0937500000,1,-1.7275389433,,,
14.1093750000,1,-1.6943360567,,,
14.1250000000,1,-1.7711180449,,,
14.1406250000,1,-1.9957280159,,,
14.1562500000,1,-2.3037109375,,,
14.1718750000,1,-2.5299069881,,,
14.1875000000,1,-2.4984130859,,,
14.2031250000,1,-2.1240229607,,,
14.2187500000,1,-1.4464110136,,,
14.2343750000,1,-0.6324462891,,,
14.2500000000,1,0.0904541016,,,
14.2656250000,1,0.5554199219,,,
14.2812500000,1,0.7237548828,,,
14.2968750000,1,0.7017822266,,,
14.3125000000,1,0.6700438857,,,
14.3281250000,1,0.8038330078,,,
14.3437500000,1,1.1690670252,,,
14.3593750000,1,1.7012939453,,,
14.3750000000,1,2.2703859806,,,
14.3906250000,1,2.7128911018,,,
14.4062500000,1,2.9243159294,,,
14.4218750000,1,2.8757319450,,,
14.4375000000,1,2.5803220272,,,
14.4531250000,1,2.0649409294,,,
14.4687500000,1,1.3763430119,,,
14.4843750000,1,0.5906981826,,,
14.5000000000,1,-0.1774902046,,,
14.5156250000,1,-0.7692871094,,,
14.5312500000,1,-1.0589599609,,,
14.5468750000,1,-0.9718018174,,,
14.5625000000,1,-0.5520020127,,,
14.5781250000,1,0.0665283203,,,
14.5937500000,1,0.7213134766,,,
14.6093750000,1,1.2714840174,,,
14.6250000000,1,1.6339110136,,,
14.6406250000,1,1.7890629768,,,
14.6562500000,1,1.7579350471,,,
14.6718750000,1,1.5831300020,,,
14.6875000000,1,1.3292239904,,,
14.7031250000,1,1.0589599609,,,
14.7187500000,1,0.8314208984,,,
14.7343750000,1,0.6788330078,,,
14.7500000000,1,0.5909423828,,,
14.7656250000,1,0.5156250000,,,
14.7812500000,1,0.3945313096,,,
14.7968750000,1,0.1927489936,,,
14.8125000000,1,-0.0863037109,,,
14.8281250000,1,-0.3958739936,,,
14.8437500000,1,-0.6771240234,,,
14.8593750000,1,-0.8947753906,,,
14.8750000000,1,-1.0417480469,,,
14.8906250000,1,-1.1419680119,,,
14.9062500000,1,-1.2160639763,,,
14.9218750000,1,-1.2729489803,,,
14.9375000000,1,-1.2861330509,,,
14.9531250000,1,-1.2371829748,,,
14.9687500000,1,-1.1103520393,,,
14.9843750000,1,-0.9091796875,,,
15.0000000000,1,-0.6530761719,,,
15.0156250000,1,-0.3498534858,,,
15.0312500000,1,-0.0295410194,,,
15.0468750000,1,0.2678222954,,,
15.0625000000,1,0.4746094048,,,
15.0781250000,1,0.5117188096,,,
15.0937500000,1,0.3366698921,,,
15.1093750000,1,-0.0286865197,,,
15.1250000000,1,-0.4912109077,,,
15.1406250000,1,-0.9378662109,,,
15.1562500000,1,-1.2714840174,,,
15.1718750000,1,-1.4567869902,,,
15.1875000000,1,-1.4885250330,,,
15.2031250000,1,-1.3741459846,,,
15.2187500000,1,-1.1015629768,,,
15.2343750000,1,-0.6669921875,,,
15.2500000000,1,-0.0930175781,,,
15.2656250000,1,0.5223389268,,,
15.2812500000,1,1.0294189453,,,
15.2968750000,1,1.2910159826,,,
15.3125000000,1,1.2434079647,,,
15.3281250000,1,0.9370117188,,,
15.3437500000,1,0.5092772841,,,
15.3593750000,1,0.1087645963,,,
15.3750000000,1,-0.1903076023,,,
15.3906250000,1,-0.4029541016,,,
15.4062500000,1,-0.5887451172,,,
15.4218750000,1,-0.7952880859,,,
15.4375000000,1,-1.0278320313,,,
15.4531250000,1,-1.2275389433,,,
15.4687500000,1,-1.3460689783,,,
15.4843750000,1,-1.3588869572,,,
15.5000000000,1,-1.2940670252,,,
15.5156250000,1,-1.2049560547,,,
15.5312500000,1,-1.1213380098,,,
15.5468750000,1,-1.0303959846,,,
15.5625000000,1,-0.8632813096,,,
15.5781250000,1,-0.5599365234,,,
15.5937500000,1,-0.0877685472,,,
15.6093750000,1,0.5021973252,,,
15.6250000000,1,1.1066889763,,,
15.6406250000,1,1.6052249670,,,
15.6562500000,1,1.9158940315,,,
15.6718750000,1,2.0206298828,,,
15.6875000000,1,1.9501949549,,,
15.7031250000,1,1.7583010197,,,
15.7187500000,1,1.4827879667,,,
15.7343750000,1,1.1392819881,,,
15.7500000000,1,0.7244873047,,,
15.7656250000,1,0.2491454929,,,
15.7812500000,1,-0.2490233928,,,
15.7968750000,1,-0.7102050781,,,
15.8125000000,1,-1.0578609705,,,
15.8281250000,1,-1.2335209846,,,
15.8437500000,1,-1.2144780159,,,
15.8593750000,1,-1.0371090174,,,
15.8750000000,1,-0.7867432237,,,
15.8906250000,1,-0.5953369141,,,
15.9062500000,1,-0.5456542969,,,
15.9218750000,1,-0.6424561143,,,
15.9375000000,1,-0.8145751953,,,
15.9531250000,1,-0.9127197266,,,
15.9687500000,1,-0.8154296875,,,
15.9843750000,1,-0.4907226861,,,
16.0000000000,2,-0.0203857403,,,
16.0156250000,2,0.4522705078,,,
16.0312500000,2,0.7930908203,,,
16.0468750000,2,0.9490966797,,,
16.0625000000,2,0.9636229873,,,
16.0781250000,2,0.9066162109,,,
16.0937500000,2,0.8555908203,,,
16.1093750000,2,0.8349608779,,,
16.1250000000,2,0.8302001953,,,
16.1406250000,2,0.8145751953,,,
16.1562500000,2,0.7628173828,,,
16.1718750000,2,0.6519774795,,,
16.1875000000,2,0.4516601861,,,
16.2031250000,2,0.1439208984,,,
16.2187500000,2,-0.2655028999,,,
16.2343750000,2,-0.7131348252,,,
16.2500000000,2,-1.1129150391,,,
16.2656250000,2,-1.3962399960,,,
16.2812500000,2,-1.5509029627,,,
16.2968750000,2,-1.6318360567,,,
16.3125000000,2,-1.7221679688,,,
16.3281250000,2,-1.8531490564,,,
16.3437500000,2,-1.9703370333,,,
16.3593750000,2,-1.9732669592,,,
16.3750000000,2,-1.7509770393,,,
16.3906250000,2,-1.3038330078,,,
16.4062500000,2,-0.7274169922,,,
16.4218750000,2,-0.1704102010,,,
16.4375000000,2,0.2385254055,,,
16.4531250000,2,0.4549561143,,,
16.4687500000,2,0.5241699219,,,
16.4843750000,2,0.5122069716,,,
16.5000000000,2,0.4414063096,,,
16.5156250000,2,0.2873534858,,,
16.5312500000,2,0.0202636700,,,
16.5468750000,2,-0.3199462891,,,
16.5625000000,2,-0.5986328125,,,
16.5781250000,2,-0.6455078125,,,
16.5937500000,2,-0.3422851861,,,
16.6093750000,2,0.2988280952,,,
16.6250000000,2,1.1402590275,,,
16.6406250000,2,1.9799799919,,,
16.6562500000,2,2.6403810978,,,
16.6718750000,2,3.0102539063,,,
16.6875000000,2,3.0335690975,,,
16.7031250000,2,2.6995849609,,,
16.7187500000,2,2.0324709415,,,
16.7343750000,2,1.1325680017,,,
16.7500000000,2,0.1878661960,,,
16.7656250000,2,-0.5715332031,,,
16.7812500000,2,-0.9753417969,,,
16.7968750000,2,-1.0001219511,,,
16.8125000000,2,-0.8164063096,,,
16.8281250000,2,-0.6813964844,,,
16.8437500000,2,-0.7961425781,,,
16.8593750000,2,-1.2047120333,,,
16.8750000000,2,-1.7646479607,,,
16.8906250000,2,-2.2630620003,,,
16.9062500000,2,-2.5509030819,,,
16.9218750000,2,-2.6291499138,,,
16.9375000000,2,-2.6214599609,,,
16.9531250000,2,-2.6734619141,,,
16.9687500000,2,-2.8408200741,,,
16.9843750000,2,-3.0532228947,,,
17.0000000000,2,-3.1563720703,,,
17.0156250000,2,-3.0063478947,,,
17.0312500000,2,-2.5323491096,,,
17.0468750000,2,-1.7858890295,,,
17.0625000000,2,-0.8939208984,,,
17.0781250000,2,-0.0307617206,,,
17.0937500000,2,0.6575927734,,,
17.1093750000,2,1.0740970373,,,
17.1250000000,2,1.1882319450,,,
17.1406250000,2,1.0621340275,,,
17.1562500000,2,0.8238524795,,,
17.1718750000,2,0.6350098252,,,
17.1875000000,2,0.6282958984,,,
17.2031250000,2,0.8520507813,,,
17.2187500000,2,1.2243649960,,,
17.2343750000,2,1.5544430017,,,
17.2500000000,2,1.6256099939,,,
17.2656250000,2,1.2890629768,,,
17.2812500000,2,0.5421143174,,,
17.2968750000,2,-0.4680176079,,,
17.3125000000,2,-1.5144040585,,,
17.3281250000,2,-2.3950200081,,,
17.3437500000,2,-3.0019528866,,,
17.3593750000,2,-3.3492429256,,,
17.3750000000,2,-3.5075678825,,,
17.3906250000,2,-3.5343019962,,,
17.4062500000,2,-3.4343259335,,,
17.4218750000,2,-3.1751708984,,,
17.4375000000,2,-2.7161870003,,,
17.4531250000,2,-2.0572509766,,,
17.4687500000,2,-1.2802729607,,,
17.4843750000,2,-0.5080565810,,,
17.5000000000,2,0.1198730022,,,
17.5156250000,2,0.4940186143,,,
17.5312500000,2,0.5968018174,,,
17.5468750000,2,0.4926758111,,,
17.5625000000,2,0.3178710938,,,
17.5781250000,2,0.2077637017,,,
17.5937500000,2,0.2581787109,,,
17.6093750000,2,0.4786376953,,,
17.6250000000,2,0.7879639268,,,
17.6406250000,2,1.1002199650,,,
17.6562500000,2,1.3504639864,,,
17.6718750000,2,1.5478520393,,,
17.6875000000,2,1.7445069551,,,
17.7031250000,2,1.9866939783,,,
17.7187500000,2,2.2536621094,,,
17.7343750000,2,2.4438478947,,,
17.7500000000,2,2.4279789925,,,
17.7656250000,2,2.1256101131,,,
17.7812500000,2,1.5598139763,,,
17.7968750000,2,0.8432617188,,,
17.8125000000,2,0.1307373047,,,
17.8281250000,2,-0.4575195014,,,
17.8437500000,2,-0.8645020127,,,
17.8593750000,2,-1.0941159725,,,
17.8750000000,2,-1.1651610136,,,
17.8906250000,2,-1.0869139433,,,
17.9062500000,2,-0.8375244141,,,
17.9218750000,2,-0.4132080078,,,
17.9375000000,2,0.1596679986,,,
17.9531250000,2,0.8098145127,,,
17.9687500000,2,1.4309079647,,,
17.9843750000,2,1.9265140295,,,
18.0000000000,2,2.2446289063,,,
18.0156250000,2,2.3955080509,,,
18.0312500000,2,2.4321289063,,,
18.0468750000,2,2.4161379337,,,
18.0625000000,2,2.3806149960,,,
18.0781250000,2,2.3099370003,,,
18.0937500000,2,2.1499021053,,,
18.1093750000,2,1.8284909725,,,
18.1250000000,2,1.2968750000,,,
18.1406250000,2,0.5705565810,,,
18.1562500000,2,-0.2725830078,,,
18.1718750000,2,-1.0982669592,,,
18.1875000000,2,-1.7492680550,,,
18.2031250000,2,-2.1077880859,,,
18.2187500000,2,-2.1173100471,,,
18.2343750000,2,-1.7924799919,,,
18.2500000000,2,-1.2392580509,,,
18.2656250000,2,-0.5664063096,,,
18.2812500000,2,0.0961914137,,,
18.2968750000,2,0.6502686143,,,
18.3125000000,2,1.0463869572,,,
18.3281250000,2,1.2796629667,,,
18.3437500000,2,1.3819580078,,,
18.3593750000,2,1.4041750431,,,
18.3750000000,2,1.3970949650,,,
18.3906250000,2,1.3853759766,,,
18.4062500000,2,1.3804930449,,,
18.4218750000,2,1.3741459846,,,
18.4375000000,2,1.3746340275,,,
18.4531250000,2,1.3803709745,,,
18.4687500000,2,1.4068599939,,,
18.4843750000,2,1.4365229607,,,
18.5000000000,2,1.4572750330,,,
18.5156250000,2,1.4584959745,,,
18.5312500000,2,1.4652099609,,,
18.5468750000,2,1.5257569551,,,
18.5625000000,2,1.6848139763,,,
18.5781250000,2,1.9338380098,,,
18.5937500000,2,2.1889650822,,,
18.6093750000,2,2.2906489372,,,
18.6250000000,2,2.0938720703,,,
18.6406250000,2,1.5509029627,,,
18.6562500000,2,0.7613524795,,,
18.6718750000,2,-0.0695800781,,,
18.6875000000,2,-0.7183837891,,,
18.7031250000,2,-1.0682369471,,,
18.7187500000,2,-1.1406250000,,,
18.7343750000,2,-1.0471190214,,,
18.7500000000,2,-0.9376220703,,,
18.7656250000,2,-0.8958740234,,,
18.7812500000,2,-0.9268798828,,,
18.7968750000,2,-0.9903563857,,,
18.8125000000,2,-1.0507810116,,,
18.8281250000,2,-1.0745849609,,,
18.8437500000,2,-1.0605469942,,,
18.8593750000,2,-1.0069580078,,,
18.8750000000,2,-0.9252930284,,,
18.8906250000,2,-0.8109130859,,,
18.9062500000,2,-0.6622313857,,,
18.9218750000,2,-0.4832763970,,,
18.9375000000,2,-0.2651366889,,,
18.9531250000,2,-0.0196533203,,,
18.9687500000,2,0.2385254055,,,
18.9843750000,2,0.4666748047,,,
19.0000000000,2,0.6210938096,,,
19.0156250000,2,0.6643065810,,,
19.0312500000,2,0.5968018174,,,
19.0468750000,2,0.4405517876,,,
19.0625000000,2,0.2396239936,,,
19.0781250000,2,0.0218505897,,,
19.0937500000,2,-0.2026367038,,,
19.1093750000,2,-0.4468994141,,,
19.1250000000,2,-0.7108154297,,,
19.1406250000,2,-0.9880371094,,,
19.1562500000,2,-1.2569580078,,,
19.1718750000,2,-1.5117189884,,,
19.1875000000,2,-1.7570799589,,,
19.2031250000,2,-2.0003659725,,,
19.2187500000,2,-2.1979980469,,,
19.2343750000,2,-2.2445070744,,,
19.2500000000,2,-2.0137939453,,,
19.2656250000,2,-1.4501949549,,,
19.2812500000,2,-0.6037598252,,,
19.2968750000,2,0.3532715142,,,
19.3125000000,2,1.1828609705,,,
19.3281250000,2,1.7121579647,,,
19.3437500000,2,1.8784179688,,,
19.3593750000,2,1.7651369572,,,
19.3750000000,2,1.5297850370,,,
19.3906250000,2,1.3072509766,,,
19.4062500000,2,1.1540529728,,,
19.4218750000,2,1.0538330078,,,
19.4375000000,2,0.9588623047,,,
19.4531250000,2,0.8483886719,,,
19.4687500000,2,0.7270507813,,,
19.4843750000,2,0.6164550781,,,
19.5000000000,2,0.5106201172,,,
19.5156250000,2,0.3657226861,,,
19.5312500000,2,0.1384277046,,,
19.5468750000,2,-0.1877440959,,,
19.5625000000,2,-0.5683593750,,,
19.5781250000,2,-0.9293212891,,,
19.5937500000,2,-1.1790770292,,,
19.6093750000,2,-1.2635500431,,,
19.6250000000,2,-1.1596679688,,,
19.6406250000,2,-0.9024658203,,,
19.6562500000,2,-0.5396729112,,,
19.6718750000,2,-0.1416016072,,,
19.6875000000,2,0.2261963040,,,
19.7031250000,2,0.4765625000,,,
19.7187500000,2,0.5449218750,,,
19.7343750000,2,0.3952637017,,,
19.7500000000,2,0.0495605506,,,
19.7656250000,2,-0.4075928032,,,
19.7812500000,2,-0.8551024795,,,
19.7968750000,2,-1.1816409826,,,
19.8125000000,2,-1.3184809685,,,
19.8281250000,2,-1.2624510527,,,
19.8437500000,2,-1.0748289824,,,
19.8593750000,2,-0.8627930284,,,
19.8750000000,2,-0.7182617188,,,
19.8906250000,2,-0.6793212891,,,
19.9062500000,2,-0.7313231826,,,
19.9218750000,2,-0.7905272841,,,
19.9375000000,2,-0.7712401748,,,
19.9531250000,2,-0.6125488281,,,
19.9687500000,2,-0.3114013970,,,
19.9843750000,2,0.0811767578,,,
20.0000000000,2,0.4708251953,,,
20.0156250000,2,0.7500000000,,,
20.0312500000,2,0.8311768174,,,
20.0468750000,2,0.6966552734,,,
20.0625000000,2,0.4121094048,,,
20.0781250000,2,0.1018066034,,,
20.0937500000,2,-0.0708007813,,,
20.1093750000,2,0.0041503911,,,
20.1250000000,2,0.3378905952,,,
20.1406250000,2,0.7938231826,,,
20.1562500000,2,1.1612550020,,,
20.1718750000,2,1.2371829748,,,
20.1875000000,2,0.9521483779,,,
20.2031250000,2,0.4011229873,,,
20.2187500000,2,-0.1936035007,,,
20.2343750000,2,-0.6104735732,,,
20.2500000000,2,-0.7518311143,,,
20.2656250000,2,-0.6696776748,,,
20.2812500000,2,-0.5361328125,,,
20.2968750000,2,-0.5408936143,,,
20.3125000000,2,-0.7528076172,,,
20.3281250000,2,-1.1156009436,,,
20.3437500000,2,-1.4571529627,,,
20.3593750000,2,-1.5930180550,,,
20.3750000000,2,-1.4205319881,,,
20.3906250000,2,-0.9650878906,,,
20.4062500000,2,-0.3815917969,,,
20.4218750000,2,0.1201172024,,,
20.4375000000,2,0.3834229112,,,
20.4531250000,2,0.3341063857,,,
20.4687500000,2,0.0284423791,,,
20.4843750000,2,-0.3859862983,,,
20.5000000000,2,-0.7408447266,,,
20.5156250000,2,-0.9172363281,,,
20.5312500000,2,-0.9067382813,,,
20.5468750000,2,-0.7795410156,,,
20.5625000000,2,-0.6469727159,,,
20.5781250000,2,-0.5965576172,,,
20.5937500000,2,-0.6591796875,,,
20.6093750000,2,-0.7919921875,,,
20.6250000000,2,-0.9073485732,,,
20.6406250000,2,-0.9249268174,,,
20.6562500000,2,-0.7919921875,,,
20.6718750000,2,-0.4968262017,,,
20.6875000000,2,-0.0539550819,,,
20.7031250000,2,0.4830321968,,,
20.7187500000,2,1.0587160587,,,
20.7343750000,2,1.5705569983,,,
20.7500000000,2,1.9133299589,,,
20.7656250000,2,1.9985350370,,,
20.7812500000,2,1.8111569881,,,
20.7968750000,2,1.4221190214,,,
20.8125000000,2,0.9627686143,,,
20.8281250000,2,0.5740966797,,,
20.8437500000,2,0.3430176079,,,
20.8593750000,2,0.2789306939,,,
20.8750000000,2,0.3358153999,,,
20.8906250000,2,0.4625244141,,,
20.9062500000,2,0.6413574219,,,
20.9218750000,2,0.8616942763,,,
20.9375000000,2,1.0935059786,,,
20.9531250000,2,1.2780760527,,,
20.9687500000,2,1.3437500000,,,
20.9843750000,2,1.2365720272,,,
21.0000000000,2,0.9639893174,,,
21.0156250000,2,0.5782470703,,,
21.0312500000,2,0.1466064006,,,
21.0468750000,2,-0.2717284858,,,
21.0625000000,2,-0.6431884766,,,
21.0781250000,2,-0.9190673828,,,
21.0937500000,2,-1.0573730469,,,
21.1093750000,2,-1.0174560547,,,
21.1250000000,2,-0.8090819716,,,
21.1406250000,2,-0.5126953125,,,
21.1562500000,2,-0.2474364936,,,
21.1718750000,2,-0.1229247972,,,
21.1875000000,2,-0.1776123047,,,
21.2031250000,2,-0.3829346001,,,
21.2187500000,2,-0.6342772841,,,
21.2343750000,2,-0.8447266221,,,
21.2500000000,2,-0.9539794922,,,
21.2656250000,2,-0.9677733779,,,
21.2812500000,2,-0.9362792969,,,
21.2968750000,2,-0.9024658203,,,
21.3125000000,2,-0.8972167969,,,
21.3281250000,2,-0.9075927734,,,
21.3437500000,2,-0.8897705078,,,
21.3593750000,2,-0.8164063096,,,
21.3750000000,2,-0.7164307237,,,
21.3906250000,2,-0.6811522841,,,
21.4062500000,2,-0.8082274795,,,
21.4218750000,2,-1.1228029728,,,
21.4375000000,2,-1.5267330408,,,
21.4531250000,2,-1.8089599609,,,
21.4687500000,2,-1.7481689453,,,
21.4843750000,2,-1.2506099939,,,
21.5000000000,2,-0.4201659858,,,
21.5156250000,2,0.4816895127,,,
21.5312500000,2,1.1556400061,,,
21.5468750000,2,1.4215090275,,,
21.5625000000,2,1.2760009766,,,
21.5781250000,2,0.8875731826,,,
21.5937500000,2,0.4447020888,,,
21.6093750000,2,0.0983886719,,,
21.6250000000,2,-0.0987548828,,,
21.6406250000,2,-0.1606445014,,,
21.6562500000,2,-0.1076660007,,,
21.6718750000,2,0.0531005897,,,
21.6875000000,2,0.3120116889,,,
21.7031250000,2,0.6237792969,,,
21.7187500000,2,0.8896483779,,,
21.7343750000,2,0.9826660156,,,
21.7500000000,2,0.7991942763,,,
21.7656250000,2,0.3157958984,,,
21.7812500000,2,-0.4071044922,,,
21.7968750000,2,-1.2364499569,,,
21.8125000000,2,-2.0268549919,,,
21.8281250000,2,-2.6614990234,,,
21.8437500000,2,-3.0473630428,,,
21.8593750000,2,-3.1492919922,,,
21.8750000000,2,-2.9710690975,,,
21.8906250000,2,-2.5832519531,,,
21.9062500000,2,-2.1077880859,,,
21.9218750000,2,-1.6938480139,,,
21.9375000000,2,-1.4376219511,,,
21.9531250000,2,-1.3477779627,,,
21.9687500000,2,-1.3310550451,,,
21.9843750000,2,-1.2563480139,,,
22.0000000000,2,-1.0488280058,,,
22.0156250000,2,-0.7302246094,,,
22.0312500000,2,-0.4193114936,,,
22.0468750000,2,-0.2352295071,,,
22.0625000000,2,-0.2110596001,,,
22.0781250000,2,-0.2601318061,,,
22.0937500000,2,-0.2313231975,,,
22.1093750000,2,-0.0194091797,,,
22.1250000000,2,0.3610840142,,,
22.1406250000,2,0.7601317763,,,
22.1562500000,2,0.9848632813,,,
22.1718750000,2,0.9050292969,,,
22.1875000000,2,0.5296630859,,,
22.2031250000,2,0.0218505897,,,
22.2187500000,2,-0.3962402046,,,
22.2343750000,2,-0.5373535156,,,
22.2500000000,2,-0.3132323921,,,
22.2656250000,2,0.2307129055,,,
22.2812500000,2,0.9495850205,,,
22.2968750000,2,1.6708979607,,,
22.3125000000,2,2.2587890625,,,
22.3281250000,2,2.6314699650,,,
22.3437500000,2,2.7783200741,,,
22.3593750000,2,2.7363278866,,,
22.3750000000,2,2.5704350471,,,
22.3906250000,2,2.3322749138,,,
22.4062500000,2,2.0688478947,,,
22.4218750000,2,1.7863769531,,,
22.4375000000,2,1.4748539925,,,
22.4531250000,2,1.0983890295,,,
22.4687500000,2,0.6313477159,,,
22.4843750000,2,0.0875244066,,,
22.5000000000,2,-0.5029296875,,,
22.5156250000,2,-1.0820310116,,,
22.5312500000,2,-1.6037600040,,,
22.5468750000,2,-2.0308840275,,,
22.5625000000,2,-2.3204350471,,,
22.5781250000,2,-2.4271240234,,,
22.5937500000,2,-2.2901608944,,,
22.6093750000,2,-1.8862299919,,,
22.6250000000,2,-1.2585450411,,,
22.6406250000,2,-0.5391845703,,,
22.6562500000,2,0.1097412035,,,
22.6718750000,2,0.5504149795,,,
22.6875000000,2,0.7260742188,,,
22.7031250000,2,0.6697998047,,,
22.7187500000,2,0.4681395888,,,
22.7343750000,2,0.1966553032,,,
22.7500000000,2,-0.0882568434,,,
22.7656250000,2,-0.3444823921,,,
22.7812500000,2,-0.5329589844,,,
22.7968750000,2,-0.6148682237,,,
22.8125000000,2,-0.5644531250,,,
22.8281250000,2,-0.3986816108,,,
22.8437500000,2,-0.1876221001,,,
22.8593750000,2,-0.0086669922,,,
22.8750000000,2,0.0958252028,,,
22.8906250000,2,0.1138916016,,,
22.9062500000,2,0.0654296875,,,
22.9218750000,2,-0.0267334003,,,
22.9375000000,2,-0.1308594048,,,
22.9531250000,2,-0.2188721001,,,
22.9687500000,2,-0.2507323921,,,
22.9843750000,2,-0.1768798977,,,
23.0000000000,2,0.0229492206,,,
23.0156250000,2,0.3160400093,,,
23.0312500000,2,0.6424561143,,,
23.0468750000,2,0.9295654297,,,
23.0625000000,2,1.1479489803,,,
23.0781250000,2,1.3262939453,,,
23.0937500000,2,1.5152590275,,,
23.1093750000,2,1.7612299919,,,
23.1250000000,2,2.0440669060,,,
23.1406250000,2,2.2811279297,,,
23.1562500000,2,2.3519289494,,,
23.1718750000,2,2.1768798828,,,
23.1875000000,2,1.7447509766,,,
23.2031250000,2,1.1474610567,,,
23.2187500000,2,0.5350341797,,,
23.2343750000,2,0.0893554688,,,
23.2500000000,2,-0.0776367188,,,
23.2656250000,2,0.0600585900,,,
23.2812500000,2,0.4073486030,,,
23.2968750000,2,0.8010253906,,,
23.3125000000,2,1.0894780159,,,
23.3281250000,2,1.1909179688,,,
23.3437500000,2,1.1490479708,,,
23.3593750000,2,1.0673830509,,,
23.3750000000,2,1.0616459846,,,
23.3906250000,2,1.1783449650,,,
23.4062500000,2,1.3992919922,,,
23.4218750000,2,1.6551510096,,,
23.4375000000,2,1.8942869902,,,
23.4531250000,2,2.0866699219,,,
23.4687500000,2,2.2259519100,,,
23.4843750000,2,2.2855219841,,,
23.5000000000,2,2.2146000862,,,
23.5156250000,2,1.9458010197,,,
23.5312500000,2,1.4543459415,,,
23.5468750000,2,0.7858886719,,,
23.5625000000,2,0.0570068397,,,
23.5781250000,2,-0.5701904297,,,
23.5937500000,2,-0.9675292969,,,
23.6093750000,2,-1.0910639763,,,
23.6250000000,2,-1.0020749569,,,
23.6406250000,2,-0.8220214844,,,
23.6562500000,2,-0.6761475205,,,
23.6718750000,2,-0.6151123047,,,
23.6875000000,2,-0.6119384766,,,
23.7031250000,2,-0.5732421875,,,
23.7187500000,2,-0.4182128906,,,
23.7343750000,2,-0.1000977010,,,
23.7500000000,2,0.3297119141,,,
23.7656250000,2,0.7747802734,,,
23.7812500000,2,1.1273189783,,,
23.7968750000,2,1.3211669922,,,
23.8125000000,2,1.3403320313,,,
23.8281250000,2,1.1805419922,,,
23.8437500000,2,0.8404541016,,,
23.8593750000,2,0.3106688857,,,
23.8750000000,2,-0.3704833984,,,
23.8906250000,2,-1.0864260197,,,
23.9062500000,2,-1.6350100040,,,
23.9218750000,2,-1.8182369471,,,
23.9375000000,2,-1.5324709415,,,
23.9531250000,2,-0.8630371094,,,
23.9687500000,2,-0.0163574200,,,
23.9843750000,2,0.7530518174,,,
24.0000000000,3,1.2552490234,,,
24.0156250000,3,1.4411619902,,,
24.0312500000,3,1.3771970272,,,
24.0468750000,3,1.1673580408,,,
24.0625000000,3,0.8918457031,,,
24.0781250000,3,0.5845947266,,,
24.0937500000,3,0.2579346001,,,
24.1093750000,3,-0.0478515588,,,
24.1250000000,3,-0.2785645127,,,
24.1406250000,3,-0.3956299126,,,
24.1562500000,3,-0.4040527046,,,
24.1718750000,3,-0.3815917969,,,
24.1875000000,3,-0.4323729873,,,
24.2031250000,3,-0.6131591797,,,
24.2187500000,3,-0.9106444716,,,
24.2343750000,3,-1.2125240564,,,
24.2500000000,3,-1.3833010197,,,
24.2656250000,3,-1.3107910156,,,
24.2812500000,3,-0.9672852159,,,
24.2968750000,3,-0.4230957031,,,
24.3125000000,3,0.1871338040,,,
24.3281250000,3,0.6914063096,,,
24.3437500000,3,0.9306641221,,,
24.3593750000,3,0.8186035156,,,
24.3750000000,3,0.3519287109,,,
24.3906250000,3,-0.3530273139,,,
24.4062500000,3,-1.1145019531,,,
24.4218750000,3,-1.7304689884,,,
24.4375000000,3,-2.0402829647,,,
24.4531250000,3,-1.9959720373,,,
24.4687500000,3,-1.6594239473,,,
24.4843750000,3,-1.1715090275,,,
24.5000000000,3,-0.7200927734,,,
24.5156250000,3,-0.4591063857,,,
24.5312500000,3,-0.4604491889,,,
24.5468750000,3,-0.7075194716,,,
24.5625000000,3,-1.0955810547,,,
24.5781250000,3,-1.4888919592,,,
24.5937500000,3,-1.7827149630,,,
24.6093750000,3,-1.9045410156,,,
24.6250000000,3,-1.8454589844,,,
24.6406250000,3,-1.6386719942,,,
24.6562500000,3,-1.3298339844,,,
24.6718750000,3,-0.9509276748,,,
24.6875000000,3,-0.5197753906,,,
24.7031250000,3,-0.0541992188,,,
24.7187500000,3,0.4196777046,,,
24.7343750000,3,0.8593750000,,,
24.7500000000,3,1.2108149529,,,
24.7656250000,3,1.4134520292,,,
24.7812500000,3,1.4179689884,,,
24.7968750000,3,1.2054439783,,,
24.8125000000,3,0.7799072266,,,
24.8281250000,3,0.1944579929,,,
24.8437500000,3,-0.4693604112,,,
24.8593750000,3,-1.0920410156,,,
24.8750000000,3,-1.5714110136,,,
24.8906250000,3,-1.8438719511,,,
24.9062500000,3,-1.8959959745,,,
24.9218750000,3,-1.7713619471,,,
24.9375000000,3,-1.5378420353,,,
24.9531250000,3,-1.2392580509,,,
24.9687500000,3,-0.8973389268,,,
24.9843750000,3,-0.5184326172,,,
25.0000000000,3,-0.1146240011,,,
25.0156250000,3,0.2785645127,,,
25.0312500000,3,0.6091309190,,,
25.0468750000,3,0.8276367188,,,
25.0625000000,3,0.9315186143,,,
25.0781250000,3,0.9776610732,,,
25.0937500000,3,1.0395510197,,,
25.1093750000,3,1.1796879768,,,
25.1250000000,3,1.4027099609,,,
25.1406250000,3,1.6546629667,,,
25.1562500000,3,1.8295899630,,,
25.1718750000,3,1.8203129768,,,
25.1875000000,3,1.5708010197,,,
25.2031250000,3,1.1015629768,,,
25.2187500000,3,0.4998778999,,,
25.2343750000,3,-0.1010741964,,,
25.2500000000,3,-0.5571289063,,,
25.2656250000,3,-0.7786865234,,,
25.2812500000,3,-0.7432860732,,,
25.2968750000,3,-0.5112305284,,,
25.3125000000,3,-0.2091064006,,,
25.3281250000,3,0.0307617206,,,
25.3437500000,3,0.1119384989,,,
25.3593750000,3,0.0214843806,,,
25.3750000000,3,-0.1751708984,,,
25.3906250000,3,-0.3758544922,,,
25.4062500000,3,-0.4984130859,,,
25.4218750000,3,-0.5203856826,,,
25.4375000000,3,-0.4854736030,,,
25.4531250000,3,-0.4393311143,,,
25.4687500000,3,-0.4123534858,,,
25.4843750000,3,-0.3902587891,,,
25.5000000000,3,-0.3616943061,,,
25.5156250000,3,-0.3430176079,,,
25.5312500000,3,-0.3588866889,,,
25.5468750000,3,-0.4384765923,,,
25.5625000000,3,-0.5509033203,,,
25.5781250000,3,-0.6210938096,,,
25.5937500000,3,-0.5544434190,,,
25.6093750000,3,-0.3068847954,,,
25.6250000000,3,0.0574951209,,,
25.6406250000,3,0.3907471001,,,
25.6562500000,3,0.5317382813,,,
25.6718750000,3,0.3975830078,,,
25.6875000000,3,0.0333251990,,,
25.7031250000,3,-0.3925780952,,,
25.7187500000,3,-0.7075194716,,,
25.7343750000,3,-0.7955322266,,,
25.7500000000,3,-0.6555175781,,,
25.7656250000,3,-0.3895263970,,,
25.7812500000,3,-0.1258545071,,,
25.7968750000,3,0.0229492206,,,
25.8125000000,3,0.0051269531,,,
25.8281250000,3,-0.1505126953,,,
25.8437500000,3,-0.3391112983,,,
25.8593750000,3,-0.4310303032,,,
25.8750000000,3,-0.3266601861,,,
25.8906250000,3,-0.0168456994,,,
25.9062500000,3,0.4010010064,,,
25.9218750000,3,0.7629395127,,,
25.9375000000,3,0.9090576172,,,
25.9531250000,3,0.7797852159,,,
25.9687500000,3,0.4249267876,,,
25.9843750000,3,0.0200195294,,,
26.0000000000,3,-0.2449951023,,,
26.0156250000,3,-0.2498778999,,,
26.0312500000,3,-0.0096435547,,,
26.0468750000,3,0.3386229873,,,
26.0625000000,3,0.6193848252,,,
26.0781250000,3,0.7098389268,,,
26.0937500000,3,0.6113281250,,,
26.1093750000,3,0.4320068061,,,
26.1250000000,3,0.3088378906,,,
26.1406250000,3,0.3183594048,,,
26.1562500000,3,0.4481200874,,,
26.1718750000,3,0.6098632813,,,
26.1875000000,3,0.7091063857,,,
26.2031250000,3,0.7205811143,,,
26.2187500000,3,0.6940917969,,,
26.2343750000,3,0.7142333984,,,
26.2500000000,3,0.8059082031,,,
26.2656250000,3,0.8919677734,,,
26.2812500000,3,0.8487548828,,,
26.2968750000,3,0.5861815810,,,
26.3125000000,3,0.1271972954,,,
26.3281250000,3,-0.3842773139,,,
26.3437500000,3,-0.7679442763,,,
26.3593750000,3,-0.9376220703,,,
26.3750000000,3,-0.9410399795,,,
26.3906250000,3,-0.9311522841,,,
26.4062500000,3,-1.0534670353,,,
26.4218750000,3,-1.3475339413,,,
26.4375000000,3,-1.7357180119,,,
26.4531250000,3,-2.0717771053,,,
26.4687500000,3,-2.2543950081,,,
26.4843750000,3,-2.2614750862,,,
26.5000000000,3,-2.1535639763,,,
26.5156250000,3,-1.9979250431,,,
26.5312500000,3,-1.8486330509,,,
26.5468750000,3,-1.6987299919,,,
26.5625000000,3,-1.5321040154,,,
26.5781250000,3,-1.3504639864,,,
26.5937500000,3,-1.1801760197,,,
26.6093750000,3,-1.0524899960,,,
26.6250000000,3,-0.9667968750,,,
26.6406250000,3,-0.8874511719,,,
26.6562500000,3,-0.7548828125,,,
26.6718750000,3,-0.5278319716,,,
26.6875000000,3,-0.2106934041,,,
26.7031250000,3,0.1264647990,,,
26.7187500000,3,0.3684082031,,,
26.7343750000,3,0.4166260064,,,
26.7500000000,3,0.2371826023,,,
26.7656250000,3,-0.1241455004,,,
26.7812500000,3,-0.5523682237,,,
26.7968750000,3,-0.9042968750,,,
26.8125000000,3,-1.0933840275,,,
26.8281250000,3,-1.1064449549,,,
26.8437500000,3,-1.0108640194,,,
26.8593750000,3,-0.9147949219,,,
26.8750000000,3,-0.9050292969,,,
26.8906250000,3,-0.9981688857,,,
26.9062500000,3,-1.1251219511,,,
26.9218750000,3,-1.1639399529,,,
26.9375000000,3,-1.0203859806,,,
26.9531250000,3,-0.6766356826,,,
26.9687500000,3,-0.2121582031,,,
26.9843750000,3,0.2180175930,,,
27.0000000000,3,0.4677734077,,,
27.0156250000,3,0.4985351861,,,
27.0312500000,3,0.3746337891,,,
27.0468750000,3,0.2668457031,,,
27.0625000000,3,0.3350830078,,,
27.0781250000,3,0.6298828125,,,
27.0937500000,3,1.0585939884,,,
27.1093750000,3,1.4122309685,,,
27.1250000000,3,1.5035400391,,,
27.1406250000,3,1.2712399960,,,
27.1562500000,3,0.8094481826,,,
27.1718750000,3,0.3062744141,,,
27.1875000000,3,-0.0672607422,,,
27.2031250000,3,-0.2478027046,,,
27.2187500000,3,-0.3077392876,,,
27.2343750000,3,-0.3613280952,,,
27.2500000000,3,-0.4804688096,,,
27.2656250000,3,-0.6488037109,,,
27.2812500000,3,-0.7810059190,,,
27.2968750000,3,-0.7895507813,,,
27.3125000000,3,-0.6650391221,,,
27.3281250000,3,-0.4844971001,,,
27.3437500000,3,-0.3605957031,,,
27.3593750000,3,-0.3698729873,,,
27.3750000000,3,-0.4952392876,,,
27.3906250000,3,-0.6436768174,,,
27.4062500000,3,-0.7048339844,,,
27.4218750000,3,-0.6232910156,,,
27.4375000000,3,-0.4152832031,,,
27.4531250000,3,-0.1595458984,,,
27.4687500000,3,0.0731201172,,,
27.4843750000,3,0.2474364936,,,
27.5000000000,3,0.3854979873,,,
27.5156250000,3,0.5256348252,,,
27.5312500000,3,0.6683350205,,,
27.5468750000,3,0.7773438096,,,
27.5625000000,3,0.7950438857,,,
27.5781250000,3,0.6955565810,,,
27.5937500000,3,0.5134276748,,,
27.6093750000,3,0.3320313096,,,
27.6250000000,3,0.2203368992,,,
27.6406250000,3,0.2033690959,,,
27.6562500000,3,0.2288818061,,,
27.6718750000,3,0.2326660007,,,
27.6875000000,3,0.1892089993,,,
27.7031250000,3,0.1409911960,,,
27.7187500000,3,0.1822510064,,,
27.7343750000,3,0.3664551079,,,
27.7500000000,3,0.6817626953,,,
27.7656250000,3,1.0325930119,,,
27.7812500000,3,1.3161619902,,,
27.7968750000,3,1.4777829647,,,
27.8125000000,3,1.5322270393,,,
27.8281250000,3,1.5393069983,,,
27.8437500000,3,1.5649410486,,,
27.8593750000,3,1.6298830509,,,
27.8750000000,3,1.7067869902,,,
27.8906250000,3,1.7694089413,,,
27.9062500000,3,1.7657469511,,,
27.9218750000,3,1.6759029627,,,
27.9375000000,3,1.4840090275,,,
27.9531250000,3,1.1940920353,,,
27.9687500000,3,0.8240966797,,,
27.9843750000,3,0.3911133111,,,
28.0000000000,3,-0.0565185510,,,
28.0156250000,3,-0.4663085938,,,
28.0312500000,3,-0.7694091797,,,
28.0468750000,3,-0.9035645127,,,
28.0625000000,3,-0.8244628906,,,
28.0781250000,3,-0.5053710938,,,
28.0937500000,3,0.0205078106,,,
28.1093750000,3,0.6844481826,,,
28.1250000000,3,1.3559570313,,,
28.1406250000,3,1.8980710506,,,
28.1562500000,3,2.1867680550,,,
28.1718750000,3,2.1730959415,,,
28.1875000000,3,1.8929439783,,,
28.2031250000,3,1.4509279728,,,
28.2187500000,3,1.0030519962,,,
28.2343750000,3,0.6859130859,,,
28.2500000000,3,0.5764160156,,,
28.2656250000,3,0.6448975205,,,
28.2812500000,3,0.7869873047,,,
28.2968750000,3,0.8515625000,,,
28.3125000000,3,0.7421875000,,,
28.3281250000,3,0.4571532905,,,
28.3437500000,3,0.1094971001,,,
28.3593750000,3,-0.1453856975,,,
28.3750000000,3,-0.1958007962,,,
28.3906250000,3,-0.0108642597,,,
28.4062500000,3,0.3254395127,,,
28.4218750000,3,0.6899414063,,,
28.4375000000,3,0.9417725205,,,
28.4531250000,3,1.0018310547,,,
28.4687500000,3,0.8508300781,,,
28.4843750000,3,0.5300292969,,,
28.5000000000,3,0.1494141072,,,
28.5156250000,3,-0.1667480022,,,
28.5312500000,3,-0.2657471001,,,
28.5468750000,3,-0.0689697266,,,
28.5625000000,3,0.4057616889,,,
28.5781250000,3,1.0510250330,,,
28.5937500000,3,1.6765140295,,,
28.6093750000,3,2.1158449650,,,
28.6250000000,3,2.2658689022,,,
28.6406250000,3,2.1210939884,,,
28.6562500000,3,1.7519530058,,,
28.6718750000,3,1.2684329748,,,
28.6875000000,3,0.7573242188,,,
28.7031250000,3,0.2884520888,,,
28.7187500000,3,-0.1354980022,,,
28.7343750000,3,-0.5272216797,,,
28.7500000000,3,-0.9114990234,,,
28.7656250000,3,-1.2928470373,,,
28.7812500000,3,-1.6210939884,,,
28.7968750000,3,-1.8228759766,,,
28.8125000000,3,-1.8153079748,,,
28.8281250000,3,-1.5606689453,,,
28.8437500000,3,-1.0812989473,,,
28.8593750000,3,-0.4718017876,,,
28.8750000000,3,0.1473388970,,,
28.8906250000,3,0.6507567763,,,
28.9062500000,3,0.9350585938,,,
28.9218750000,3,0.9663085938,,,
28.9375000000,3,0.7745360732,,,
28.9531250000,3,0.4426270127,,,
28.9687500000,3,0.0911865234,,,
28.9843750000,3,-0.1845702976,,,
29.0000000000,3,-0.3383789063,,,
29.0156250000,3,-0.4060058892,,,
29.0312500000,3,-0.4633789063,,,
29.0468750000,3,-0.5921630859,,,
29.0625000000,3,-0.8142089844,,,
29.0781250000,3,-1.0758060217,,,
29.0937500000,3,-1.2862550020,,,
29.1093750000,3,-1.3504639864,,,
29.1250000000,3,-1.2447509766,,,
29.1406250000,3,-1.0092769861,,,
29.1562500000,3,-0.7294921875,,,
29.1718750000,3,-0.4702148139,,,
29.1875000000,3,-0.2651366889,,,
29.2031250000,3,-0.1048583984,,,
29.2187500000,3,0.0069580078,,,
29.2343750000,3,0.0450439490,,,
29.2500000000,3,-0.0432128906,,,
29.2656250000,3,-0.2882080078,,,
29.2812500000,3,-0.6840819716,,,
29.2968750000,3,-1.1519780159,,,
29.3125000000,3,-1.5659179688,,,
29.3281250000,3,-1.7972409725,,,
29.3437500000,3,-1.7845460176,,,
29.3593750000,3,-1.5769040585,,,
29.3750000000,3,-1.3107910156,,,
29.3906250000,3,-1.1394040585,,,
29.4062500000,3,-1.1661380529,,,
29.4218750000,3,-1.3786619902,,,
29.4375000000,3,-1.6550290585,,,
29.4531250000,3,-1.8326419592,,,
29.4687500000,3,-1.7846679688,,,
29.4843750000,3,-1.4934079647,,,
29.5000000000,3,-1.0520019531,,,
29.5156250000,3,-0.6092529297,,,
29.5312500000,3,-0.3073729873,,,
29.5468750000,3,-0.2005614936,,,
29.5625000000,3,-0.2465820014,,,
29.5781250000,3,-0.3126221001,,,
29.5937500000,3,-0.2744140923,,,
29.6093750000,3,-0.0550537109,,,
29.6250000000,3,0.3103027046,,,
29.6406250000,3,0.6977539063,,,
29.6562500000,3,0.9527587891,,,
29.6718750000,3,0.9517822266,,,
29.6875000000,3,0.6694335938,,,
29.7031250000,3,0.2066649944,,,
29.7187500000,3,-0.2476806939,,,
29.7343750000,3,-0.4969482124,,,
29.7500000000,3,-0.4215087891,,,
29.7656250000,3,-0.0449218787,,,
29.7812500000,3,0.4866943061,,,
29.7968750000,3,0.9606934190,,,
29.8125000000,3,1.2016600370,,,
29.8281250000,3,1.1450200081,,,
29.8437500000,3,0.8405761719,,,
29.8593750000,3,0.4222412109,,,
29.8750000000,3,0.0445556603,,,
29.8906250000,3,-0.1699219048,,,
29.9062500000,3,-0.1749268025,,,
29.9218750000,3,0.0206298791,,,
29.9375000000,3,0.3393554986,,,
29.9531250000,3,0.6768798828,,,
29.9687500000,3,0.9129639268,,,
29.9843750000,3,0.9537354112,,,
30.0000000000,3,0.7596436143,,,
30.0156250000,3,0.3634032905,,,
30.0312500000,3,-0.1384277046,,,
30.0468750000,3,-0.6275634766,,,
30.0625000000,3,-0.9952393174,,,
30.0781250000,3,-1.1706540585,,,
30.0937500000,3,-1.1324460506,,,
30.1093750000,3,-0.8879395127,,,
30.1250000000,3,-0.4736328125,,,
30.1406250000,3,0.0375976600,,,
30.1562500000,3,0.5489501953,,,
30.1718750000,3,0.9472656250,,,
30.1875000000,3,1.1207280159,,,
30.2031250000,3,1.0118410587,,,
30.2187500000,3,0.6175537109,,,
30.2343750000,3,0.0008544922,,,
30.2500000000,3,-0.7141113281,,,
30.2656250000,3,-1.3834229708,,,
30.2812500000,3,-1.8630369902,,,
30.2968750000,3,-2.0391850471,,,
30.3125000000,3,-1.8651119471,,,
30.3281250000,3,-1.3789060116,,,
30.3437500000,3,-0.7049561143,,,
30.3593750000,3,-0.0170898400,,,
30.3750000000,3,0.5084229112,,,
30.3906250000,3,0.7667235732,,,
30.4062500000,3,0.7493895888,,,
30.4218750000,3,0.5351563096,,,
30.4375000000,3,0.2589111030,,,
30.4531250000,3,0.0494384803,,,
30.4687500000,3,-0.0173339806,,,
30.4843750000,3,0.0662841797,,,
30.5000000000,3,0.2396239936,,,
30.5156250000,3,0.4176025093,,,
30.5312500000,3,0.5262451172,,,
30.5468750000,3,0.5344238281,,,
30.5625000000,3,0.4638671875,,,
30.5781250000,3,0.3554688096,,,
30.5937500000,3,0.2539063096,,,
30.6093750000,3,0.1713867038,,,
30.6250000000,3,0.1024169996,,,
30.6406250000,3,0.0144042997,,,
30.6562500000,3,-0.0849609375,,,
30.6718750000,3,-0.1638184041,,,
30.6875000000,3,-0.1947021037,,,
30.7031250000,3,-0.1492920071,,,
30.7187500000,3,-0.0532226600,,,
30.7343750000,3,0.0245361291,,,
30.7500000000,3,0.0115966797,,,
30.7656250000,3,-0.1184082031,,,
30.7812500000,3,-0.3380126953,,,
30.7968750000,3,-0.5596923828,,,
30.8125000000,3,-0.7218018174,,,
30.8281250000,3,-0.8115233779,,,
30.8437500000,3,-0.8702393174,,,
30.8593750000,3,-0.9627686143,,,
30.8750000000,3,-1.1206049919,,,
30.8906250000,3,-1.3111569881,,,
30.9062500000,3,-1.4338380098,,,
30.9218750000,3,-1.3922120333,,,
30.9375000000,3,-1.1127929688,,,
30.9531250000,3,-0.6026610732,,,
30.9687500000,3,0.0697021484,,,
30.9843750000,3,0.7814940810,,,
31.0000000000,3,1.4000240564,,,
31.0156250000,3,1.8330080509,,,
31.0312500000,3,2.0223391056,,,
31.0468750000,3,1.9675290585,,,
31.0625000000,3,1.7198489904,,,
31.0781250000,3,1.3687740564,,,
31.0937500000,3,1.0095210075,,,
31.1093750000,3,0.7127686143,,,
31.1250000000,3,0.5245360732,,,
31.1406250000,3,0.4200438857,,,
31.1562500000,3,0.3604736030,,,
31.1718750000,3,0.3131104112,,,
31.1875000000,3,0.2536621094,,,
31.2031250000,3,0.1848144978,,,
31.2187500000,3,0.1251221001,,,
31.2343750000,3,0.0911865234,,,
31.2500000000,3,0.0928955078,,,
31.2656250000,3,0.1337891072,,,
31.2812500000,3,0.2102050930,,,
31.2968750000,3,0.3333739936,,,
31.3125000000,3,0.5012207031,,,
31.3281250000,3,0.6892089844,,,
31.3437500000,3,0.8706055284,,,
31.3593750000,3,0.9797363281,,,
31.3750000000,3,0.9473876953,,,
31.3906250000,3,0.7229003906,,,
31.4062500000,3,0.3144530952,,,
31.4218750000,3,-0.2049560994,,,
31.4375000000,3,-0.7160645127,,,
31.4531250000,3,-1.0966800451,,,
31.4687500000,3,-1.2535400391,,,
31.4843750000,3,-1.1671140194,,,
31.5000000000,3,-0.8929442763,,,
31.5156250000,3,-0.5150145888,,,
31.5312500000,3,-0.1286620945,,,
31.5468750000,3,0.1704102010,,,
31.5625000000,3,0.3389892876,,,
31.5781250000,3,0.3669433892,,,
31.5937500000,3,0.2950438857,,,
31.6093750000,3,0.1860352010,,,
31.6250000000,3,0.1215820014,,,
31.6406250000,3,0.1492920071,,,
31.6562500000,3,0.2791748047,,,
31.6718750000,3,0.4777832031,,,
31.6875000000,3,0.6837158203,,,
31.7031250000,3,0.8303223252,,,
31.7187500000,3,0.8699951172,,,
31.7343750000,3,0.8035889268,,,
31.7500000000,3,0.6607666016,,,
31.7656250000,3,0.4909667969,,,
31.7812500000,3,0.3242188096,,,
31.7968750000,3,0.1617431939,,,
31.8125000000,3,-0.0313720703,,,
31.8281250000,3,-0.3031005859,,,
31.8437500000,3,-0.6588134766,,,
31.8593750000,3,-1.0560300350,,,
31.8750000000,3,-1.3914790154,,,
31.8906250000,3,-1.5578609705,,,
31.9062500000,3,-1.4957280159,,,
31.9218750000,3,-1.2440190315,,,
31.9375000000,3,-0.9324951172,,,
31.9531250000,3,-0.6920166016,,,
31.9687500000,3,-0.5867919922,,,
31.9843750000,3,-0.5549315810,,,
32.0000000000,4,-0.4709472954,,,
32.0156250000,4,-0.2177733928,,,
32.0312500000,4,0.2193603963,,,
32.0468750000,4,0.7249755859,,,
32.0625000000,4,1.1289060116,,,
32.0781250000,4,1.2941889763,,,
32.0937500000,4,1.1966550350,,,
32.1093750000,4,0.9112548828,,,
32.1250000000,4,0.5885009766,,,
32.1406250000,4,0.3564453125,,,
32.1562500000,4,0.2781982124,,,
32.1718750000,4,0.3168945014,,,
32.1875000000,4,0.3955078125,,,
32.2031250000,4,0.4371337891,,,
32.2187500000,4,0.3759765923,,,
32.2343750000,4,0.2084960938,,,
32.2500000000,4,-0.0446777306,,,
32.2656250000,4,-0.3374023139,,,
32.2812500000,4,-0.6336669922,,,
32.2968750000,4,-0.9129639268,,,
32.3125000000,4,-1.1882319450,,,
32.3281250000,4,-1.4801030159,,,
32.3437500000,4,-1.7994379997,,,
32.3593750000,4,-2.1418459415,,,
32.3750000000,4,-2.4639890194,,,
32.3906250000,4,-2.6932370663,,,
32.4062500000,4,-2.7640380859,,,
32.4218750000,4,-2.6441650391,,,
32.4375000000,4,-2.3585209846,,,
32.4531250000,4,-1.9871829748,,,
32.4687500000,4,-1.6317139864,,,
32.4843750000,4,-1.3608399630,,,
32.5000000000,4,-1.2106930017,,,
32.5156250000,4,-1.1732180119,,,
32.5312500000,4,-1.2241209745,,,
32.5468750000,4,-1.3482669592,,,
32.5625000000,4,-1.5665279627,,,
32.5781250000,4,-1.8645019531,,,
32.5937500000,4,-2.1853029728,,,
32.6093750000,4,-2.4113769531,,,
32.6250000000,4,-2.4030759335,,,
32.6406250000,4,-2.0798339844,,,
32.6562500000,4,-1.4802249670,,,
32.6718750000,4,-0.7720947266,,,
32.6875000000,4,-0.1778564006,,,
32.7031250000,4,0.1313477010,,,
32.7187500000,4,0.1044922024,,,
32.7343750000,4,-0.1511230022,,,
32.7500000000,4,-0.4591063857,,,
32.7656250000,4,-0.6494141221,,,
32.7812500000,4,-0.6323242188,,,
32.7968750000,4,-0.4284667969,,,
32.8125000000,4,-0.1500243992,,,
32.8281250000,4,0.0703125000,,,
32.8437500000,4,0.1485596001,,,
32.8593750000,4,0.0827636719,,,
32.8750000000,4,-0.0655517578,,,
32.8906250000,4,-0.2017821968,,,
32.9062500000,4,-0.2581787109,,,
32.9218750000,4,-0.2447510064,,,
32.9375000000,4,-0.2139893025,,,
32.9531250000,4,-0.2187500000,,,
32.9687500000,4,-0.2712402046,,,
32.9843750000,4,-0.2896729112,,,
33.0000000000,4,-0.1594237983,,,
33.0156250000,4,0.2119141072,,,
33.0312500000,4,0.8229979873,,,
33.0468750000,4,1.5396729708,,,
33.0625000000,4,2.1566159725,,,
33.0781250000,4,2.4916989803,,,
33.0937500000,4,2.4742429256,,,
33.1093750000,4,2.1776120663,,,
33.1250000000,4,1.7937010527,,,
33.1406250000,4,1.5145260096,,,
33.1562500000,4,1.4448239803,,,
33.1718750000,4,1.5415040255,,,
33.1875000000,4,1.6594239473,,,
33.2031250000,4,1.6474610567,,,
33.2187500000,4,1.4291989803,,,
33.2343750000,4,1.0666500330,,,
33.2500000000,4,0.7124022841,,,
33.2656250000,4,0.5272216797,,,
33.2812500000,4,0.5906981826,,,
33.2968750000,4,0.8553466797,,,
33.3125000000,4,1.1696779728,,,
33.3281250000,4,1.3468019962,,,
33.3437500000,4,1.2485350370,,,
33.3593750000,4,0.8503417969,,,
33.3750000000,4,0.2410888970,,,
33.3906250000,4,-0.4323729873,,,
33.4062500000,4,-0.9997559190,,,
33.4218750000,4,-1.3642580509,,,
33.4375000000,4,-1.4992680550,,,
33.4531250000,4,-1.4523930550,,,
33.4687500000,4,-1.3250730038,,,
33.4843750000,4,-1.2165529728,,,
33.5000000000,4,-1.1947020292,,,
33.5156250000,4,-1.2839360237,,,
33.5312500000,4,-1.4398189783,,,
33.5468750000,4,-1.5960689783,,,
33.5625000000,4,-1.6838380098,,,
33.5781250000,4,-1.6578370333,,,
33.5937500000,4,-1.5079350471,,,
33.6093750000,4,-1.2546390295,,,
33.6250000000,4,-0.9249268174,,,
33.6406250000,4,-0.5664063096,,,
33.6562500000,4,-0.2087402046,,,
33.6718750000,4,0.1160888970,,,
33.6875000000,4,0.3706054986,,,
33.7031250000,4,0.5104979873,,,
33.7187500000,4,0.4880371094,,,
33.7343750000,4,0.2691650093,,,
33.7500000000,4,-0.1395263970,,,
33.7656250000,4,-0.6804199219,,,
33.7812500000,4,-1.2586669922,,,
33.7968750000,4,-1.7730710506,,,
33.8125000000,4,-2.1437990665,,,
33.8281250000,4,-2.3070070744,,,
33.8437500000,4,-2.2333979607,,,
33.8593750000,4,-1.9200439453,,,
33.8750000000,4,-1.3958740234,,,
33.8906250000,4,-0.7388916016,,,
33.9062500000,4,-0.0695800781,,,
33.9218750000,4,0.4663085938,,,
33.9375000000,4,0.7567139268,,,
33.9531250000,4,0.7641602159,,,
33.9687500000,4,0.5511475205,,,
33.9843750000,4,0.2662354112,,,
34.0000000000,4,0.1166991964,,,
34.0156250000,4,0.2614746094,,,
34.0312500000,4,0.7602539063,,,
34.0468750000,4,1.5389399529,,,
34.0625000000,4,2.4165039063,,,
34.0781250000,4,3.1984860897,,,
34.0937500000,4,3.7440190315,,,
34.1093750000,4,3.9893798828,,,
34.1250000000,4,3.9641110897,,,
34.1406250000,4,3.7438960075,,,
34.1562500000,4,3.4069819450,,,
34.1718750000,4,2.9844970703,,,
34.1875000000,4,2.4693601131,,,
34.2031250000,4,1.8573000431,,,
34.2187500000,4,1.1760250330,,,
34.2343750000,4,0.5157470703,,,
34.2500000000,4,-0.0015869139,,,
34.2656250000,4,-0.2606200874,,,
34.2812500000,4,-0.1882324070,,,
34.2968750000,4,0.2117920071,,,
34.3125000000,4,0.8603516221,,,
34.3281250000,4,1.6182860136,,,
34.3437500000,4,2.3114008904,,,
34.3593750000,4,2.7664790154,,,
34.3750000000,4,2.8569340706,,,
34.3906250000,4,2.5500490665,,,
34.4062500000,4,1.9145510197,,,
34.4218750000,4,1.0970460176,,,
34.4375000000,4,0.2739258111,,,
34.4531250000,4,-0.3902587891,,,
34.4687500000,4,-0.7967529297,,,
34.4843750000,4,-0.9464110732,,,
34.5000000000,4,-0.9068604112,,,
34.5156250000,4,-0.8090819716,,,
34.5312500000,4,-0.7814940810,,,
34.5468750000,4,-0.8813477159,,,
34.5625000000,4,-1.0932619572,,,
34.5781250000,4,-1.3269040585,,,
34.5937500000,4,-1.4348139763,,,
34.6093750000,4,-1.3013919592,,,
34.6250000000,4,-0.8803710938,,,
34.6406250000,4,-0.2177733928,,,
34.6562500000,4,0.5640869141,,,
34.6718750000,4,1.2994379997,,,
34.6875000000,4,1.8392330408,,,
34.7031250000,4,2.0710449219,,,
34.7187500000,4,1.9311519861,,,
34.7343750000,4,1.4368900061,,,
34.7500000000,4,0.6812744141,,,
34.7656250000,4,-0.1899414063,,,
34.7812500000,4,-0.9926757813,,,
34.7968750000,4,-1.5777590275,,,
34.8125000000,4,-1.8912349939,,,
34.8281250000,4,-1.9783940315,,,
34.8437500000,4,-1.9462889433,,,
34.8593750000,4,-1.8872070313,,,
34.8750000000,4,-1.8293459415,,,
34.8906250000,4,-1.7238769531,,,
34.9062500000,4,-1.5019530058,,,
34.9218750000,4,-1.1297609806,,,
34.9375000000,4,-0.6542968750,,,
34.9531250000,4,-0.1873778999,,,
34.9687500000,4,0.1616210938,,,
34.9843750000,4,0.3293457031,,,
35.0000000000,4,0.3371582031,,,
35.0156250000,4,0.2502441108,,,
35.0312500000,4,0.1368408054,,,
35.0468750000,4,0.0424804688,,,
35.0625000000,4,-0.0144042997,,,
35.0781250000,4,-0.0313720703,,,
35.0937500000,4,0.0152587900,,,
35.1093750000,4,0.1607666016,,,
35.1250000000,4,0.4379883111,,,
35.1406250000,4,0.8476563096,,,
35.1562500000,4,1.3387449980,,,
35.1718750000,4,1.8162839413,,,
35.1875000000,4,2.1882319450,,,
35.2031250000,4,2.3970949650,,,
35.2187500000,4,2.4213869572,,,
35.2343750000,4,2.2894289494,,,
35.2500000000,4,2.0520019531,,,
35.2656250000,4,1.7719730139,,,
35.2812500000,4,1.5144040585,,,
35.2968750000,4,1.3308110237,,,
35.3125000000,4,1.2418210506,,,
35.3281250000,4,1.2222900391,,,
35.3437500000,4,1.2036130428,,,
35.3593750000,4,1.1062010527,,,
35.3750000000,4,0.8634033203,,,
35.3906250000,4,0.4680176079,,,
35.4062500000,4,-0.0367431603,,,
35.4218750000,4,-0.5670166016,,,
35.4375000000,4,-1.0219730139,,,
35.4531250000,4,-1.3376460075,,,
35.4687500000,4,-1.4941409826,,,
35.4843750000,4,-1.5156250000,,,
35.5000000000,4,-1.4335939884,,,
35.5156250000,4,-1.2849119902,,,
35.5312500000,4,-1.1075439453,,,
35.5468750000,4,-0.9564208984,,,
35.5625000000,4,-0.8918457031,,,
35.5781250000,4,-0.9449462891,,,
35.5937500000,4,-1.0903320313,,,
35.6093750000,4,-1.2501219511,,,
35.6250000000,4,-1.3244630098,,,
35.6406250000,4,-1.2503659725,,,
35.6562500000,4,-1.0429689884,,,
35.6718750000,4,-0.7679442763,,,
35.6875000000,4,-0.5153809190,,,
35.7031250000,4,-0.3432616889,,,
35.7187500000,4,-0.2579346001,,,
35.7343750000,4,-0.2474364936,,,
35.7500000000,4,-0.3081054986,,,
35.7656250000,4,-0.4569092095,,,
35.7812500000,4,-0.7014160156,,,
35.7968750000,4,-1.0303959846,,,
35.8125000000,4,-1.3646240234,,,
35.8281250000,4,-1.5965579748,,,
35.8437500000,4,-1.6392819881,,,
35.8593750000,4,-1.4689940214,,,
35.8750000000,4,-1.1278079748,,,
35.8906250000,4,-0.7081298828,,,
35.9062500000,4,-0.2794188857,,,
35.9218750000,4,0.1063231975,,,
35.9375000000,4,0.4161376953,,,
35.9531250000,4,0.6473389268,,,
35.9687500000,4,0.8126220703,,,
35.9843750000,4,0.9591063857,,,
36.0000000000,4,1.1499019861,,,
36.0156250000,4,1.4449460506,,,
36.0312500000,4,1.8465579748,,,
36.0468750000,4,2.2795410156,,,
36.0625000000,4,2.5949709415,,,
36.0781250000,4,2.6259770393,,,
36.0937500000,4,2.2763669491,,,
36.1093750000,4,1.5592039824,,,
36.1250000000,4,0.6219481826,,,
36.1406250000,4,-0.3170166016,,,
36.1562500000,4,-1.0708010197,,,
36.1718750000,4,-1.5446779728,,,
36.1875000000,4,-1.7706300020,,,
36.2031250000,4,-1.8682860136,,,
36.2187500000,4,-1.9356689453,,,
36.2343750000,4,-1.9960939884,,,
36.2500000000,4,-1.9802249670,,,
36.2656250000,4,-1.7918699980,,,
36.2812500000,4,-1.3636469841,,,
36.2968750000,4,-0.7463378906,,,
36.3125000000,4,-0.0755615234,,,
36.3281250000,4,0.4833984077,,,
36.3437500000,4,0.8267822266,,,
36.3593750000,4,0.9477539063,,,
36.3750000000,4,0.9348145127,,,
36.3906250000,4,0.8695067763,,,
36.4062500000,4,0.7941895127,,,
36.4218750000,4,0.6920166016,,,
36.4375000000,4,0.5101317763,,,
36.4531250000,4,0.2496338040,,,
36.4687500000,4,-0.0518798791,,,
36.4843750000,4,-0.3076171875,,,
36.5000000000,4,-0.4669188857,,,
36.5156250000,4,-0.5408936143,,,
36.5312500000,4,-0.5887451172,,,
36.5468750000,4,-0.6629639268,,,
36.5625000000,4,-0.7484130859,,,
36.5781250000,4,-0.7703856826,,,
36.5937500000,4,-0.6259766221,,,
36.6093750000,4,-0.2829590142,,,
36.6250000000,4,0.1777344048,,,
36.6406250000,4,0.5778809190,,,
36.6562500000,4,0.7188720703,,,
36.6718750000,4,0.4971924126,,,
36.6875000000,4,-0.0394287109,,,
36.7031250000,4,-0.7016602159,,,
36.7187500000,4,-1.2346190214,,,
36.7343750000,4,-1.4432369471,,,
36.7500000000,4,-1.2297359705,,,
36.7656250000,4,-0.6621093750,,,
36.7812500000,4,0.0800781325,,,
36.7968750000,4,0.7456055284,,,
36.8125000000,4,1.0987550020,,,
36.8281250000,4,1.0155030489,,,
36.8437500000,4,0.5261229873,,,
36.8593750000,4,-0.2006835938,,,
36.8750000000,4,-0.9246826172,,,
36.8906250000,4,-1.4428709745,,,
36.9062500000,4,-1.6629639864,,,
36.9218750000,4,-1.6096190214,,,
36.9375000000,4,-1.3752440214,,,
36.9531250000,4,-1.0439449549,,,
36.9687500000,4,-0.6665039063,,,
36.9843750000,4,-0.2584229112,,,
37.0000000000,4,0.1527100056,,,
37.0156250000,4,0.5034180284,,,
37.0312500000,4,0.7089843750,,,
37.0468750000,4,0.7229003906,,,
37.0625000000,4,0.5866699219,,,
37.0781250000,4,0.4090575874,,,
37.0937500000,4,0.3144530952,,,
37.1093750000,4,0.3520508111,,,
37.1250000000,4,0.4660645127,,,
37.1406250000,4,0.5289307237,,,
37.1562500000,4,0.4282226861,,,
37.1718750000,4,0.1564940959,,,
37.1875000000,4,-0.1851806939,,,
37.2031250000,4,-0.4206542969,,,
37.2187500000,4,-0.4014892876,,,
37.2343750000,4,-0.1057128981,,,
37.2500000000,4,0.3803710938,,,
37.2656250000,4,0.8507080078,,,
37.2812500000,4,1.1224370003,,,
37.2968750000,4,1.0979000330,,,
37.3125000000,4,0.8079833984,,,
37.3281250000,4,0.3924561143,,,
37.3437500000,4,0.0284423791,,,
37.3593750000,4,-0.1584472954,,,
37.3750000000,4,-0.1364745945,,,
37.3906250000,4,0.0187988300,,,
37.4062500000,4,0.1728516072,,,
37.4218750000,4,0.1917725056,,,
37.4375000000,4,0.0150146503,,,
37.4531250000,4,-0.3148193061,,,
37.4687500000,4,-0.6635742188,,,
37.4843750000,4,-0.8851317763,,,
37.5000000000,4,-0.8980712891,,,
37.5156250000,4,-0.7365723252,,,
37.5312500000,4,-0.5311279297,,,
37.5468750000,4,-0.4282226861,,,
37.5625000000,4,-0.5048828125,,,
37.5781250000,4,-0.7141113281,,,
37.5937500000,4,-0.9200438857,,,
37.6093750000,4,-0.9774169922,,,
37.6250000000,4,-0.8038330078,,,
37.6406250000,4,-0.4304198921,,,
37.6562500000,4,0.0279540997,,,
37.6718750000,4,0.4581299126,,,
37.6875000000,4,0.7928466797,,,
37.7031250000,4,1.0523680449,,,
37.7187500000,4,1.2955319881,,,
37.7343750000,4,1.5441889763,,,
37.7500000000,4,1.7622070313,,,
37.7656250000,4,1.8377690315,,,
37.7812500000,4,1.6716309786,,,
37.7968750000,4,1.2287600040,,,
37.8125000000,4,0.5861815810,,,
37.8281250000,4,-0.0915527269,,,
37.8437500000,4,-0.6109619141,,,
37.8593750000,4,-0.8452147841,,,
37.8750000000,4,-0.7723389268,,,
37.8906250000,4,-0.4903563857,,,
37.9062500000,4,-0.1640625000,,,
37.9218750000,4,0.0534668006,,,
37.9375000000,4,0.0692138672,,,
37.9531250000,4,-0.1314696968,,,
37.9687500000,4,-0.4868164063,,,
37.9843750000,4,-0.8803710938,,,
38.0000000000,4,-1.1918950081,,,
38.0156250000,4,-1.3406980038,,,
38.0312500000,4,-1.3044430017,,,
38.0468750000,4,-1.1301269531,,,
38.0625000000,4,-0.9031981826,,,
38.0781250000,4,-0.6981201172,,,
38.0937500000,4,-0.5483397841,,,
38.1093750000,4,-0.4361571968,,,
38.1250000000,4,-0.3381347954,,,
38.1406250000,4,-0.2451172024,,,
38.1562500000,4,-0.1873778999,,,
38.1718750000,4,-0.2061768025,,,
38.1875000000,4,-0.3342284858,,,
38.2031250000,4,-0.5377197266,,,
38.2187500000,4,-0.7500000000,,,
38.2343750000,4,-0.8846436143,,,
38.2500000000,4,-0.8937988281,,,
38.2656250000,4,-0.7786865234,,,
38.2812500000,4,-0.5833740234,,,
38.2968750000,4,-0.3677979112,,,
38.3125000000,4,-0.1824951023,,,
38.3281250000,4,-0.0749511719,,,
38.3437500000,4,-0.0758056566,,,
38.3593750000,4,-0.2145995945,,,
38.3750000000,4,-0.4749755859,,,
38.3906250000,4,-0.7856444716,,,
38.4062500000,4,-1.0135500431,,,
38.4218750000,4,-1.0416259766,,,
38.4375000000,4,-0.8171386719,,,
38.4531250000,4,-0.3997803032,,,
38.4687500000,4,0.0559081994,,,
38.4843750000,4,0.3989258111,,,
38.5000000000,4,0.5288085938,,,
38.5156250000,4,0.4553222954,,,
38.5312500000,4,0.2591553032,,,
38.5468750000,4,0.0434570313,,,
38.5625000000,4,-0.1157227010,,,
38.5781250000,4,-0.1652832031,,,
38.5937500000,4,-0.0892333984,,,
38.6093750000,4,0.1290283054,,,
38.6250000000,4,0.4737549126,,,
38.6406250000,4,0.8834229112,,,
38.6562500000,4,1.2587889433,,,
38.6718750000,4,1.5007319450,,,
38.6875000000,4,1.5544430017,,,
38.7031250000,4,1.4339599609,,,
38.7187500000,4,1.2181400061,,,
38.7343750000,4,0.9976807237,,,
38.7500000000,4,0.8250731826,,,
38.7656250000,4,0.7247313857,,,
38.7812500000,4,0.6981201172,,,
38.7968750000,4,0.7648925781,,,
38.8125000000,4,0.9464110732,,,
38.8281250000,4,1.2532960176,,,
38.8437500000,4,1.6474610567,,,
38.8593750000,4,2.0407710075,,,
38.8750000000,4,2.3261721134,,,
38.8906250000,4,2.3964838982,,,
38.9062500000,4,2.2025148869,,,
38.9218750000,4,1.7291259766,,,
38.9375000000,4,1.0299069881,,,
38.9531250000,4,0.2061768025,,,
38.9687500000,4,-0.5904541016,,,
38.9843750000,4,-1.2142330408,,,
39.0000000000,4,-1.5838619471,,,
39.0156250000,4,-1.7197270393,,,
39.0312500000,4,-1.7457280159,,,
39.0468750000,4,-1.8149410486,,,
39.0625000000,4,-2.0340580940,,,
39.0781250000,4,-2.3706049919,,,
39.0937500000,4,-2.6864008904,,,
39.1093750000,4,-2.7853999138,,,
39.1250000000,4,-2.5209960938,,,
39.1406250000,4,-1.8577879667,,,
39.1562500000,4,-0.9069824219,,,
39.1718750000,4,0.1177979037,,,
39.1875000000,4,1.0013430119,,,
39.2031250000,4,1.5694580078,,,
39.2187500000,4,1.7629389763,,,
39.2343750000,4,1.6142580509,,,
39.2500000000,4,1.2468260527,,,
39.2656250000,4,0.8088378906,,,
39.2812500000,4,0.4200438857,,,
39.2968750000,4,0.1448975056,,,
39.3125000000,4,-0.0113525400,,,
39.3281250000,4,-0.0756835863,,,
39.3437500000,4,-0.0666503906,,,
39.3593750000,4,0.0273437500,,,
39.3750000000,4,0.2227783054,,,
39.3906250000,4,0.4926758111,,,
39.4062500000,4,0.7532958984,,,
39.4218750000,4,0.8900145888,,,
39.4375000000,4,0.8190917969,,,
39.4531250000,4,0.5417479873,,,
39.4687500000,4,0.1535644978,,,
39.4843750000,4,-0.1989745945,,,
39.5000000000,4,-0.4078369141,,,
39.5156250000,4,-0.4610596001,,,
39.5312500000,4,-0.4539794922,,,
39.5468750000,4,-0.5102539063,,,
39.5625000000,4,-0.7080078125,,,
39.5781250000,4,-1.0238039494,,,
39.5937500000,4,-1.3574219942,,,
39.6093750000,4,-1.5848389864,,,
39.6250000000,4,-1.6256099939,,,
39.6406250000,4,-1.4627690315,,,
39.6562500000,4,-1.1380620003,,,
39.6718750000,4,-0.7072753906,,,
39.6875000000,4,-0.2259521037,,,
39.7031250000,4,0.2409667969,,,
39.7187500000,4,0.6318358779,,,
39.7343750000,4,0.8620604873,,,
39.7500000000,4,0.8851317763,,,
39.7656250000,4,0.6976317763,,,
39.7812500000,4,0.3647460938,,,
39.7968750000,4,-0.0092773438,,,
39.8125000000,4,-0.3282471001,,,
39.8281250000,4,-0.5266113281,,,
39.8437500000,4,-0.6090087891,,,
39.8593750000,4,-0.6179199219,,,
39.8750000000,4,-0.6137694716,,,
39.8906250000,4,-0.6403809190,,,
39.9062500000,4,-0.7128906250,,,
39.9218750000,4,-0.8112792969,,,
39.9375000000,4,-0.9000244141,,,
39.9531250000,4,-0.9296875000,,,
39.9687500000,4,-0.8773192763,,,
39.9843750000,4,-0.7478026748,,,
40.0000000000,5,-0.5906981826,,,
40.0156250000,5,-0.4708251953,,,
40.0312500000,5,-0.4434813857,,,
40.0468750000,5,-0.5131835938,,,
40.0625000000,5,-0.6088867188,,,
40.0781250000,5,-0.6151123047,,,
40.0937500000,5,-0.4355469048,,,
40.1093750000,5,-0.0573730506,,,
40.1250000000,5,0.4355469048,,,
40.1406250000,5,0.8817139268,,,
40.1562500000,5,1.1423339844,,,
40.1718750000,5,1.1805419922,,,
40.1875000000,5,1.0876460075,,,
40.2031250000,5,1.0180660486,,,
40.2187500000,5,1.0773930550,,,
40.2343750000,5,1.2386469841,,,
40.2500000000,5,1.3347170353,,,
40.2656250000,5,1.1695560217,,,
40.2812500000,5,0.6685791016,,,
40.2968750000,5,-0.0208740197,,,
40.3125000000,5,-0.6077880859,,,
40.3281250000,5,-0.7907714844,,,
40.3437500000,5,-0.4735107124,,,
40.3593750000,5,0.1762695014,,,
40.3750000000,5,0.8106688857,,,
40.3906250000,5,1.0919189453,,,
40.4062500000,5,0.8813477159,,,
40.4218750000,5,0.3039551079,,,
40.4375000000,5,-0.3553467095,,,
40.4531250000,5,-0.8248291016,,,
40.4687500000,5,-0.9809569716,,,
40.4843750000,5,-0.9001464844,,,
40.5000000000,5,-0.7625731826,,,
40.5156250000,5,-0.7192382813,,,
40.5312500000,5,-0.8192139268,,,
40.5468750000,5,-0.9851074219,,,
40.5625000000,5,-1.1016850471,,,
40.5781250000,5,-1.0734859705,,,
40.5937500000,5,-0.8879395127,,,
40.6093750000,5,-0.6185302734,,,
40.6250000000,5,-0.3847655952,,,
40.6406250000,5,-0.3063965142,,,
40.6562500000,5,-0.4262695014,,,
40.6718750000,5,-0.6978759766,,,
40.6875000000,5,-0.9941406250,,,
40.7031250000,5,-1.1761469841,,,
40.7187500000,5,-1.1602779627,,,
40.7343750000,5,-0.9486083984,,,
40.7500000000,5,-0.6173095703,,,
40.7656250000,5,-0.2622070014,,,
40.7812500000,5,0.0610351600,,,
40.7968750000,5,0.3619385064,,,
40.8125000000,5,0.6693115234,,,
40.8281250000,5,1.0034179688,,,
40.8437500000,5,1.3168950081,,,
40.8593750000,5,1.5148930550,,,
40.8750000000,5,1.5089110136,,,
40.8906250000,5,1.2783199549,,,
40.9062500000,5,0.8981934190,,,
40.9218750000,5,0.5043944716,,,
40.9375000000,5,0.2042236030,,,
40.9531250000,5,0.0157470703,,,
40.9687500000,5,-0.1036377028,,,
40.9843750000,5,-0.2440185994,,,
41.0000000000,5,-0.4566650093,,,
41.0156250000,5,-0.7373046875,,,
41.0312500000,5,-1.0502929688,,,
41.0468750000,5,-1.3514399529,,,
41.0625000000,5,-1.6380620003,,,
41.0781250000,5,-1.9300539494,,,
41.0937500000,5,-2.2393798828,,,
41.1093750000,5,-2.5303959846,,,
41.1250000000,5,-2.7154541016,,,
41.1406250000,5,-2.7047119141,,,
41.1562500000,5,-2.4587399960,,,
41.1718750000,5,-2.0137939453,,,
41.1875000000,5,-1.4687500000,,,
41.2031250000,5,-0.9343261719,,,
41.2187500000,5,-0.4833984077,,,
41.2343750000,5,-0.1425780952,,,
41.2500000000,5,0.0952148363,,,
41.2656250000,5,0.2393798977,,,
41.2812500000,5,0.2995604873,,,
41.2968750000,5,0.3061523139,,,
41.3125000000,5,0.2924804986,,,
41.3281250000,5,0.2961426079,,,
41.3437500000,5,0.3413085938,,,
41.3593750000,5,0.4023438096,,,
41.3750000000,5,0.4309082031,,,
41.3906250000,5,0.3978270888,,,
41.4062500000,5,0.3092041016,,,
41.4218750000,5,0.2276611030,,,
41.4375000000,5,0.2249756008,,,
41.4531250000,5,0.3123778999,,,
41.4687500000,5,0.4714354873,,,
41.4843750000,5,0.6252440810,,,
41.5000000000,5,0.7264404297,,,
41.5156250000,5,0.7845458984,,,
41.5312500000,5,0.8549805284,,,
41.5468750000,5,1.0030519962,,,
41.5625000000,5,1.2336430550,,,
41.5781250000,5,1.4565429688,,,
41.5937500000,5,1.5258790255,,,
41.6093750000,5,1.3370360136,,,
41.6250000000,5,0.8900145888,,,
41.6406250000,5,0.2915039063,,,
41.6562500000,5,-0.2846679986,,,
41.6718750000,5,-0.6778563857,,,
41.6875000000,5,-0.7830811143,,,
41.7031250000,5,-0.5960692763,,,
41.7187500000,5,-0.1840820014,,,
41.7343750000,5,0.3420409858,,,
41.7500000000,5,0.8594970703,,,
41.7656250000,5,1.2644040585,,,
41.7812500000,5,1.4916989803,,,
41.7968750000,5,1.5437010527,,,
41.8125000000,5,1.4732669592,,,
41.8281250000,5,1.3647459745,,,
41.8437500000,5,1.2954100370,,,
41.8593750000,5,1.3021240234,,,
41.8750000000,5,1.3580319881,,,
41.8906250000,5,1.4185789824,,,
41.9062500000,5,1.4505620003,,,
41.9218750000,5,1.4753420353,,,
41.9375000000,5,1.5626219511,,,
41.9531250000,5,1.7550050020,,,
41.9687500000,5,2.0378420353,,,
41.9843750000,5,2.3161621094,,,
42.0000000000,5,2.4799799919,,,
42.0156250000,5,2.4604489803,,,
42.0312500000,5,2.2666020393,,,
42.0468750000,5,1.9551999569,,,
42.0625000000,5,1.6094969511,,,
42.0781250000,5,1.2553709745,,,
42.0937500000,5,0.8706055284,,,
42.1093750000,5,0.4351806939,,,
42.1250000000,5,-0.0159912091,,,
42.1406250000,5,-0.3865967095,,,
42.1562500000,5,-0.5700684190,,,
42.1718750000,5,-0.5264893174,,,
42.1875000000,5,-0.3499755859,,,
42.2031250000,5,-0.2023925930,,,
42.2187500000,5,-0.2293701023,,,
42.2343750000,5,-0.4633789063,,,
42.2500000000,5,-0.7955322266,,,
42.2656250000,5,-1.0461430550,,,
42.2812500000,5,-1.0836180449,,,
42.2968750000,5,-0.8808593750,,,
42.3125000000,5,-0.5258789063,,,
42.3281250000,5,-0.1351318061,,,
42.3437500000,5,0.2106934041,,,
42.3593750000,5,0.4902344048,,,
42.3750000000,5,0.7048339844,,,
42.3906250000,5,0.8328856826,,,
42.4062500000,5,0.8336182237,,,
42.4218750000,5,0.6729735732,,,
42.4375000000,5,0.3549804986,,,
42.4531250000,5,-0.0446777306,,,
42.4687500000,5,-0.4237061143,,,
42.4843750000,5,-0.7026367188,,,
42.5000000000,5,-0.8526610732,,,
42.5156250000,5,-0.8913574219,,,
42.5312500000,5,-0.8372802734,,,
42.5468750000,5,-0.6977539063,,,
42.5625000000,5,-0.4442138970,,,
42.5781250000,5,-0.0731201172,,,
42.5937500000,5,0.3774414063,,,
42.6093750000,5,0.8155518174,,,
42.6250000000,5,1.1444089413,,,
42.6406250000,5,1.2951660156,,,
42.6562500000,5,1.2454830408,,,
42.6718750000,5,1.0344239473,,,
42.6875000000,5,0.7064208984,,,
42.7031250000,5,0.3095703125,,,
42.7187500000,5,-0.1209717020,,,
42.7343750000,5,-0.5549315810,,,
42.7500000000,5,-0.9558104873,,,
42.7656250000,5,-1.2661130428,,,
42.7812500000,5,-1.4121090174,,,
42.7968750000,5,-1.3062740564,,,
42.8125000000,5,-0.9016113281,,,
42.8281250000,5,-0.2333983928,,,
42.8437500000,5,0.5688477159,,,
42.8593750000,5,1.3226319551,,,
42.8750000000,5,1.8609620333,,,
42.8906250000,5,2.0773930550,,,
42.9062500000,5,1.9730219841,,,
42.9218750000,5,1.6269530058,,,
42.9375000000,5,1.1489260197,,,
42.9531250000,5,0.6198729873,,,
42.9687500000,5,0.0841064528,,,
42.9843750000,5,-0.4468994141,,,
43.0000000000,5,-0.9566649795,,,
43.0156250000,5,-1.4050290585,,,
43.0312500000,5,-1.7407230139,,,
43.0468750000,5,-1.9591059685,,,
43.0625000000,5,-2.1162109375,,,
43.0781250000,5,-2.3262939453,,,
43.0937500000,5,-2.6981201172,,,
43.1093750000,5,-3.2701420784,,,
43.1250000000,5,-3.9360349178,,,
43.1406250000,5,-4.4541020393,,,
43.1562500000,5,-4.5601811409,,,
43.1718750000,5,-4.0838618279,,,
43.1875000000,5,-3.0614008904,,,
43.2031250000,5,-1.7674560547,,,
43.2187500000,5,-0.5925292969,,,
43.2343750000,5,0.1365966946,,,
43.2500000000,5,0.2965087891,,,
43.2656250000,5,0.0185546894,,,
43.2812500000,5,-0.4195556939,,,
43.2968750000,5,-0.7525634766,,,
43.3125000000,5,-0.8330078125,,,
43.3281250000,5,-0.6623535156,,,
43.3437500000,5,-0.3150635064,,,
43.3593750000,5,0.1362304986,,,
43.3750000000,5,0.6655272841,,,
43.3906250000,5,1.2465820313,,,
43.4062500000,5,1.8150629997,,,
43.4218750000,5,2.2547609806,,,
43.4375000000,5,2.4475100040,,,
43.4531250000,5,2.3408200741,,,
43.4687500000,5,2.0023190975,,,
43.4843750000,5,1.5800780058,,,
43.5000000000,5,1.2373050451,,,
43.5156250000,5,1.0747070313,,,
43.5312500000,5,1.0915529728,,,
43.5468750000,5,1.2005620003,,,
43.5625000000,5,1.2861330509,,,
43.5781250000,5,1.2326660156,,,
43.5937500000,5,0.9846190810,,,
43.6093750000,5,0.5374755859,,,
43.6250000000,5,-0.0407714806,,,
43.6406250000,5,-0.6435546875,,,
43.6562500000,5,-1.1534420252,,,
43.6718750000,5,-1.4952390194,,,
43.6875000000,5,-1.6339110136,,,
43.7031250000,5,-1.5943599939,,,
43.7187500000,5,-1.4331049919,,,
43.7343750000,5,-1.2097170353,,,
43.7500000000,5,-0.9836425781,,,
43.7656250000,5,-0.7987061143,,,
43.7812500000,5,-0.6739501953,,,
43.7968750000,5,-0.6030272841,,,
43.8125000000,5,-0.5482177734,,,
43.8281250000,5,-0.4545898139,,,
43.8437500000,5,-0.2917479873,,,
43.8593750000,5,-0.0902099609,,,
43.8750000000,5,0.0957031325,,,
43.8906250000,5,0.1940917969,,,
43.9062500000,5,0.1787108928,,,
43.9218750000,5,0.0946044922,,,
43.9375000000,5,0.0321044885,,,
43.9531250000,5,0.0932617188,,,
43.9687500000,5,0.3018799126,,,
43.9843750000,5,0.5998535156,,,
44.0000000000,5,0.8666992188,,,
44.0156250000,5,0.9809569716,,,
44.0312500000,5,0.8854979873,,,
44.0468750000,5,0.6104735732,,,
44.0625000000,5,0.2727051079,,,
44.0781250000,5,-0.0072021480,,,
44.0937500000,5,-0.1215820014,,,
44.1093750000,5,-0.0366210900,,,
44.1250000000,5,0.1975097954,,,
44.1406250000,5,0.4654541016,,,
44.1562500000,5,0.6497802734,,,
44.1718750000,5,0.6623535156,,,
44.1875000000,5,0.5268555284,,,
44.2031250000,5,0.3397217095,,,
44.2187500000,5,0.2229004055,,,
44.2343750000,5,0.2475585938,,,
44.2500000000,5,0.3652344048,,,
44.2656250000,5,0.4477539063,,,
44.2812500000,5,0.3510741889,,,
44.2968750000,5,0.0059814448,,,
44.3125000000,5,-0.5473632813,,,
44.3281250000,5,-1.1633299589,,,
44.3437500000,5,-1.6723630428,,,
44.3593750000,5,-1.9648439884,,,
44.3750000000,5,-2.0179440975,,,
44.3906250000,5,-1.8870849609,,,
44.4062500000,5,-1.6451419592,,,
44.4218750000,5,-1.3374019861,,,
44.4375000000,5,-0.9948729873,,,
44.4531250000,5,-0.6138916016,,,
44.4687500000,5,-0.2102050930,,,
44.4843750000,5,0.1790771037,,,
44.5000000000,5,0.5109863281,,,
44.5156250000,5,0.7410889268,,,
44.5312500000,5,0.8400878906,,,
44.5468750000,5,0.7915039063,,,
44.5625000000,5,0.6198729873,,,
44.5781250000,5,0.3631592095,,,
44.5937500000,5,0.0770263672,,,
44.6093750000,5,-0.1770019978,,,
44.6250000000,5,-0.3735351861,,,
44.6406250000,5,-0.5212401748,,,
44.6562500000,5,-0.6383057237,,,
44.6718750000,5,-0.7620850205,,,
44.6875000000,5,-0.8897705078,,,
44.7031250000,5,-1.0156250000,,,
44.7187500000,5,-1.1157230139,,,
44.7343750000,5,-1.1835939884,,,
44.7500000000,5,-1.2325439453,,,
44.7656250000,5,-1.3148189783,,,
44.7812500000,5,-1.4764399529,,,
44.7968750000,5,-1.7192380428,,,
44.8125000000,5,-1.9898680449,,,
44.8281250000,5,-2.1745610237,,,
44.8437500000,5,-2.1555180550,,,
44.8593750000,5,-1.8586430550,,,
44.8750000000,5,-1.2873539925,,,
44.8906250000,5,-0.5584716797,,,
44.9062500000,5,0.1612548977,,,
44.9218750000,5,0.7152100205,,,
44.9375000000,5,1.0107419491,,,
44.9531250000,5,1.0562740564,,,
44.9687500000,5,0.9333496094,,,
44.9843750000,5,0.7312011719,,,
45.0000000000,5,0.5125731826,,,
45.0156250000,5,0.2720946968,,,
45.0312500000,5,0.0139160203,,,
45.0468750000,5,-0.2415771037,,,
45.0625000000,5,-0.4278563857,,,
45.0781250000,5,-0.4554443061,,,
45.0937500000,5,-0.2872313857,,,
45.1093750000,5,0.0510253906,,,
45.1250000000,5,0.4387207031,,,
45.1406250000,5,0.7025145888,,,
45.1562500000,5,0.6901854873,,,
45.1718750000,5,0.3297119141,,,
45.1875000000,5,-0.3048096001,,,
45.2031250000,5,-1.0423580408,,,
45.2187500000,5,-1.6748050451,,,
45.2343750000,5,-2.0526120663,,,
45.2500000000,5,-2.1329350471,,,
45.2656250000,5,-2.0007319450,,,
45.2812500000,5,-1.8104250431,,,
45.2968750000,5,-1.6796879768,,,
45.3125000000,5,-1.6618649960,,,
45.3281250000,5,-1.7111819983,,,
45.3437500000,5,-1.7303470373,,,
45.3593750000,5,-1.6425780058,,,
45.3750000000,5,-1.4198000431,,,
45.3906250000,5,-1.0902099609,,,
45.4062500000,5,-0.7015380859,,,
45.4218750000,5,-0.2746582031,,,
45.4375000000,5,0.1920166016,,,
45.4531250000,5,0.6990966797,,,
45.4687500000,5,1.2227779627,,,
45.4843750000,5,1.7021479607,,,
45.5000000000,5,2.0811769962,,,
45.5156250000,5,2.3050539494,,,
45.5312500000,5,2.3679199219,,,
45.5468750000,5,2.3007810116,,,
45.5625000000,5,2.1480710506,,,
45.5781250000,5,1.9497070313,,,
45.5937500000,5,1.7055660486,,,
45.6093750000,5,1.4176030159,,,
45.6250000000,5,1.0875240564,,,
45.6406250000,5,0.7563477159,,,
45.6562500000,5,0.4738770127,,,
45.6718750000,5,0.2869873047,,,
45.6875000000,5,0.1966553032,,,
45.7031250000,5,0.1677245945,,,
45.7187500000,5,0.1381835938,,,
45.7343750000,5,0.0639648363,,,
45.7500000000,5,-0.0416259803,,,
45.7656250000,5,-0.1148682013,,,
45.7812500000,5,-0.0773925781,,,
45.7968750000,5,0.1112060994,,,
45.8125000000,5,0.4273681939,,,
45.8281250000,5,0.7630615234,,,
45.8437500000,5,0.9700927734,,,
45.8593750000,5,0.9333496094,,,
45.8750000000,5,0.6309813857,,,
45.8906250000,5,0.1480713040,,,
45.9062500000,5,-0.3472900093,,,
45.9218750000,5,-0.6872559190,,,
45.9375000000,5,-0.7888184190,,,
45.9531250000,5,-0.6713867188,,,
45.9687500000,5,-0.4537354112,,,
45.9843750000,5,-0.2666015923,,,
46.0000000000,5,-0.1823730022,,,
46.0156250000,5,-0.1739501953,,,
46.0312500000,5,-0.1398925930,,,
46.0468750000,5,0.0227050800,,,
46.0625000000,5,0.3693847954,,,
46.0781250000,5,0.8488770127,,,
46.0937500000,5,1.3493649960,,,
46.1093750000,5,1.7380369902,,,
46.1250000000,5,1.9038089514,,,
46.1406250000,5,1.8096920252,,,
46.1562500000,5,1.4663089514,,,
46.1718750000,5,0.9279785156,,,
46.1875000000,5,0.2961426079,,,
46.2031250000,5,-0.3013916016,,,
46.2187500000,5,-0.7188720703,,,
46.2343750000,5,-0.8382567763,,,
46.2500000000,5,-0.6079102159,,,
46.2656250000,5,-0.0594482385,,,
46.2812500000,5,0.7093505859,,,
46.2968750000,5,1.5568850040,,,
46.3125000000,5,2.3449709415,,,
46.3281250000,5,2.9353029728,,,
46.3437500000,5,3.2161870003,,,
46.3593750000,5,3.1202390194,,,
46.3750000000,5,2.6601560116,,,
46.3906250000,5,1.9219969511,,,
46.4062500000,5,1.0847170353,,,
46.4218750000,5,0.3487549126,,,
46.4375000000,5,-0.1452637017,,,
46.4531250000,5,-0.3541260064,,,
46.4687500000,5,-0.3494873047,,,
46.4843750000,5,-0.2526854873,,,
46.5000000000,5,-0.1441649944,,,
46.5156250000,5,-0.0306396503,,,
46.5312500000,5,0.1418457031,,,
46.5468750000,5,0.4262695014,,,
46.5625000000,5,0.8133544922,,,
46.5781250000,5,1.2139890194,,,
46.5937500000,5,1.5318599939,,,
46.6093750000,5,1.6956789494,,,
46.6250000000,5,1.6834720373,,,
46.6406250000,5,1.5172120333,,,
46.6562500000,5,1.2264399529,,,
46.6718750000,5,0.8352050781,,,
46.6875000000,5,0.3791503906,,,
46.7031250000,5,-0.1004638970,,,
46.7187500000,5,-0.5493164063,,,
46.7343750000,5,-0.8979492188,,,
46.7500000000,5,-1.1049799919,,,
46.7656250000,5,-1.1661380529,,,
46.7812500000,5,-1.1064449549,,,
46.7968750000,5,-0.9782714844,,,
46.8125000000,5,-0.8392333984,,,
46.8281250000,5,-0.7714843750,,,
46.8437500000,5,-0.8416748047,,,
46.8593750000,5,-1.0955810547,,,
46.8750000000,5,-1.5035400391,,,
46.8906250000,5,-1.9600830078,,,
46.9062500000,5,-2.3009030819,,,
46.9218750000,5,-2.3524169922,,,
46.9375000000,5,-2.0181879997,,,
46.9531250000,5,-1.3250730038,,,
46.9687500000,5,-0.4119873047,,,
46.9843750000,5,0.5152587891,,,
47.0000000000,5,1.2580569983,,,
47.0156250000,5,1.6855469942,,,
47.0312500000,5,1.7698969841,,,
47.0468750000,5,1.5731199980,,,
47.0625000000,5,1.2122800350,,,
47.0781250000,5,0.8103026748,,,
47.0937500000,5,0.4688721001,,,
47.1093750000,5,0.2362060994,,,
47.1250000000,5,0.1091308966,,,
47.1406250000,5,0.0437011681,,,
47.1562500000,5,-0.0363769494,,,
47.1718750000,5,-0.2011719048,,,
47.1875000000,5,-0.4997558892,,,
47.2031250000,5,-0.9311522841,,,
47.2187500000,5,-1.4351810217,,,
47.2343750000,5,-1.8919680119,,,
47.2500000000,5,-2.1603999138,,,
47.2656250000,5,-2.1151120663,,,
47.2812500000,5,-1.7258299589,,,
47.2968750000,5,-1.0668950081,,,
47.3125000000,5,-0.3004150093,,,
47.3281250000,5,0.3693847954,,,
47.3437500000,5,0.8103026748,,,
47.3593750000,5,0.9777832031,,,
47.3750000000,5,0.9472656250,,,
47.3906250000,5,0.8469238281,,,
47.4062500000,5,0.7701416016,,,
47.4218750000,5,0.7329102159,,,
47.4375000000,5,0.6770020127,,,
47.4531250000,5,0.5217285156,,,
47.4687500000,5,0.2625732124,,,
47.4843750000,5,-0.0079345703,,,
47.5000000000,5,-0.1448975056,,,
47.5156250000,5,-0.0390625000,,,
47.5312500000,5,0.2796630859,,,
47.5468750000,5,0.6528319716,,,
47.5625000000,5,0.8612061143,,,
47.5781250000,5,0.7567139268,,,
47.5937500000,5,0.3500976861,,,
47.6093750000,5,-0.1853027046,,,
47.6250000000,5,-0.6237792969,,,
47.6406250000,5,-0.7994384766,,,
47.6562500000,5,-0.6992188096,,,
47.6718750000,5,-0.4257813096,,,
47.6875000000,5,-0.1234131008,,,
47.7031250000,5,0.1217041016,,,
47.7187500000,5,0.2987061143,,,
47.7343750000,5,0.4588623047,,,
47.7500000000,5,0.6252440810,,,
47.7656250000,5,0.8023682237,,,
47.7812500000,5,0.9470214844,,,
47.7968750000,5,1.0335689783,,,
47.8125000000,5,1.0751949549,,,
47.8281250000,5,1.0876460075,,,
47.8437500000,5,1.0898439884,,,
47.8593750000,5,1.0551760197,,,
47.8750000000,5,0.9417725205,,,
47.8906250000,5,0.6997069716,,,
47.9062500000,5,0.3215332031,,,
47.9218750000,5,-0.1441649944,,,
47.9375000000,5,-0.6181641221,,,
47.9531250000,5,-1.0317380428,,,
47.9687500000,5,-1.3114010096,,,
47.9843750000,5,-1.4323730469,,,
48.0000000000,6,-1.3831789494,,,
48.0156250000,6,-1.1923830509,,,
48.0312500000,6,-0.9182128906,,,
48.0468750000,6,-0.6485595703,,,
48.0625000000,6,-0.4881592095,,,
48.0781250000,6,-0.4838866889,,,
48.0937500000,6,-0.6330565810,,,
48.1093750000,6,-0.8635253906,,,
48.1250000000,6,-1.0847170353,,,
48.1406250000,6,-1.2337650061,,,
48.1562500000,6,-1.2918699980,,,
48.1718750000,6,-1.2963869572,,,
48.1875000000,6,-1.2960209846,,,
48.2031250000,6,-1.3173830509,,,
48.2187500000,6,-1.3515629768,,,
48.2343750000,6,-1.3471679688,,,
48.2500000000,6,-1.2485350370,,,
48.2656250000,6,-1.0300290585,,,
48.2812500000,6,-0.7120360732,,,
48.2968750000,6,-0.3510741889,,,
48.3125000000,6,-0.0083007813,,,
48.3281250000,6,0.2913818061,,,
48.3437500000,6,0.5681151748,,,
48.3593750000,6,0.8665770888,,,
48.3750000000,6,1.2111819983,,,
48.3906250000,6,1.5772709846,,,
48.4062500000,6,1.8953859806,,,
48.4218750000,6,2.0993649960,,,
48.4375000000,6,2.1655271053,,,
48.4531250000,6,2.1210939884,,,
48.4687500000,6,2.0322270393,,,
48.4843750000,6,1.9481199980,,,
48.5000000000,6,1.8570560217,,,
48.5156250000,6,1.6859129667,,,
48.5312500000,6,1.3682860136,,,
48.5468750000,6,0.8955078125,,,
48.5625000000,6,0.3310546875,,,
48.5781250000,6,-0.1884766072,,,
48.5937500000,6,-0.5349121094,,,
48.6093750000,6,-0.6506348252,,,
48.6250000000,6,-0.5671386719,,,
48.6406250000,6,-0.3995361030,,,
48.6562500000,6,-0.2799071968,,,
48.6718750000,6,-0.2978515923,,,
48.6875000000,6,-0.4709472954,,,
48.7031250000,6,-0.7421875000,,,
48.7187500000,6,-1.0213619471,,,
48.7343750000,6,-1.2285159826,,,
48.7500000000,6,-1.3284909725,,,
48.7656250000,6,-1.3489990234,,,
48.7812500000,6,-1.3548580408,,,
48.7968750000,6,-1.3897709846,,,
48.8125000000,6,-1.4720460176,,,
48.8281250000,6,-1.5662839413,,,
48.8437500000,6,-1.6093750000,,,
48.8593750000,6,-1.5520019531,,,
48.8750000000,6,-1.3760989904,,,
48.8906250000,6,-1.1002199650,,,
48.9062500000,6,-0.7746582031,,,
48.9218750000,6,-0.4278563857,,,
48.9375000000,6,-0.0579833984,,,
48.9531250000,6,0.3608398139,,,
48.9687500000,6,0.8342285156,,,
48.9843750000,6,1.3249510527,,,
49.0000000000,6,1.7218019962,,,
49.0156250000,6,1.8858640194,,,
49.0312500000,6,1.7209470272,,,
49.0468750000,6,1.2421879768,,,
49.0625000000,6,0.5649414063,,,
49.0781250000,6,-0.1309814006,,,
49.0937500000,6,-0.6656494141,,,
49.1093750000,6,-0.9626464844,,,
49.1250000000,6,-1.0512700081,,,
49.1406250000,6,-1.0176999569,,,
49.1562500000,6,-0.9528809190,,,
49.1718750000,6,-0.8995360732,,,
49.1875000000,6,-0.8511962891,,,
49.2031250000,6,-0.7955322266,,,
49.2187500000,6,-0.7521973252,,,
49.2343750000,6,-0.7672119141,,,
49.2500000000,6,-0.8724365234,,,
49.2656250000,6,-1.0476069450,,,
49.2812500000,6,-1.2081300020,,,
49.2968750000,6,-1.2591550350,,,
49.3125000000,6,-1.1458740234,,,
49.3281250000,6,-0.8961182237,,,
49.3437500000,6,-0.5802001953,,,
49.3593750000,6,-0.2684325874,,,
49.3750000000,6,0.0328369103,,,
49.3906250000,6,0.3730469048,,,
49.4062500000,6,0.7906494141,,,
49.4218750000,6,1.2547609806,,,
49.4375000000,6,1.6396479607,,,
49.4531250000,6,1.7905269861,,,
49.4687500000,6,1.6126710176,,,
49.4843750000,6,1.1564940214,,,
49.5000000000,6,0.5897216797,,,
49.5156250000,6,0.1169433966,,,
49.5312500000,6,-0.1350097954,,,
49.5468750000,6,-0.1475829929,,,
49.5625000000,6,-0.0036621089,,,
49.5781250000,6,0.1766356975,,,
49.5937500000,6,0.3033446968,,,
49.6093750000,6,0.3475342095,,,
49.6250000000,6,0.3094482124,,,
49.6406250000,6,0.2045897990,,,
49.6562500000,6,0.0637207031,,,
49.6718750000,6,-0.0771484375,,,
49.6875000000,6,-0.1506347954,,,
49.7031250000,6,-0.0928955078,,,
49.7187500000,6,0.1245116964,,,
49.7343750000,6,0.4769287109,,,
49.7500000000,6,0.8651123047,,,
49.7656250000,6,1.1408690214,,,
49.7812500000,6,1.1848139763,,,
49.7968750000,6,0.9151610732,,,
49.8125000000,6,0.3397217095,,,
49.8281250000,6,-0.4637450874,,,
49.8437500000,6,-1.3732910156,,,
49.8593750000,6,-2.2351069450,,,
49.8750000000,6,-2.8999021053,,,
49.8906250000,6,-3.2435300350,,,
49.9062500000,6,-3.1968989372,,,
49.9218750000,6,-2.7750239372,,,
49.9375000000,6,-2.0721440315,,,
49.9531250000,6,-1.2574460506,,,
49.9687500000,6,-0.5446776748,,,
49.9843750000,6,-0.1125487983,,,
50.0000000000,6,-0.0560302697,,,
50.0156250000,6,-0.3441162109,,,
50.0312500000,6,-0.8375244141,,,
50.0468750000,6,-1.3516850471,,,
50.0625000000,6,-1.7333979607,,,
50.0781250000,6,-1.9206540585,,,
50.0937500000,6,-1.9559329748,,,
50.1093750000,6,-1.9338380098,,,
50.1250000000,6,-1.9349370003,,,
50.1406250000,6,-1.9794919491,,,
50.1562500000,6,-2.0328369141,,,
50.1718750000,6,-2.0450439453,,,
50.1875000000,6,-1.9642330408,,,
50.2031250000,6,-1.7640379667,,,
50.2187500000,6,-1.4510500431,,,
50.2343750000,6,-1.0408940315,,,
50.2500000000,6,-0.5614014268,,,
50.2656250000,6,-0.0838622972,,,
50.2812500000,6,0.3087157905,,,
50.2968750000,6,0.5419921875,,,
50.3125000000,6,0.5872802734,,,
50.3281250000,6,0.4995116889,,,
50.3437500000,6,0.3924561143,,,
50.3593750000,6,0.3895263970,,,
50.3750000000,6,0.5449218750,,,
50.3906250000,6,0.8267822266,,,
50.4062500000,6,1.1522220373,,,
50.4218750000,6,1.4165040255,,,
50.4375000000,6,1.5786130428,,,
50.4531250000,6,1.6448969841,,,
50.4687500000,6,1.6579589844,,,
50.4843750000,6,1.6497800350,,,
50.5000000000,6,1.6265870333,,,
50.5156250000,6,1.5805660486,,,
50.5312500000,6,1.5332030058,,,
50.5468750000,6,1.4962160587,,,
50.5625000000,6,1.4815670252,,,
50.5781250000,6,1.4703370333,,,
50.5937500000,6,1.4041750431,,,
50.6093750000,6,1.1864010096,,,
50.6250000000,6,0.7554932237,,,
50.6406250000,6,0.1080321968,,,
50.6562500000,6,-0.6567382813,,,
50.6718750000,6,-1.3818360567,,,
50.6875000000,6,-1.8856199980,,,
50.7031250000,6,-2.0441889763,,,
50.7187500000,6,-1.8312989473,,,
50.7343750000,6,-1.3193360567,,,
50.7500000000,6,-0.6428223252,,,
50.7656250000,6,0.0531005897,,,
50.7812500000,6,0.6389160156,,,
50.7968750000,6,1.0360109806,,,
50.8125000000,6,1.2049560547,,,
50.8281250000,6,1.1640629768,,,
50.8437500000,6,0.9606934190,,,
50.8593750000,6,0.6757813096,,,
50.8750000000,6,0.3850097954,,,
50.8906250000,6,0.1363524944,,,
50.9062500000,6,-0.0535888709,,,
50.9218750000,6,-0.1890868992,,,
50.9375000000,6,-0.2683104873,,,
50.9531250000,6,-0.2745361030,,,
50.9687500000,6,-0.1717528999,,,
50.9843750000,6,0.0543212891,,,
51.0000000000,6,0.3717041016,,,
51.0156250000,6,0.6735839844,,,
51.0312500000,6,0.8613281250,,,
51.0468750000,6,0.8693848252,,,
51.0625000000,6,0.7344970703,,,
51.0781250000,6,0.5632324219,,,
51.0937500000,6,0.4816895127,,,
51.1093750000,6,0.5446776748,,,
51.1250000000,6,0.7049561143,,,
51.1406250000,6,0.8386229873,,,
51.1562500000,6,0.8125000000,,,
51.1718750000,6,0.5621337891,,,
51.1875000000,6,0.1354980022,,,
51.2031250000,6,-0.3172607124,,,
51.2187500000,6,-0.5947266221,,,
51.2343750000,6,-0.5451660156,,,
51.2500000000,6,-0.1337891072,,,
51.2656250000,6,0.5344238281,,,
51.2812500000,6,1.2615970373,,,
51.2968750000,6,1.8507080078,,,
51.3125000000,6,2.2103269100,,,
51.3281250000,6,2.3881840706,,,
51.3437500000,6,2.5043950081,,,
51.3593750000,6,2.6531980038,,,
51.3750000000,6,2.8397219181,,,
51.3906250000,6,2.9647219181,,,
51.4062500000,6,2.8946530819,,,
51.4218750000,6,2.5921630859,,,
51.4375000000,6,2.1314699650,,,
51.4531250000,6,1.6744379997,,,
51.4687500000,6,1.3634029627,,,
51.4843750000,6,1.2359620333,,,
51.5000000000,6,1.2183840275,,,
51.5156250000,6,1.1727290154,,,
51.5312500000,6,1.0048830509,,,
51.5468750000,6,0.6994628906,,,
51.5625000000,6,0.3146972954,,,
51.5781250000,6,-0.0926513672,,,
51.5937500000,6,-0.5041503906,,,
51.6093750000,6,-0.9429932237,,,
51.6250000000,6,-1.4379880428,,,
51.6406250000,6,-1.9671629667,,,
51.6562500000,6,-2.4456789494,,,
51.6718750000,6,-2.7717289925,,,
51.6875000000,6,-2.8717041016,,,
51.7031250000,6,-2.7489008904,,,
51.7187500000,6,-2.4566650391,,,
51.7343750000,6,-2.0754389763,,,
51.7500000000,6,-1.6749269962,,,
51.7656250000,6,-1.3020019531,,,
51.7812500000,6,-0.9868164063,,,
51.7968750000,6,-0.7646483779,,,
51.8125000000,6,-0.6484375000,,,
51.8281250000,6,-0.6180419922,,,
51.8437500000,6,-0.6060791016,,,
51.8593750000,6,-0.5311279297,,,
51.8750000000,6,-0.3380126953,,,
51.8906250000,6,-0.0279540997,,,
51.9062500000,6,0.3218994141,,,
51.9218750000,6,0.6115723252,,,
51.9375000000,6,0.7747802734,,,
51.9531250000,6,0.8068848252,,,
51.9687500000,6,0.7542725205,,,
51.9843750000,6,0.6898192763,,,
52.0000000000,6,0.6588134766,,,
52.0156250000,6,0.6669921875,,,
52.0312500000,6,0.6829833984,,,
52.0468750000,6,0.6761475205,,,
52.0625000000,6,0.6269531250,,,
52.0781250000,6,0.5466309190,,,
52.0937500000,6,0.4719237983,,,
52.1093750000,6,0.4343262017,,,
52.1250000000,6,0.4675292969,,,
52.1406250000,6,0.5545654297,,,
52.1562500000,6,0.6546630859,,,
52.1718750000,6,0.6965332031,,,
52.1875000000,6,0.6225585938,,,
52.2031250000,6,0.4156494141,,,
52.2187500000,6,0.0937500000,,,
52.2343750000,6,-0.2861328125,,,
52.2500000000,6,-0.6774901748,,,
52.2656250000,6,-1.0515140295,,,
52.2812500000,6,-1.3945310116,,,
52.2968750000,6,-1.6811519861,,,
52.3125000000,6,-1.8621829748,,,
52.3281250000,6,-1.8818360567,,,
52.3437500000,6,-1.7111819983,,,
52.3593750000,6,-1.3574219942,,,
52.3750000000,6,-0.8881835938,,,
52.3906250000,6,-0.3872070014,,,
52.4062500000,6,0.0632324219,,,
52.4218750000,6,0.3977051079,,,
52.4375000000,6,0.5797119141,,,
52.4531250000,6,0.5993651748,,,
52.4687500000,6,0.4765625000,,,
52.4843750000,6,0.2717284858,,,
52.5000000000,6,0.0787353516,,,
52.5156250000,6,-0.0141601600,,,
52.5312500000,6,0.0262451209,,,
52.5468750000,6,0.1737060994,,,
52.5625000000,6,0.3526611030,,,
52.5781250000,6,0.4863280952,,,
52.5937500000,6,0.5383300781,,,
52.6093750000,6,0.5153809190,,,
52.6250000000,6,0.4490967095,,,
52.6406250000,6,0.3529053032,,,
52.6562500000,6,0.2470702976,,,
52.6718750000,6,0.1496582031,,,
52.6875000000,6,0.1016846001,,,
52.7031250000,6,0.1688231975,,,
52.7187500000,6,0.3986816108,,,
52.7343750000,6,0.7763671875,,,
52.7500000000,6,1.2061769962,,,
52.7656250000,6,1.5487060547,,,
52.7812500000,6,1.6794430017,,,
52.7968750000,6,1.5588380098,,,
52.8125000000,6,1.2243649960,,,
52.8281250000,6,0.7595214844,,,
52.8437500000,6,0.2430420071,,,
52.8593750000,6,-0.2644042969,,,
52.8750000000,6,-0.7130126953,,,
52.8906250000,6,-1.0502929688,,,
52.9062500000,6,-1.2083740234,,,
52.9218750000,6,-1.1375730038,,,
52.9375000000,6,-0.8721923828,,,
52.9531250000,6,-0.5240479112,,,
52.9687500000,6,-0.2528075874,,,
52.9843750000,6,-0.2048339993,,,
53.0000000000,6,-0.4104003906,,,
53.0156250000,6,-0.7761229873,,,
53.0312500000,6,-1.1232910156,,,
53.0468750000,6,-1.2749019861,,,
53.0625000000,6,-1.1563719511,,,
53.0781250000,6,-0.7965087891,,,
53.0937500000,6,-0.3065186143,,,
53.1093750000,6,0.2034911960,,,
53.1250000000,6,0.6750488281,,,
53.1406250000,6,1.0800780058,,,
53.1562500000,6,1.4201660156,,,
53.1718750000,6,1.6761469841,,,
53.1875000000,6,1.8221440315,,,
53.2031250000,6,1.8303220272,,,
53.2187500000,6,1.7015379667,,,
53.2343750000,6,1.4498289824,,,
53.2500000000,6,1.1083979607,,,
53.2656250000,6,0.7069091797,,,
53.2812500000,6,0.2773438096,,,
53.2968750000,6,-0.1375731975,,,
53.3125000000,6,-0.4853515923,,,
53.3281250000,6,-0.7358397841,,,
53.3437500000,6,-0.8933104873,,,
53.3593750000,6,-0.9934082031,,,
53.3750000000,6,-1.0955810547,,,
53.3906250000,6,-1.2449949980,,,
53.4062500000,6,-1.4404300451,,,
53.4218750000,6,-1.6473389864,,,
53.4375000000,6,-1.8059079647,,,
53.4531250000,6,-1.8728029728,,,
53.4687500000,6,-1.8348389864,,,
53.4843750000,6,-1.7246090174,,,
53.5000000000,6,-1.5946040154,,,
53.5156250000,6,-1.4960939884,,,
53.5312500000,6,-1.4466550350,,,
53.5468750000,6,-1.4051510096,,,
53.5625000000,6,-1.3132319450,,,
53.5781250000,6,-1.1097409725,,,
53.5937500000,6,-0.7940673828,,,
53.6093750000,6,-0.4500732124,,,
53.6250000000,6,-0.2039795071,,,
53.6406250000,6,-0.1672362983,,,
53.6562500000,6,-0.3406982124,,,
53.6718750000,6,-0.6070557237,,,
53.6875000000,6,-0.7852783203,,,
53.7031250000,6,-0.7432860732,,,
53.7187500000,6,-0.4666748047,,,
53.7343750000,6,-0.0981445313,,,
53.7500000000,6,0.1762695014,,,
53.7656250000,6,0.2283935994,,,
53.7812500000,6,0.0850830078,,,
53.7968750000,6,-0.1213378981,,,
53.8125000000,6,-0.2252196968,,,
53.8281250000,6,-0.1373291016,,,
53.8437500000,6,0.1070557013,,,
53.8593750000,6,0.3985596001,,,
53.8750000000,6,0.6160889268,,,
53.8906250000,6,0.7093505859,,,
53.9062500000,6,0.7015380859,,,
53.9218750000,6,0.6536865234,,,
53.9375000000,6,0.6214600205,,,
53.9531250000,6,0.6258544922,,,
53.9687500000,6,0.6666259766,,,
53.9843750000,6,0.7503662109,,,
54.0000000000,6,0.8868408203,,,
54.0156250000,6,1.0833740234,,,
54.0312500000,6,1.3208010197,,,
54.0468750000,6,1.5419919491,,,
54.0625000000,6,1.6602779627,,,
54.0781250000,6,1.6146240234,,,
54.0937500000,6,1.4024660587,,,
54.1093750000,6,1.0816650391,,,
54.1250000000,6,0.7562255859,,,
54.1406250000,6,0.5242919922,,,
54.1562500000,6,0.4274902046,,,
54.1718750000,6,0.4237061143,,,
54.1875000000,6,0.4062500000,,,
54.2031250000,6,0.2572020888,,,
54.2187500000,6,-0.0698242188,,,
54.2343750000,6,-0.5401610732,,,
54.2500000000,6,-1.0321040154,,,
54.2656250000,6,-1.4173580408,,,
54.2812500000,6,-1.6263430119,,,
54.2968750000,6,-1.6892089844,,,
54.3125000000,6,-1.7205810547,,,
54.3281250000,6,-1.8359379768,,,
54.3437500000,6,-2.0771479607,,,
54.3593750000,6,-2.3903810978,,,
54.3750000000,6,-2.6628420353,,,
54.3906250000,6,-2.7753911018,,,
54.4062500000,6,-2.6595458984,,,
54.4218750000,6,-2.3126220703,,,
54.4375000000,6,-1.7810059786,,,
54.4531250000,6,-1.1420899630,,,
54.4687500000,6,-0.4683837891,,,
54.4843750000,6,0.1662597954,,,
54.5000000000,6,0.7014160156,,,
54.5156250000,6,1.0965579748,,,
54.5312500000,6,1.3559570313,,,
54.5468750000,6,1.5156250000,,,
54.5625000000,6,1.6284179688,,,
54.5781250000,6,1.7459720373,,,
54.5937500000,6,1.8851319551,,,
54.6093750000,6,2.0311279297,,,
54.6250000000,6,2.1455080509,,,
54.6406250000,6,2.1950678825,,,
54.6562500000,6,2.1577150822,,,
54.6718750000,6,2.0118410587,,,
54.6875000000,6,1.7310789824,,,
54.7031250000,6,1.3160400391,,,
54.7187500000,6,0.7993164063,,,
54.7343750000,6,0.2642821968,,,
54.7500000000,6,-0.1948242038,,,
54.7656250000,6,-0.4969482124,,,
54.7812500000,6,-0.6347656250,,,
54.7968750000,6,-0.6450194716,,,
54.8125000000,6,-0.5952147841,,,
54.8281250000,6,-0.5551757813,,,
54.8437500000,6,-0.5526123047,,,
54.8593750000,6,-0.5942382813,,,
54.8750000000,6,-0.6829833984,,,
54.8906250000,6,-0.8190917969,,,
54.9062500000,6,-0.9989014268,,,
54.9218750000,6,-1.1864010096,,,
54.9375000000,6,-1.3151860237,,,
54.9531250000,6,-1.3237299919,,,
54.9687500000,6,-1.1882319450,,,
54.9843750000,6,-0.9591063857,,,
55.0000000000,6,-0.7331542969,,,
55.0156250000,6,-0.6302490234,,,
55.0312500000,6,-0.7059326172,,,
55.0468750000,6,-0.9237061143,,,
55.0625000000,6,-1.1972659826,,,
55.0781250000,6,-1.4118649960,,,
55.0937500000,6,-1.4973139763,,,
55.1093750000,6,-1.4503170252,,,
55.1250000000,6,-1.2994379997,,,
55.1406250000,6,-1.0915529728,,,
55.1562500000,6,-0.8317871094,,,
55.1718750000,6,-0.5125731826,,,
55.1875000000,6,-0.1499022990,,,
55.2031250000,6,0.1909179986,,,
55.2187500000,6,0.4085693061,,,
55.2343750000,6,0.4215087891,,,
55.2500000000,6,0.2191161960,,,
55.2656250000,6,-0.0977783203,,,
55.2812500000,6,-0.3654784858,,,
55.2968750000,6,-0.4240722954,,,
55.3125000000,6,-0.1914062947,,,
55.3281250000,6,0.2795409858,,,
55.3437500000,6,0.8244628906,,,
55.3593750000,6,1.2370610237,,,
55.3750000000,6,1.3659670353,,,
55.3906250000,6,1.1531980038,,,
55.4062500000,6,0.6574707031,,,
55.4218750000,6,0.0057373052,,,
55.4375000000,6,-0.6489257813,,,
55.4531250000,6,-1.1715090275,,,
55.4687500000,6,-1.4824219942,,,
55.4843750000,6,-1.5695799589,,,
55.5000000000,6,-1.4681400061,,,
55.5156250000,6,-1.2612299919,,,
55.5312500000,6,-1.0456540585,,,
55.5468750000,6,-0.8801270127,,,
55.5625000000,6,-0.7988281250,,,
55.5781250000,6,-0.7927246094,,,
55.5937500000,6,-0.8303223252,,,
55.6093750000,6,-0.8771973252,,,
55.6250000000,6,-0.9031981826,,,
55.6406250000,6,-0.9078369141,,,
55.6562500000,6,-0.9039307237,,,
55.6718750000,6,-0.9157714844,,,
55.6875000000,6,-0.9527587891,,,
55.7031250000,6,-1.0084229708,,,
55.7187500000,6,-1.0478520393,,,
55.7343750000,6,-1.0214840174,,,
55.7500000000,6,-0.8800048828,,,
55.7656250000,6,-0.6185302734,,,
55.7812500000,6,-0.2769775093,,,
55.7968750000,6,0.0606689490,,,
55.8125000000,6,0.3115234077,,,
55.8281250000,6,0.4270020127,,,
55.8437500000,6,0.4255371094,,,
55.8593750000,6,0.3907471001,,,
55.8750000000,6,0.4360351861,,,
55.8906250000,6,0.6264647841,,,
55.9062500000,6,0.9575194716,,,
55.9218750000,6,1.3172609806,,,
55.9375000000,6,1.5810550451,,,
55.9531250000,6,1.6652829647,,,
55.9687500000,6,1.5687259436,,,
55.9843750000,6,1.3591309786,,,
56.0000000000,7,1.1068120003,,,
56.0156250000,7,0.8392333984,,,
56.0312500000,7,0.5307617188,,,
56.0468750000,7,0.1654053032,,,
56.0625000000,7,-0.2180175930,,,
56.0781250000,7,-0.5189208984,,,
56.0937500000,7,-0.6273192763,,,
56.1093750000,7,-0.5004882813,,,
56.1250000000,7,-0.2016602010,,,
56.1406250000,7,0.1235352010,,,
56.1562500000,7,0.3596191108,,,
56.1718750000,7,0.4748534858,,,
56.1875000000,7,0.5393065810,,,
56.2031250000,7,0.6420897841,,,
