Time:64Hz,Epoch,Channel 1,Event Id,Event Date,Event Duration
0.0000000000,0,0.5900878906,,,
0.0156250000,0,0.1364745945,,,
0.0312500000,0,-0.3521729112,,,
0.0468750000,0,-0.7011718750,,,
0.0625000000,0,-0.8218994141,,,
0.0781250000,0,-0.7502440810,,,
0.0937500000,0,-0.5845947266,,,
0.1093750000,0,-0.4428710938,,,
0.1250000000,0,-0.3670653999,,,
0.1406250000,0,-0.3336181939,,,
0.1562500000,0,-0.2720946968,,,
0.1718750000,0,-0.1351318061,,,
0.1875000000,0,0.0758056566,,,
0.2031250000,0,0.2913818061,,,
0.2187500000,0,0.4183349907,,,
0.2343750000,0,0.3925780952,,,
0.2500000000,0,0.2204589993,,,
0.2656250000,0,-0.0100097703,,,
0.2812500000,0,-0.1746826023,,,
0.2968750000,0,-0.1975097954,,,
0.3125000000,0,-0.0882568434,,,
0.3281250000,0,0.0656738281,,,
0.3437500000,0,0.1347655952,,,
0.3593750000,0,0.0477294885,,,
0.3750000000,0,-0.1514893025,,,
0.3906250000,0,-0.3469237983,,,
0.4062500000,0,-0.4084472954,,,
0.4218750000,0,-0.2906494141,,,
0.4375000000,0,-0.0843505934,,,
0.4531250000,0,0.0759277269,,,
0.4687500000,0,0.0830078125,,,
0.4843750000,0,-0.0765380934,,,
0.5000000000,0,-0.3111571968,,,
0.5156250000,0,-0.4941405952,,,
0.5312500000,0,-0.5517578125,,,
0.5468750000,0,-0.5008544922,,,
0.5625000000,0,-0.4288330078,,,
0.5781250000,0,-0.4205321968,,,
0.5937500000,0,-0.4993895888,,,
0.6093750000,0,-0.6312255859,,,
0.6250000000,0,-0.7357177734,,,
0.6406250000,0,-0.7537841797,,,
0.6562500000,0,-0.6750488281,,,
0.6718750000,0,-0.5432128906,,,
0.6875000000,0,-0.3994140923,,,
0.7031250000,0,-0.2637938857,,,
0.7187500000,0,-0.1195067987,,,
0.7343750000,0,0.0601806603,,,
0.7500000000,0,0.2762450874,,,
0.7656250000,0,0.4930419922,,,
0.7812500000,0,0.6644287109,,,
0.7968750000,0,0.7476807237,,,
0.8125000000,0,0.7457274795,,,
0.8281250000,0,0.7171630859,,,
0.8437500000,0,0.7443848252,,,
0.8593750000,0,0.8740233779,,,
0.8750000000,0,1.0814210176,,,
0.8906250000,0,1.2717289925,,,
0.9062500000,0,1.3293459415,,,
0.9218750000,0,1.1810300350,,,
0.9375000000,0,0.8262938857,,,
0.9531250000,0,0.3389892876,,,
0.9687500000,0,-0.1965332031,,,
0.9843750000,0,-0.7252197266,,,
1.0000000000,0,-1.2385250330,,,
1.0156250000,0,-1.7393800020,,,
1.0312500000,0,-2.1859130859,,,
1.0468750000,0,-2.4945070744,,,
1.0625000000,0,-2.5550539494,,,
1.0781250000,0,-2.2934570313,,,
1.0937500000,0,-1.7412110567,,,
1.1093750000,0,-1.0299069881,,,
1.1250000000,0,-0.3433837891,,,
1.1406250000,0,0.1835937947,,,
1.1562500000,0,0.5278319716,,,
1.1718750000,0,0.7784423828,,,
1.1875000000,0,1.0483399630,,,
1.2031250000,0,1.4035639763,,,
1.2187500000,0,1.7934570313,,,
1.2343750000,0,2.0834960938,,,
1.2500000000,0,2.1372070313,,,
1.2656250000,0,1.9000240564,,,
1.2812500000,0,1.4460450411,,,
1.2968750000,0,0.9472656250,,,
1.3125000000,0,0.5811768174,,,
1.3281250000,0,0.4165039063,,,
1.3437500000,0,0.4039306939,,,
1.3593750000,0,0.4066162109,,,
1.3750000000,0,0.2869873047,,,
1.3906250000,0,0.0142822303,,,
1.4062500000,0,-0.3374023139,,,
1.4218750000,0,-0.6484375000,,,
1.4375000000,0,-0.8289794922,,,
1.4531250000,0,-0.8872069716,,,
1.4687500000,0,-0.9041748047,,,
1.4843750000,0,-0.9604492188,,,
1.5000000000,0,-1.0865479708,,,
1.5156250000,0,-1.2303470373,,,
1.5312500000,0,-1.2888180017,,,
1.5468750000,0,-1.1958010197,,,
1.5625000000,0,-0.9692382813,,,
1.5781250000,0,-0.7093505859,,,
1.5937500000,0,-0.5395507813,,,
1.6093750000,0,-0.5334473252,,,
1.6250000000,0,-0.6604003906,,,
1.6406250000,0,-0.8117675781,,,
1.6562500000,0,-0.8652343750,,,
1.6718750000,0,-0.7526854873,,,
1.6875000000,0,-0.5246582031,,,
1.7031250000,0,-0.2836914063,,,
1.7187500000,0,-0.1485596001,,,
1.7343750000,0,-0.1713867038,,,
1.7500000000,0,-0.2990722954,,,
1.7656250000,0,-0.4250487983,,,
1.7812500000,0,-0.4333496094,,,
1.7968750000,0,-0.2707520127,,,
1.8125000000,0,0.0585937500,,,
1.8281250000,0,0.4997558892,,,
1.8437500000,0,0.9980468750,,,
1.8593750000,0,1.5175780058,,,
1.8750000000,0,2.0106201172,,,
1.8906250000,0,2.4060060978,,,
1.9062500000,0,2.5913090706,,,
1.9218750000,0,2.4741210938,,,
1.9375000000,0,2.0541989803,,,
1.9531250000,0,1.4465329647,,,
1.9687500000,0,0.8265380859,,,
1.9843750000,0,0.3651123047,,,
2.0000000000,0,0.1354980022,,,
2.0156250000,0,0.0749511719,,,
2.0312500000,0,0.0581054688,,,
2.0468750000,0,-0.0526123010,,,
2.0625000000,0,-0.2878417969,,,
2.0781250000,0,-0.5686035156,,,
2.0937500000,0,-0.7449951172,,,
2.1093750000,0,-0.6895751953,,,
2.1250000000,0,-0.3754883111,,,
2.1406250000,0,0.0893554688,,,
2.1562500000,0,0.5296630859,,,
2.1718750000,0,0.8057860732,,,
2.1875000000,0,0.8619384766,,,
2.2031250000,0,0.7838134766,,,
2.2187500000,0,0.7287598252,,,
2.2343750000,0,0.8125000000,,,
2.2500000000,0,1.0422359705,,,
2.2656250000,0,1.2814940214,,,
2.2812500000,0,1.3377690315,,,
2.2968750000,0,1.0653079748,,,
2.3125000000,0,0.4718017876,,,
2.3281250000,0,-0.2943114936,,,
2.3437500000,0,-1.0162349939,,,
2.3593750000,0,-1.5433349609,,,
2.3750000000,0,-1.8532710075,,,
2.3906250000,0,-2.0018310547,,,
2.4062500000,0,-2.0740969181,,,
2.4218750000,0,-2.1077880859,,,
2.4375000000,0,-2.0759279728,,,
2.4531250000,0,-1.9193120003,,,
2.4687500000,0,-1.6202390194,,,
2.4843750000,0,-1.2272950411,,,
2.5000000000,0,-0.8288574219,,,
2.5156250000,0,-0.5166016221,,,
2.5312500000,0,-0.3063965142,,,
2.5468750000,0,-0.1462402046,,,
2.5625000000,0,0.0330810510,,,
2.5781250000,0,0.2740479112,,,
2.5937500000,0,0.5316162109,,,
2.6093750000,0,0.7191162109,,,
2.6250000000,0,0.7374268174,,,
2.6406250000,0,0.5256348252,,,
2.6562500000,0,0.0942382813,,,
2.6718750000,0,-0.4697265923,,,
2.6875000000,0,-1.0550539494,,,
2.7031250000,0,-1.5296629667,,,
2.7187500000,0,-1.7664790154,,,
2.7343750000,0,-1.6894530058,,,
2.7500000000,0,-1.3085939884,,,
2.7656250000,0,-0.7199707031,,,
2.7812500000,0,-0.0920410231,,,
2.7968750000,0,0.3741455078,,,
2.8125000000,0,0.5689697266,,,
2.8281250000,0,0.5126953125,,,
2.8437500000,0,0.3602294922,,,
2.8593750000,0,0.3094482124,,,
2.8750000000,0,0.4813232124,,,
2.8906250000,0,0.8590087891,,,
2.9062500000,0,1.3033449650,,,
2.9218750000,0,1.6336669922,,,
2.9375000000,0,1.7473139763,,,
2.9531250000,0,1.6522220373,,,
2.9687500000,0,1.4511719942,,,
2.9843750000,0,1.2573239803,,,
3.0000000000,0,1.1262209415,,,
3.0156250000,0,1.0438230038,,,
3.0312500000,0,0.9519042969,,,
3.0468750000,0,0.8056641221,,,
3.0625000000,0,0.5959473252,,,
3.0781250000,0,0.3697510064,,,
3.0937500000,0,0.1822510064,,,
3.1093750000,0,0.0799560472,,,
3.1250000000,0,0.0906982422,,,
3.1406250000,0,0.2056885064,,,
3.1562500000,0,0.3846436143,,,
3.1718750000,0,0.5699462891,,,
3.1875000000,0,0.6915283203,,,
3.2031250000,0,0.6994628906,,,
3.2187500000,0,0.5920410156,,,
3.2343750000,0,0.4169921875,,,
3.2500000000,0,0.2381591946,,,
3.2656250000,0,0.1171875000,,,
3.2812500000,0,0.0850830078,,,
3.2968750000,0,0.1254882962,,,
3.3125000000,0,0.2126464993,,,
3.3281250000,0,0.3115234077,,,
3.3437500000,0,0.4018554986,,,
3.3593750000,0,0.4566650093,,,
3.3750000000,0,0.4433594048,,,
3.3906250000,0,0.3098145127,,,
3.4062500000,0,0.0400390588,,,
3.4218750000,0,-0.3256835938,,,
3.4375000000,0,-0.6976317763,,,
3.4531250000,0,-0.9816895127,,,
3.4687500000,0,-1.1318360567,,,
3.4843750000,0,-1.1905519962,,,
3.5000000000,0,-1.2550050020,,,
3.5156250000,0,-1.3992919922,,,
3.5312500000,0,-1.6239010096,,,
3.5468750000,0,-1.8364260197,,,
3.5625000000,0,-1.9291989803,,,
3.5781250000,0,-1.8516850471,,,
3.5937500000,0,-1.6347659826,,,
3.6093750000,0,-1.3656009436,,,
3.6250000000,0,-1.0987550020,,,
3.6406250000,0,-0.8201904297,,,
3.6562500000,0,-0.4581299126,,,
3.6718750000,0,0.0361328088,,,
3.6875000000,0,0.6080322266,,,
3.7031250000,0,1.1196290255,,,
3.7187500000,0,1.4024660587,,,
3.7343750000,0,1.3728029728,,,
3.7500000000,0,1.0639649630,,,
3.7656250000,0,0.6284180284,,,
3.7812500000,0,0.2390137017,,,
3.7968750000,0,-0.0031738279,,,
3.8125000000,0,-0.0905761719,,,
3.8281250000,0,-0.0876464769,,,
3.8437500000,0,-0.0513916016,,,
3.8593750000,0,0.0003662109,,,
3.8750000000,0,0.0963134766,,,
3.8906250000,0,0.2355957031,,,
3.9062500000,0,0.3736571968,,,
3.9218750000,0,0.4185791016,,,
3.9375000000,0,0.2963866889,,,
3.9531250000,0,0.0028076170,,,
3.9687500000,0,-0.3735351861,,,
3.9843750000,0,-0.6762694716,,,
4.0000000000,0,-0.7901610732,,,
4.0156250000,0,-0.6807860732,,,
4.0312500000,0,-0.4538573921,,,
4.0468750000,0,-0.2718505859,,,
4.0625000000,0,-0.2740479112,,,
4.0781250000,0,-0.4960938096,,,
4.0937500000,0,-0.8259276748,,,
4.1093750000,0,-1.0812989473,,,
4.1250000000,0,-1.1014399529,,,
4.1406250000,0,-0.8284912109,,,
4.1562500000,0,-0.3354491889,,,
4.1718750000,0,0.2258300930,,,
4.1875000000,0,0.6909180284,,,
4.2031250000,0,0.9780272841,,,
4.2187500000,0,1.0784909725,,,
4.2343750000,0,1.0474849939,,,
4.2500000000,0,0.9411621094,,,
4.2656250000,0,0.7946776748,,,
4.2812500000,0,0.6058350205,,,
4.2968750000,0,0.3746337891,,,
4.3125000000,0,0.1184082031,,,
4.3281250000,0,-0.1104736030,,,
4.3437500000,0,-0.2575683892,,,
4.3593750000,0,-0.2952880859,,,
4.3750000000,0,-0.2065429986,,,
4.3906250000,0,-0.0270996094,,,
4.4062500000,0,0.1981201023,,,
4.4218750000,0,0.4125976861,,,
4.4375000000,0,0.5839843750,,,
4.4531250000,0,0.6899414063,,,
4.4687500000,0,0.7293701172,,,
4.4843750000,0,0.7131348252,,,
4.5000000000,0,0.6589354873,,,
4.5156250000,0,0.5943604112,,,
4.5312500000,0,0.5321044922,,,
4.5468750000,0,0.4676513970,,,
4.5625000000,0,0.3817138970,,,
4.5781250000,0,0.2180175930,,,
4.5937500000,0,-0.0660400391,,,
4.6093750000,0,-0.4685058892,,,
4.6250000000,0,-0.9318848252,,,
4.6406250000,0,-1.3447270393,,,
4.6562500000,0,-1.5844730139,,,
4.6718750000,0,-1.5865479708,,,
4.6875000000,0,-1.3853759766,,,
4.7031250000,0,-1.0981450081,,,
4.7187500000,0,-0.8732910156,,,
4.7343750000,0,-0.8045654297,,,
4.7500000000,0,-0.8956298828,,,
4.7656250000,0,-1.0535889864,,,
4.7812500000,0,-1.1657710075,,,
4.7968750000,0,-1.1645510197,,,
4.8125000000,0,-1.0651860237,,,
4.8281250000,0,-0.9202880859,,,
4.8437500000,0,-0.7961425781,,,
4.8593750000,0,-0.7406005859,,,
4.8750000000,0,-0.7406005859,,,
4.8906250000,0,-0.7645264268,,,
4.9062500000,0,-0.7739257813,,,
4.9218750000,0,-0.7536621094,,,
4.9375000000,0,-0.6884766221,,,
4.9531250000,0,-0.5738524795,,,
4.9687500000,0,-0.3835448921,,,
4.9843750000,0,-0.0943603516,,,
5.0000000000,0,0.3041991889,,,
5.0156250000,0,0.7955322266,,,
5.0312500000,0,1.3151860237,,,
5.0468750000,0,1.7756350040,,,
5.0625000000,0,2.1136469841,,,
5.0781250000,0,2.2907710075,,,
5.0937500000,0,2.2988278866,,,
5.1093750000,0,2.1422119141,,,
5.1250000000,0,1.8619379997,,,
5.1406250000,0,1.5009770393,,,
5.1562500000,0,1.1363530159,,,
5.1718750000,0,0.8518065810,,,
5.1875000000,0,0.7025145888,,,
5.2031250000,0,0.7037354112,,,
5.2187500000,0,0.8157958984,,,
5.2343750000,0,0.9700927734,,,
5.2500000000,0,1.0910639763,,,
5.2656250000,0,1.1517330408,,,
5.2812500000,0,1.1562500000,,,
5.2968750000,0,1.1359859705,,,
5.3125000000,0,1.0991209745,,,
5.3281250000,0,1.0174560547,,,
5.3437500000,0,0.8349608779,,,
5.3593750000,0,0.5008544922,,,
5.3750000000,0,-0.0007324219,,,
5.3906250000,0,-0.6386718750,,,
5.4062500000,0,-1.3371579647,,,
5.4218750000,0,-1.9982910156,,,
5.4375000000,0,-2.5050048828,,,
5.4531250000,0,-2.7535400391,,,
5.4687500000,0,-2.6627199650,,,
5.4843750000,0,-2.2270510197,,,
5.5000000000,0,-1.5373539925,,,
5.5156250000,0,-0.7543944716,,,
5.5312500000,0,-0.0743408203,,,
5.5468750000,0,0.3491210938,,,
5.5625000000,0,0.4578857124,,,
5.5781250000,0,0.3101806939,,,
5.5937500000,0,0.0577392615,,,
5.6093750000,0,-0.1376952976,,,
5.6250000000,0,-0.1451416016,,,
5.6406250000,0,0.0476074181,,,
5.6562500000,0,0.3388671875,,,
5.6718750000,0,0.5820313096,,,
5.6875000000,0,0.6525878906,,,
5.7031250000,0,0.5256348252,,,
5.7187500000,0,0.2983398139,,,
5.7343750000,0,0.1097412035,,,
5.7500000000,0,0.0582275391,,,
5.7656250000,0,0.1403809041,,,
5.7812500000,0,0.2563476861,,,
5.7968750000,0,0.3117676079,,,
5.8125000000,0,0.2680664063,,,
5.8281250000,0,0.1699219048,,,
5.8437500000,0,0.0747070313,,,
5.8593750000,0,-0.0139160203,,,
5.8750000000,0,-0.1845702976,,,
5.8906250000,0,-0.5417479873,,,
5.9062500000,0,-1.1165770292,,,
5.9218750000,0,-1.7924799919,,,
5.9375000000,0,-2.3439939022,,,
5.9531250000,0,-2.5650629997,,,
5.9687500000,0,-2.3818359375,,,
5.9843750000,0,-1.8964840174,,,
6.0000000000,0,-1.3072509766,,,
6.0156250000,0,-0.8145751953,,,
6.0312500000,0,-0.4927979112,,,
6.0468750000,0,-0.2982178032,,,
6.0625000000,0,-0.1180419996,,,
6.0781250000,0,0.1401367038,,,
6.0937500000,0,0.4962157905,,,
6.1093750000,0,0.8841552734,,,
6.1250000000,0,1.2037349939,,,
6.1406250000,0,1.3649899960,,,
6.1562500000,0,1.3265379667,,,
6.1718750000,0,1.1274410486,,,
6.1875000000,0,0.8734130859,,,
6.2031250000,0,0.6900634766,,,
6.2187500000,0,0.6721190810,,,
6.2343750000,0,0.8197020888,,,
6.2500000000,0,1.0462650061,,,
6.2656250000,0,1.2192380428,,,
6.2812500000,0,1.2293699980,,,
6.2968750000,0,1.0473630428,,,
6.3125000000,0,0.7279052734,,,
6.3281250000,0,0.3616943061,,,
6.3437500000,0,0.0208740197,,,
6.3593750000,0,-0.2620849907,,,
6.3750000000,0,-0.5107421875,,,
6.3906250000,0,-0.7431641221,,,
6.4062500000,0,-0.9716796875,,,
6.4218750000,0,-1.1668699980,,,
6.4375000000,0,-1.2948000431,,,
6.4531250000,0,-1.3253170252,,,
6.4687500000,0,-1.2572020292,,,
6.4843750000,0,-1.1285400391,,,
6.5000000000,0,-0.9831542969,,,
6.5156250000,0,-0.8750000000,,,
6.5312500000,0,-0.8217772841,,,
6.5468750000,0,-0.7980957031,,,
6.5625000000,0,-0.7462158203,,,
6.5781250000,0,-0.6103516221,,,
6.5937500000,0,-0.3614501953,,,
6.6093750000,0,-0.0341796912,,,
6.6250000000,0,0.2935791016,,,
6.6406250000,0,0.5382080078,,,
6.6562500000,0,0.6558837891,,,
6.6718750000,0,0.6480712891,,,
6.6875000000,0,0.5505371094,,,
6.7031250000,0,0.3973388970,,,
6.7187500000,0,0.2008056939,,,
6.7343750000,0,-0.0528564490,,,
6.7500000000,0,-0.3547362983,,,
6.7656250000,0,-0.6530761719,,,
6.7812500000,0,-0.8320313096,,,
6.7968750000,0,-0.7758789063,,,
6.8125000000,0,-0.4138183892,,,
6.8281250000,0,0.2169189006,,,
6.8437500000,0,0.9747313857,,,
6.8593750000,0,1.6733399630,,,
6.8750000000,0,2.1163330078,,,
6.8906250000,0,2.2121579647,,,
6.9062500000,0,1.9693599939,,,
6.9218750000,0,1.5109859705,,,
6.9375000000,0,0.9825438857,,,
6.9531250000,0,0.4981688857,,,
6.9687500000,0,0.1037598029,,,
6.9843750000,0,-0.2254638970,,,
7.0000000000,0,-0.5211182237,,,
7.0156250000,0,-0.7957764268,,,
7.0312500000,0,-1.0244139433,,,
7.0468750000,0,-1.1544189453,,,
7.0625000000,0,-1.1601560116,,,
7.0781250000,0,-1.0565190315,,,
7.0937500000,0,-0.8830565810,,,
7.1093750000,0,-0.6795654297,,,
7.1250000000,0,-0.4676513970,,,
7.1406250000,0,-0.2509765923,,,
7.1562500000,0,-0.0056152339,,,
7.1718750000,0,0.2504883111,,,
7.1875000000,0,0.4925537109,,,
7.2031250000,0,0.6707764268,,,
7.2187500000,0,0.7551270127,,,
7.2343750000,0,0.7406005859,,,
7.2500000000,0,0.6273192763,,,
7.2656250000,0,0.4334717095,,,
7.2812500000,0,0.1750487983,,,
7.2968750000,0,-0.1315917969,,,
7.3125000000,0,-0.4613037109,,,
7.3281250000,0,-0.7780761719,,,
7.3437500000,0,-1.0513919592,,,
7.3593750000,0,-1.2456049919,,,
7.3750000000,0,-1.3486330509,,,
7.3906250000,0,-1.3659670353,,,
7.4062500000,0,-1.3154300451,,,
7.4218750000,0,-1.1905519962,,,
7.4375000000,0,-0.9508057237,,,
7.4531250000,0,-0.5701904297,,,
7.4687500000,0,-0.0462646484,,,
7.4843750000,0,0.5527343750,,,
7.5000000000,0,1.0878909826,,,
7.5156250000,0,1.4150389433,,,
7.5312500000,0,1.4337160587,,,
7.5468750000,0,1.1690670252,,,
7.5625000000,0,0.7532958984,,,
7.5781250000,0,0.3677979112,,,
7.5937500000,0,0.1673583984,,,
7.6093750000,0,0.1951903999,,,
7.6250000000,0,0.3996582031,,,
7.6406250000,0,0.6599121094,,,
7.6562500000,0,0.8945313096,,,
7.6718750000,0,1.0341800451,,,
7.6875000000,0,1.0733640194,,,
7.7031250000,0,0.9863281250,,,
7.7187500000,0,0.7390136719,,,
7.7343750000,0,0.3321532905,,,
7.7500000000,0,-0.1882324070,,,
7.7656250000,0,-0.7197266221,,,
7.7812500000,0,-1.1437989473,,,
7.7968750000,0,-1.3812259436,,,
7.8125000000,0,-1.4229739904,,,
7.8281250000,0,-1.3236080408,,,
7.8437500000,0,-1.1738280058,,,
7.8593750000,0,-1.0535889864,,,
7.8750000000,0,-1.0048830509,,,
7.8906250000,0,-1.0335689783,,,
7.9062500000,0,-1.1252440214,,,
7.9218750000,0,-1.2457280159,,,
7.9375000000,0,-1.3496090174,,,
7.9531250000,0,-1.3956300020,,,
7.9687500000,0,-1.3376460075,,,
7.9843750000,0,-1.1451419592,,,
8.0000000000,1,-0.8297119141,,,
8.0156250000,1,-0.4353027046,,,
8.0312500000,1,-0.0305175800,,,
8.0468750000,1,0.3116455078,,,
8.0625000000,1,0.5446776748,,,
8.0781250000,1,0.6320800781,,,
8.0937500000,1,0.5695800781,,,
8.1093750000,1,0.3686523139,,,
8.1250000000,1,0.0838622972,,,
8.1406250000,1,-0.2203368992,,,
8.1562500000,1,-0.4598388970,,,
8.1718750000,1,-0.5749511719,,,
8.1875000000,1,-0.5301514268,,,
8.2031250000,1,-0.3103027046,,,
8.2187500000,1,0.0657958984,,,
8.2343750000,1,0.5454102159,,,
8.2500000000,1,1.0649410486,,,
8.2656250000,1,1.5285639763,,,
8.2812500000,1,1.8485109806,,,
8.2968750000,1,1.9510500431,,,
8.3125000000,1,1.8389890194,,,
8.3281250000,1,1.5604250431,,,
8.3437500000,1,1.2257080078,,,
8.3593750000,1,0.9368895888,,,
8.3750000000,1,0.7647705078,,,
8.3906250000,1,0.6990966797,,,
8.4062500000,1,0.6632080078,,,
8.4218750000,1,0.5770264268,,,
8.4375000000,1,0.4005126953,,,
8.4531250000,1,0.1766356975,,,
8.4687500000,1,-0.0139160203,,,
8.4843750000,1,-0.0860595703,,,
8.5000000000,1,-0.0261230506,,,
8.5156250000,1,0.0814208984,,,
8.5312500000,1,0.1160888970,,,
8.5468750000,1,-0.0063476558,,,
8.5625000000,1,-0.2694092095,,,
8.5781250000,1,-0.5712891221,,,
8.5937500000,1,-0.7916259766,,,
8.6093750000,1,-0.8765869141,,,
8.6250000000,1,-0.8662108779,,,
8.6406250000,1,-0.8769531250,,,
8.6562500000,1,-1.0216059685,,,
8.6718750000,1,-1.3148189783,,,
8.6875000000,1,-1.6837160587,,,
8.7031250000,1,-1.9849849939,,,
8.7187500000,1,-2.0849609375,,,
8.7343750000,1,-1.9451899529,,,
8.7500000000,1,-1.6195069551,,,
8.7656250000,1,-1.2145999670,,,
8.7812500000,1,-0.8146973252,,,
8.7968750000,1,-0.4550780952,,,
8.8125000000,1,-0.0998535231,,,
8.8281250000,1,0.2952880859,,,
8.8437500000,1,0.7658690810,,,
8.8593750000,1,1.2617189884,,,
8.8750000000,1,1.6826169491,,,
8.8906250000,1,1.9099119902,,,
8.9062500000,1,1.8666989803,,,
8.9218750000,1,1.5777590275,,,
8.9375000000,1,1.1439210176,,,
8.9531250000,1,0.7218018174,,,
8.9687500000,1,0.4019775093,,,
8.9843750000,1,0.2106934041,,,
9.0000000000,1,0.0981445313,,,
9.0156250000,1,0.0057373052,,,
9.0312500000,1,-0.0825195313,,,
9.0468750000,1,-0.1180419996,,,
9.0625000000,1,-0.0341796912,,,
9.0781250000,1,0.1928710938,,,
9.0937500000,1,0.5057373047,,,
9.1093750000,1,0.7663574219,,,
9.1250000000,1,0.8620604873,,,
9.1406250000,1,0.7520751953,,,
9.1562500000,1,0.4940186143,,,
9.1718750000,1,0.2437743992,,,
9.1875000000,1,0.1411132962,,,
9.2031250000,1,0.2288818061,,,
9.2187500000,1,0.4239501953,,,
9.2343750000,1,0.5875244141,,,
9.2500000000,1,0.5959473252,,,
9.2656250000,1,0.4481200874,,,
9.2812500000,1,0.2655028999,,,
9.2968750000,1,0.2128905952,,,
9.3125000000,1,0.3775635064,,,
9.3281250000,1,0.6721190810,,,
9.3437500000,1,0.8820800781,,,
9.3593750000,1,0.7753906250,,,
9.3750000000,1,0.2640380859,,,
9.3906250000,1,-0.5211182237,,,
9.4062500000,1,-1.2850339413,,,
9.4218750000,1,-1.7327879667,,,
9.4375000000,1,-1.7297359705,,,
9.4531250000,1,-1.3582760096,,,
9.4687500000,1,-0.8872069716,,,
9.4843750000,1,-0.5845947266,,,
9.5000000000,1,-0.5963134766,,,
9.5156250000,1,-0.8664550781,,,
9.5312500000,1,-1.2225339413,,,
9.5468750000,1,-1.4672850370,,,
9.5625000000,1,-1.4941409826,,,
9.5781250000,1,-1.3116459846,,,
9.5937500000,1,-0.9796143174,,,
9.6093750000,1,-0.5611572266,,,
9.6250000000,1,-0.0476074181,,,
9.6406250000,1,0.5997313857,,,
9.6562500000,1,1.3862299919,,,
9.6718750000,1,2.2122800350,,,
9.6875000000,1,2.8649899960,,,
9.7031250000,1,3.1118159294,,,
9.7187500000,1,2.8056640625,,,
9.7343750000,1,2.0015869141,,,
9.7500000000,1,0.9401854873,,,
9.7656250000,1,-0.0433349609,,,
9.7812500000,1,-0.6762694716,,,
9.7968750000,1,-0.8609619141,,,
9.8125000000,1,-0.7009276748,,,
9.8281250000,1,-0.4030762017,,,
9.8437500000,1,-0.1629638970,,,
9.8593750000,1,-0.0614013709,,,
9.8750000000,1,-0.0532226600,,,
9.8906250000,1,-0.0313720703,,,
9.9062500000,1,0.0894775391,,,
9.9218750000,1,0.2916260064,,,
9.9375000000,1,0.4664306939,,,
9.9531250000,1,0.4772948921,,,
9.9687500000,1,0.2254638970,,,
9.9843750000,1,-0.2906494141,,,
10.0000000000,1,-0.9642333984,,,
10.0156250000,1,-1.6185300350,,,
10.0312500000,1,-2.0794680119,,,
10.0468750000,1,-2.2344970703,,,
10.0625000000,1,-2.0831298828,,,
10.0781250000,1,-1.7305910587,,,
10.0937500000,1,-1.3356930017,,,
10.1093750000,1,-1.0249019861,,,
10.1250000000,1,-0.8638916016,,,
10.1406250000,1,-0.8228759766,,,
10.1562500000,1,-0.8201904297,,,
10.1718750000,1,-0.7626953125,,,
10.1875000000,1,-0.6134033203,,,
10.2031250000,1,-0.3801270127,,,
10.2187500000,1,-0.1191406026,,,
10.2343750000,1,0.1102294996,,,
10.2500000000,1,0.2847900093,,,
10.2656250000,1,0.4179688096,,,
10.2812500000,1,0.5355225205,,,
10.2968750000,1,0.6445313096,,,
10.3125000000,1,0.7010498047,,,
10.3281250000,1,0.6367188096,,,
10.3437500000,1,0.3940429986,,,
10.3593750000,1,-0.0028076170,,,
10.3750000000,1,-0.4387207031,,,
10.3906250000,1,-0.7581787109,,,
10.4062500000,1,-0.8221436143,,,
10.4218750000,1,-0.5910645127,,,
10.4375000000,1,-0.1582030952,,,
10.4531250000,1,0.3199462891,,,
10.4687500000,1,0.6890869141,,,
10.4843750000,1,0.8776854873,,,
10.5000000000,1,0.9091796875,,,
10.5156250000,1,0.8603516221,,,
10.5312500000,1,0.7923583984,,,
10.5468750000,1,0.7105712891,,,
10.5625000000,1,0.5870360732,,,
10.5781250000,1,0.3807373047,,,
10.5937500000,1,0.1054688022,,,
10.6093750000,1,-0.1558838040,,,
10.6250000000,1,-0.3133544922,,,
10.6406250000,1,-0.2994385064,,,
10.6562500000,1,-0.1151122972,,,
10.6718750000,1,0.1801757962,,,
10.6875000000,1,0.4904784858,,,
10.7031250000,1,0.7322998047,,,
10.7187500000,1,0.8510742188,,,
10.7343750000,1,0.8204345703,,,
10.7500000000,1,0.6585692763,,,
10.7656250000,1,0.3945313096,,,
10.7812500000,1,0.0637207031,,,
10.7968750000,1,-0.3121337891,,,
10.8125000000,1,-0.7207031250,,,
10.8281250000,1,-1.1357419491,,,
10.8437500000,1,-1.4916989803,,,
10.8593750000,1,-1.6948239803,,,
10.8750000000,1,-1.6354980469,,,
10.8906250000,1,-1.2701419592,,,
10.9062500000,1,-0.6694335938,,,
10.9218750000,1,0.0045166020,,,
10.9375000000,1,0.5644531250,,,
10.9531250000,1,0.8980712891,,,
10.9687500000,1,0.9981688857,,,
10.9843750000,1,0.9530029297,,,
11.0000000000,1,0.8843994141,,,
11.0156250000,1,0.8648682237,,,
11.0312500000,1,0.9028319716,,,
11.0468750000,1,0.9588623047,,,
11.0625000000,1,0.9881591797,,,
11.0781250000,1,0.9737548828,,,
11.0937500000,1,0.8981934190,,,
11.1093750000,1,0.7448729873,,,
11.1250000000,1,0.5007324219,,,
11.1406250000,1,0.1716309041,,,
11.1562500000,1,-0.2034911960,,,
11.1718750000,1,-0.5443115234,,,
11.1875000000,1,-0.7781981826,,,
11.2031250000,1,-0.8750000000,,,
11.2187500000,1,-0.8503417969,,,
11.2343750000,1,-0.7545166016,,,
11.2500000000,1,-0.6311035156,,,
11.2656250000,1,-0.4788818061,,,
11.2812500000,1,-0.2758789063,,,
11.2968750000,1,-0.0170898400,,,
11.3125000000,1,0.2686767876,,,
11.3281250000,1,0.5115966797,,,
11.3437500000,1,0.6497802734,,,
11.3593750000,1,0.6488037109,,,
11.3750000000,1,0.5291748047,,,
11.3906250000,1,0.3466796875,,,
11.4062500000,1,0.1668701023,,,
11.4218750000,1,0.0460205115,,,
11.4375000000,1,0.0225830097,,,
11.4531250000,1,0.1341553032,,,
11.4687500000,1,0.3974609077,,,
11.4843750000,1,0.7788085938,,,
11.5000000000,1,1.1931149960,,,
11.5156250000,1,1.4989010096,,,
11.5312500000,1,1.5717769861,,,
11.5468750000,1,1.3585209846,,,
11.5625000000,1,0.9132080078,,,
11.5781250000,1,0.3880614936,,,
11.5937500000,1,-0.0471191406,,,
11.6093750000,1,-0.2879638970,,,
11.6250000000,1,-0.3255614936,,,
11.6406250000,1,-0.2491454929,,,
11.6562500000,1,-0.1928710938,,,
11.6718750000,1,-0.2756347954,,,
11.6875000000,1,-0.5349121094,,,
11.7031250000,1,-0.9321289063,,,
11.7187500000,1,-1.3648680449,,,
11.7343750000,1,-1.7108149529,,,
11.7500000000,1,-1.8980710506,,,
11.7656250000,1,-1.9169919491,,,
11.7812500000,1,-1.8300780058,,,
11.7968750000,1,-1.7254639864,,,
11.8125000000,1,-1.6634520292,,,
11.8281250000,1,-1.6490479708,,,
11.8437500000,1,-1.6313480139,,,
11.8593750000,1,-1.5549319983,,,
11.8750000000,1,-1.4040529728,,,
11.8906250000,1,-1.2303470373,,,
11.9062500000,1,-1.1158449650,,,
11.9218750000,1,-1.1169430017,,,
11.9375000000,1,-1.2161870003,,,
11.9531250000,1,-1.3125000000,,,
11.9687500000,1,-1.2662349939,,,
11.9843750000,1,-0.9848632813,,,
12.0000000000,1,-0.4791260064,,,
12.0156250000,1,0.1363524944,,,
12.0312500000,1,0.6828613281,,,
12.0468750000,1,0.9914550781,,,
12.0625000000,1,0.9913330078,,,
12.0781250000,1,0.7224121094,,,
12.0937500000,1,0.3094482124,,,
12.1093750000,1,-0.1068115011,,,
12.1250000000,1,-0.4202880859,,,
12.1406250000,1,-0.5870360732,,,
12.1562500000,1,-0.6011962891,,,
12.1718750000,1,-0.5041503906,,,
12.1875000000,1,-0.3297119141,,,
12.2031250000,1,-0.1466064006,,,
12.2187500000,1,-0.0230712909,,,
12.2343750000,1,-0.0069580078,,,
12.2500000000,1,-0.0810546875,,,
12.2656250000,1,-0.1578368992,,,
12.2812500000,1,-0.1287841946,,,
12.2968750000,1,0.0673828125,,,
12.3125000000,1,0.3951416016,,,
12.3281250000,1,0.7478026748,,,
12.3437500000,1,1.0159909725,,,
12.3593750000,1,1.1796879768,,,
12.3750000000,1,1.3164060116,,,
12.3906250000,1,1.5367430449,,,
12.4062500000,1,1.8717039824,,,
12.4218750000,1,2.2286379337,,,
12.4375000000,1,2.4288330078,,,
12.4531250000,1,2.3182370663,,,
12.4687500000,1,1.9028320313,,,
12.4843750000,1,1.3350830078,,,
12.5000000000,1,0.8294677734,,,
12.5156250000,1,0.5183104873,,,
12.5312500000,1,0.3859862983,,,
12.5468750000,1,0.2832030952,,,
12.5625000000,1,0.0682372972,,,
12.5781250000,1,-0.2926025093,,,
12.5937500000,1,-0.6813964844,,,
12.6093750000,1,-0.8959960938,,,
12.6250000000,1,-0.7861328125,,,
12.6406250000,1,-0.3402099907,,,
12.6562500000,1,0.3095703125,,,
12.6718750000,1,0.9428710938,,,
12.6875000000,1,1.3748780489,,,
12.7031250000,1,1.5386960506,,,
12.7187500000,1,1.4973139763,,,
12.7343750000,1,1.3669430017,,,
12.7500000000,1,1.2517089844,,,
12.7656250000,1,1.1915279627,,,
12.7812500000,1,1.1645510197,,,
12.7968750000,1,1.1241459846,,,
12.8125000000,1,1.0437010527,,,
12.8281250000,1,0.9278563857,,,
12.8437500000,1,0.7883300781,,,
12.8593750000,1,0.6197509766,,,
12.8750000000,1,0.3839111030,,,
12.8906250000,1,0.0426025391,,,
12.9062500000,1,-0.4146729112,,,
12.9218750000,1,-0.9355468750,,,
12.9375000000,1,-1.4279789925,,,
12.9531250000,1,-1.7998050451,,,
12.9687500000,1,-1.9951169491,,,
12.9843750000,1,-2.0321040154,,,
13.0000000000,1,-1.9565429688,,,
13.0156250000,1,-1.8275150061,,,
13.0312500000,1,-1.6843260527,,,
13.0468750000,1,-1.5393069983,,,
13.0625000000,1,-1.3881839514,,,
13.0781250000,1,-1.2362060547,,,
13.0937500000,1,-1.0780030489,,,
13.1093750000,1,-0.9042968750,,,
13.1250000000,1,-0.6956787109,,,
13.1406250000,1,-0.4263916016,,,
13.1562500000,1,-0.0893554688,,,
13.1718750000,1,0.2911376953,,,
13.1875000000,1,0.6583251953,,,
13.2031250000,1,0.9481201172,,,
13.2187500000,1,1.1193850040,,,
13.2343750000,1,1.1658940315,,,
13.2500000000,1,1.1092530489,,,
13.2656250000,1,1.0056149960,,,
13.2812500000,1,0.8952636719,,,
13.2968750000,1,0.7763671875,,,
13.3125000000,1,0.6250000000,,,
13.3281250000,1,0.4124755859,,,
13.3437500000,1,0.1359862983,,,
13.3593750000,1,-0.1746826023,,,
13.3750000000,1,-0.4603270888,,,
13.3906250000,1,-0.6832274795,,,
13.4062500000,1,-0.8400878906,,,
13.4218750000,1,-0.9511718750,,,
13.4375000000,1,-1.0303959846,,,
13.4531250000,1,-1.0672609806,,,
13.4687500000,1,-1.0270999670,,,
13.4843750000,1,-0.8719481826,,,
13.5000000000,1,-0.6174315810,,,
13.5156250000,1,-0.3239746094,,,
13.5312500000,1,-0.0819091797,,,
13.5468750000,1,0.0294189509,,,
13.5625000000,1,-0.0142822303,,,
13.5781250000,1,-0.1821289063,,,
13.5937500000,1,-0.3912354112,,,
13.6093750000,1,-0.5646973252,,,
13.6250000000,1,-0.6578369141,,,
13.6406250000,1,-0.6633300781,,,
13.6562500000,1,-0.5640869141,,,
13.6718750000,1,-0.3455811143,,,
13.6875000000,1,0.0043945308,,,
13.7031250000,1,0.4527587891,,,
13.7187500000,1,0.9219970703,,,
13.7343750000,1,1.2924799919,,,
13.7500000000,1,1.4527590275,,,
13.7656250000,1,1.3823239803,,,
13.7812500000,1,1.1485600471,,,
13.7968750000,1,0.8752440810,,,
13.8125000000,1,0.6665039063,,,
13.8281250000,1,0.5494384766,,,
13.8437500000,1,0.4562987983,,,
13.8593750000,1,0.2752686143,,,
13.8750000000,1,-0.0694580078,,,
13.8906250000,1,-0.5522460938,,,
13.9062500000,1,-1.0493160486,,,
13.9218750000,1,-1.3883060217,,,
13.9375000000,1,-1.4460450411,,,
13.9531250000,1,-1.2104489803,,,
13.9687500000,1,-0.7789307237,,,
13.9843750000,1,-0.2987061143,,,
14.0000000000,1,0.0762939528,,,
14.0156250000,1,0.2529296875,,,
14.0312500000,1,0.2211914063,,,
14.0468750000,1,0.0385742188,,,
14.0625000000,1,-0.2148437947,,,
14.0781250000,1,-0.4627686143,,,
14.0937500000,1,-0.6752930284,,,
14.1093750000,1,-0.8651123047,,,
14.1250000000,1,-1.0477290154,,,
14.1406250000,1,-1.2131350040,,,
14.1562500000,1,-1.3118900061,,,
14.1718750000,1,-1.2849119902,,,
14.1875000000,1,-1.1038819551,,,
14.2031250000,1,-0.7967529297,,,
14.2187500000,1,-0.4309082031,,,
14.2343750000,1,-0.0799560472,,,
14.2500000000,1,0.2141112983,,,
14.2656250000,1,0.4674071968,,,
14.2812500000,1,0.7122802734,,,
14.2968750000,1,0.9890136719,,,
14.3125000000,1,1.2948000431,,,
14.3281250000,1,1.5583499670,,,
14.3437500000,1,1.6872559786,,,
14.3593750000,1,1.5823969841,,,
14.3750000000,1,1.1976319551,,,
14.3906250000,1,0.5751953125,,,
14.4062500000,1,-0.1755370945,,,
14.4218750000,1,-0.8891602159,,,
14.4375000000,1,-1.4107669592,,,
14.4531250000,1,-1.6594239473,,,
14.4687500000,1,-1.6511230469,,,
14.4843750000,1,-1.4645999670,,,
14.5000000000,1,-1.2010500431,,,
14.5156250000,1,-0.9426270127,,,
14.5312500000,1,-0.7197266221,,,
14.5468750000,1,-0.5308837891,,,
14.5625000000,1,-0.3747558892,,,
14.5781250000,1,-0.2698974907,,,
14.5937500000,1,-0.2319335938,,,
14.6093750000,1,-0.2735596001,,,
14.6250000000,1,-0.3862304986,,,
14.6406250000,1,-0.5340576172,,,
14.6562500000,1,-0.6669921875,,,
14.6718750000,1,-0.7449951172,,,
14.6875000000,1,-0.7341309190,,,
14.7031250000,1,-0.6135253906,,,
14.7187500000,1,-0.3616943061,,,
14.7343750000,1,0.0228271503,,,
14.7500000000,1,0.5338134766,,,
14.7656250000,1,1.1339110136,,,
14.7812500000,1,1.7332760096,,,
14.7968750000,1,2.2258300781,,,
14.8125000000,1,2.5048830509,,,
14.8281250000,1,2.4934079647,,,
14.8437500000,1,2.1727290154,,,
14.8593750000,1,1.6057130098,,,
14.8750000000,1,0.9124755859,,,
14.8906250000,1,0.2503662109,,,
14.9062500000,1,-0.2520751953,,,
14.9218750000,1,-0.5456542969,,,
14.9375000000,1,-0.6556395888,,,
14.9531250000,1,-0.6796875000,,,
14.9687500000,1,-0.7165526748,,,
14.9843750000,1,-0.8211669922,,,
15.0000000000,1,-0.9598389268,,,
15.0156250000,1,-1.0675050020,,,
15.0312500000,1,-1.0537110567,,,
15.0468750000,1,-0.8668212891,,,
15.0625000000,1,-0.5128173828,,,
15.0781250000,1,-0.0706787109,,,
15.0937500000,1,0.3499755859,,,
15.1093750000,1,0.6550292969,,,
15.1250000000,1,0.7872313857,,,
15.1406250000,1,0.7447509766,,,
15.1562500000,1,0.5528563857,,,
15.1718750000,1,0.2561034858,,,
15.1875000000,1,-0.0925292969,,,
15.2031250000,1,-0.4438476861,,,
15.2187500000,1,-0.7325438857,,,
15.2343750000,1,-0.9082031250,,,
15.2500000000,1,-0.9073485732,,,
15.2656250000,1,-0.7034912109,,,
15.2812500000,1,-0.3004150093,,,
15.2968750000,1,0.2390137017,,,
15.3125000000,1,0.8155518174,,,
15.3281250000,1,1.3129880428,,,
15.3437500000,1,1.6341550350,,,
15.3593750000,1,1.7275389433,,,
15.3750000000,1,1.5920410156,,,
15.3906250000,1,1.2711180449,,,
15.4062500000,1,0.8105468750,,,
15.4218750000,1,0.2587890923,,,
15.4375000000,1,-0.3211669922,,,
15.4531250000,1,-0.8626708984,,,
15.4687500000,1,-1.2713619471,,,
15.4843750000,1,-1.4843750000,,,
15.5000000000,1,-1.4672850370,,,
15.5156250000,1,-1.2641600370,,,
15.5312500000,1,-0.9625244141,,,
15.5468750000,1,-0.6645507813,,,
15.5625000000,1,-0.4046630859,,,
15.5781250000,1,-0.1727295071,,,
15.5937500000,1,0.0786132813,,,
15.6093750000,1,0.3729248047,,,
15.6250000000,1,0.6567382813,,,
15.6406250000,1,0.8344727159,,,
15.6562500000,1,0.8162841797,,,
15.6718750000,1,0.5858154297,,,
15.6875000000,1,0.2015381008,,,
15.7031250000,1,-0.2027588040,,,
15.7187500000,1,-0.5028076172,,,
15.7343750000,1,-0.6367188096,,,
15.7500000000,1,-0.6055908203,,,
15.7656250000,1,-0.4649657905,,,
15.7812500000,1,-0.2888183892,,,
15.7968750000,1,-0.1394042969,,,
15.8125000000,1,-0.0346679688,,,
15.8281250000,1,0.0209960900,,,
15.8437500000,1,0.0616455115,,,
15.8593750000,1,0.1121826023,,,
15.8750000000,1,0.1704102010,,,
15.8906250000,1,0.2271728963,,,
15.9062500000,1,0.2615967095,,,
15.9218750000,1,0.2650145888,,,
15.9375000000,1,0.2484131008,,,
15.9531250000,1,0.2036132962,,,
15.9687500000,1,0.1353760064,,,
15.9843750000,1,0.0456543006,,,
16.0000000000,2,-0.0440673791,,,
16.0156250000,2,-0.0883789137,,,
16.0312500000,2,-0.0178222694,,,
16.0468750000,2,0.1998291016,,,
16.0625000000,2,0.5386962891,,,
16.0781250000,2,0.8847656250,,,
16.0937500000,2,1.0899660587,,,
16.1093750000,2,1.0626219511,,,
16.1250000000,2,0.8132324219,,,
16.1406250000,2,0.4498291016,,,
16.1562500000,2,0.1114502028,,,
16.1718750000,2,-0.1074218974,,,
16.1875000000,2,-0.2185059041,,,
16.2031250000,2,-0.2972412109,,,
16.2187500000,2,-0.4285888970,,,
16.2343750000,2,-0.6522216797,,,
16.2500000000,2,-0.9302979112,,,
16.2656250000,2,-1.1771240234,,,
16.2812500000,2,-1.3154300451,,,
16.2968750000,2,-1.3211669922,,,
16.3125000000,2,-1.2165529728,,,
16.3281250000,2,-1.0747070313,,,
16.3437500000,2,-0.9351807237,,,
16.3593750000,2,-0.7951660156,,,
16.3750000000,2,-0.5924072266,,,
16.3906250000,2,-0.2648926079,,,
16.4062500000,2,0.2047118992,,,
16.4218750000,2,0.7556151748,,,
16.4375000000,2,1.2819819450,,,
16.4531250000,2,1.6622309685,,,
16.4687500000,2,1.8192139864,,,
16.4843750000,2,1.7553709745,,,
16.5000000000,2,1.5172120333,,,
16.5156250000,2,1.1553959846,,,
16.5312500000,2,0.7189940810,,,
16.5468750000,2,0.2513428032,,,
16.5625000000,2,-0.1693114936,,,
16.5781250000,2,-0.4326171875,,,
16.5937500000,2,-0.4461669922,,,
16.6093750000,2,-0.1815185994,,,
16.6250000000,2,0.2742919922,,,
16.6406250000,2,0.7558593750,,,
16.6562500000,2,1.0943599939,,,
16.6718750000,2,1.1926269531,,,
16.6875000000,2,1.0614010096,,,
16.7031250000,2,0.7954102159,,,
16.7187500000,2,0.5024414063,,,
16.7343750000,2,0.2382812947,,,
16.7500000000,2,-0.0095214844,,,
16.7656250000,2,-0.2871094048,,,
16.7812500000,2,-0.6331787109,,,
16.7968750000,2,-1.0401610136,,,
16.8125000000,2,-1.4344480038,,,
16.8281250000,2,-1.7402340174,,,
16.8437500000,2,-1.8951419592,,,
16.8593750000,2,-1.8952640295,,,
16.8750000000,2,-1.7821040154,,,
16.8906250000,2,-1.6221920252,,,
16.9062500000,2,-1.4610600471,,,
16.9218750000,2,-1.3105469942,,,
16.9375000000,2,-1.1442869902,,,
16.9531250000,2,-0.9268798828,,,
16.9687500000,2,-0.6551514268,,,
16.9843750000,2,-0.3587645888,,,
17.0000000000,2,-0.0841064528,,,
17.0156250000,2,0.1213378981,,,
17.0312500000,2,0.2537842095,,,
17.0468750000,2,0.3419188857,,,
17.0625000000,2,0.4283446968,,,
17.0781250000,2,0.5332031250,,,
17.0937500000,2,0.6384276748,,,
17.1093750000,2,0.7008057237,,,
17.1250000000,2,0.6705322266,,,
17.1406250000,2,0.5192871094,,,
17.1562500000,2,0.2728270888,,,
17.1718750000,2,-0.0057373052,,,
17.1875000000,2,-0.2420653999,,,
17.2031250000,2,-0.3659667969,,,
17.2187500000,2,-0.3404541016,,,
17.2343750000,2,-0.1759033054,,,
17.2500000000,2,0.0672607422,,,
17.2656250000,2,0.3052979112,,,
17.2812500000,2,0.4451903999,,,
17.2968750000,2,0.4318847954,,,
17.3125000000,2,0.2656250000,,,
17.3281250000,2,-0.0095214844,,,
17.3437500000,2,-0.3165282905,,,
17.3593750000,2,-0.5994873047,,,
17.3750000000,2,-0.8151854873,,,
17.3906250000,2,-0.9453125000,,,
17.4062500000,2,-0.9768065810,,,
17.4218750000,2,-0.9038085938,,,
17.4375000000,2,-0.7420654297,,,
17.4531250000,2,-0.5214843750,,,
17.4687500000,2,-0.2958984077,,,
17.4843750000,2,-0.1269530952,,,
17.5000000000,2,-0.0529785194,,,
17.5156250000,2,-0.0590820313,,,
17.5312500000,2,-0.0943603516,,,
17.5468750000,2,-0.0718994066,,,
17.5625000000,2,0.0837402269,,,
17.5781250000,2,0.4067383111,,,
17.5937500000,2,0.8458251953,,,
17.6093750000,2,1.2855219841,,,
17.6250000000,2,1.5972900391,,,
17.6406250000,2,1.6744379997,,,
17.6562500000,2,1.4927979708,,,
17.6718750000,2,1.0970460176,,,
17.6875000000,2,0.6053466797,,,
17.7031250000,2,0.1427001953,,,
17.7187500000,2,-0.2108153999,,,
17.7343750000,2,-0.4257813096,,,
17.7500000000,2,-0.5438231826,,,
17.7656250000,2,-0.6091309190,,,
17.7812500000,2,-0.6666259766,,,
17.7968750000,2,-0.7193604112,,,
17.8125000000,2,-0.7354735732,,,
17.8281250000,2,-0.6978759766,,,
17.8437500000,2,-0.5909423828,,,
17.8593750000,2,-0.4350585938,,,
17.8750000000,2,-0.2926025093,,,
17.8906250000,2,-0.2453612983,,,
17.9062500000,2,-0.3496094048,,,
17.9218750000,2,-0.6059569716,,,
17.9375000000,2,-0.9279785156,,,
17.9531250000,2,-1.1835939884,,,
17.9687500000,2,-1.2508540154,,,
17.9843750000,2,-1.0961910486,,,
18.0000000000,2,-0.7813720703,,,
18.0156250000,2,-0.4215087891,,,
18.0312500000,2,-0.1262207031,,,
18.0468750000,2,0.0629882813,,,
18.0625000000,2,0.1633300930,,,
18.0781250000,2,0.2458495945,,,
18.0937500000,2,0.3580321968,,,
18.1093750000,2,0.4996337891,,,
18.1250000000,2,0.6203613281,,,
18.1406250000,2,0.6325684190,,,
18.1562500000,2,0.4927979112,,,
18.1718750000,2,0.1984862983,,,
18.1875000000,2,-0.1700439006,,,
18.2031250000,2,-0.4916991889,,,
18.2187500000,2,-0.6430664063,,,
18.2343750000,2,-0.5634766221,,,
18.2500000000,2,-0.2863770127,,,
18.2656250000,2,0.1118163988,,,
18.2812500000,2,0.5218505859,,,
18.2968750000,2,0.8748779297,,,
18.3125000000,2,1.1800539494,,,
18.3281250000,2,1.4904789925,,,
18.3437500000,2,1.8287349939,,,
18.3593750000,2,2.1530759335,,,
18.3750000000,2,2.3509519100,,,
18.3906250000,2,2.3052980900,,,
18.4062500000,2,1.9771729708,,,
18.4218750000,2,1.4398189783,,,
18.4375000000,2,0.8825684190,,,
18.4531250000,2,0.5096436143,,,
18.4687500000,2,0.4423828125,,,
18.4843750000,2,0.6601563096,,,
18.5000000000,2,1.0167239904,,,
18.5156250000,2,1.3330080509,,,
18.5312500000,2,1.4803470373,,,
18.5468750000,2,1.4387209415,,,
18.5625000000,2,1.2684329748,,,
18.5781250000,2,1.0487060547,,,
18.5937500000,2,0.8166503906,,,
18.6093750000,2,0.5472412109,,,
18.6250000000,2,0.1851806939,,,
18.6406250000,2,-0.3065186143,,,
18.6562500000,2,-0.8919677734,,,
18.6718750000,2,-1.4680180550,,,
18.6875000000,2,-1.9158940315,,,
18.7031250000,2,-2.1761469841,,,
18.7187500000,2,-2.2496340275,,,
18.7343750000,2,-2.2111821175,,,
18.7500000000,2,-2.1431879997,,,
18.7656250000,2,-2.0799560547,,,
18.7812500000,2,-1.9920649529,,,
18.7968750000,2,-1.8242189884,,,
18.8125000000,2,-1.5450439453,,,
18.8281250000,2,-1.1794430017,,,
18.8437500000,2,-0.8115233779,,,
18.8593750000,2,-0.5307617188,,,
18.8750000000,2,-0.3867188096,,,
18.8906250000,2,-0.3432616889,,,
18.9062500000,2,-0.3155517876,,,
18.9218750000,2,-0.2285155952,,,
18.9375000000,2,-0.0821533203,,,
18.9531250000,2,0.0592041016,,,
18.9687500000,2,0.0936279297,,,
18.9843750000,2,-0.0181884803,,,
19.0000000000,2,-0.2371826023,,,
19.0156250000,2,-0.4383544922,,,
19.0312500000,2,-0.5010985732,,,
19.0468750000,2,-0.3828125000,,,
19.0625000000,2,-0.1436768025,,,
19.0781250000,2,0.0819091797,,,
19.0937500000,2,0.1788329929,,,
19.1093750000,2,0.1217041016,,,
19.1250000000,2,-0.0106201200,,,
19.1406250000,2,-0.0900878906,,,
19.1562500000,2,-0.0336914100,,,
19.1718750000,2,0.1629638970,,,
19.1875000000,2,0.4349364936,,,
19.2031250000,2,0.6881104112,,,
19.2187500000,2,0.8828125000,,,
19.2343750000,2,1.0290529728,,,
19.2500000000,2,1.1760250330,,,
19.2656250000,2,1.3626710176,,,
19.2812500000,2,1.5913089514,,,
19.2968750000,2,1.8176269531,,,
19.3125000000,2,1.9693599939,,,
19.3281250000,2,1.9912110567,,,
19.3437500000,2,1.8454589844,,,
19.3593750000,2,1.5458979607,,,
19.3750000000,2,1.1219480038,,,
19.3906250000,2,0.6457520127,,,
19.4062500000,2,0.1933594048,,,
19.4218750000,2,-0.1385498047,,,
19.4375000000,2,-0.2839354873,,,
19.4531250000,2,-0.2215576023,,,
19.4687500000,2,0.0123290997,,,
19.4843750000,2,0.3443604112,,,
19.5000000000,2,0.6710205078,,,
19.5156250000,2,0.9050292969,,,
19.5312500000,2,0.9957274795,,,
19.5468750000,2,0.9294434190,,,
19.5625000000,2,0.7067871094,,,
19.5781250000,2,0.3530273139,,,
19.5937500000,2,-0.0946044922,,,
19.6093750000,2,-0.5762938857,,,
19.6250000000,2,-1.0223389864,,,
19.6406250000,2,-1.3673100471,,,
19.6562500000,2,-1.5655519962,,,
19.6718750000,2,-1.6154789925,,,
19.6875000000,2,-1.5358890295,,,
19.7031250000,2,-1.3696290255,,,
19.7187500000,2,-1.1567380428,,,
19.7343750000,2,-0.9426270127,,,
19.7500000000,2,-0.7725830078,,,
19.7656250000,2,-0.7037354112,,,
19.7812500000,2,-0.7900391221,,,
19.7968750000,2,-1.0344239473,,,
19.8125000000,2,-1.3875730038,,,
19.8281250000,2,-1.7526860237,,,
19.8437500000,2,-2.0086669922,,,
19.8593750000,2,-2.0628659725,,,
19.8750000000,2,-1.8774410486,,,
19.8906250000,2,-1.4527590275,,,
19.9062500000,2,-0.8581542969,,,
19.9218750000,2,-0.1818847954,,,
19.9375000000,2,0.4824219048,,,
19.9531250000,2,1.0249019861,,,
19.9687500000,2,1.3685300350,,,
19.9843750000,2,1.4863280058,,,
20.0000000000,2,1.3964840174,,,
20.0156250000,2,1.1634520292,,,
20.0312500000,2,0.8588867188,,,
20.0468750000,2,0.5349121094,,,
20.0625000000,2,0.1959228963,,,
20.0781250000,2,-0.1690673977,,,
20.0937500000,2,-0.5776367188,,,
20.1093750000,2,-1.0112299919,,,
20.1250000000,2,-1.4097900391,,,
20.1406250000,2,-1.6951899529,,,
20.1562500000,2,-1.7927249670,,,
20.1718750000,2,-1.6813960075,,,
20.1875000000,2,-1.3784179688,,,
20.2031250000,2,-0.9498291016,,,
20.2187500000,2,-0.4645996094,,,
20.2343750000,2,0.0047607422,,,
20.2500000000,2,0.4056395888,,,
20.2656250000,2,0.6933593750,,,
20.2812500000,2,0.8334960938,,,
20.2968750000,2,0.8132324219,,,
20.3125000000,2,0.6723632813,,,
20.3281250000,2,0.4855957031,,,
20.3437500000,2,0.3685303032,,,
20.3593750000,2,0.4066162109,,,
20.3750000000,2,0.6113281250,,,
20.3906250000,2,0.9095458984,,,
20.4062500000,2,1.1704100370,,,
20.4218750000,2,1.2663569450,,,
20.4375000000,2,1.1446529627,,,
20.4531250000,2,0.8354492188,,,
20.4687500000,2,0.4368895888,,,
20.4843750000,2,0.0698242188,,,
20.5000000000,2,-0.1917725056,,,
20.5156250000,2,-0.3026123047,,,
20.5312500000,2,-0.2474364936,,,
20.5468750000,2,-0.0205078106,,,
20.5625000000,2,0.3529053032,,,
20.5781250000,2,0.7893065810,,,
20.5937500000,2,1.1376949549,,,
20.6093750000,2,1.2264399529,,,
20.6250000000,2,0.9399414063,,,
20.6406250000,2,0.2916260064,,,
20.6562500000,2,-0.5463867188,,,
20.6718750000,2,-1.3353270292,,,
20.6875000000,2,-1.8448489904,,,
20.7031250000,2,-1.9873050451,,,
20.7187500000,2,-1.8278809786,,,
20.7343750000,2,-1.5461430550,,,
20.7500000000,2,-1.3139649630,,,
20.7656250000,2,-1.2073969841,,,
20.7812500000,2,-1.1833499670,,,
20.7968750000,2,-1.1335450411,,,
20.8125000000,2,-0.9692382813,,,
20.8281250000,2,-0.6949462891,,,
20.8437500000,2,-0.3876953125,,,
20.8593750000,2,-0.1357422024,,,
20.8750000000,2,0.0203857403,,,
20.8906250000,2,0.1066894978,,,
20.9062500000,2,0.1892089993,,,
20.9218750000,2,0.3303222954,,,
20.9375000000,2,0.5419921875,,,
20.9531250000,2,0.7788085938,,,
20.9687500000,2,0.9606934190,,,
20.9843750000,2,1.0396729708,,,
21.0000000000,2,0.9860839844,,,
21.0156250000,2,0.8356934190,,,
21.0312500000,2,0.6400145888,,,
21.0468750000,2,0.4377441108,,,
21.0625000000,2,0.2584229112,,,
21.0781250000,2,0.1108397990,,,
21.0937500000,2,0.0194091797,,,
21.1093750000,2,0.0257568397,,,
21.1250000000,2,0.1735839993,,,
21.1406250000,2,0.4868164063,,,
21.1562500000,2,0.9451904297,,,
21.1718750000,2,1.4583740234,,,
21.1875000000,2,1.8923339844,,,
21.2031250000,2,2.1020510197,,,
21.2187500000,2,1.9880369902,,,
21.2343750000,2,1.5340579748,,,
21.2500000000,2,0.8131104112,,,
21.2656250000,2,-0.0140380897,,,
21.2812500000,2,-0.7849121094,,,
21.2968750000,2,-1.3640140295,,,
21.3125000000,2,-1.6802979708,,,
21.3281250000,2,-1.7457280159,,,
21.3437500000,2,-1.6168210506,,,
21.3593750000,2,-1.3677979708,,,
21.3750000000,2,-1.0698239803,,,
21.3906250000,2,-0.7863770127,,,
21.4062500000,2,-0.5568848252,,,
21.4218750000,2,-0.4138183892,,,
21.4375000000,2,-0.3613280952,,,
21.4531250000,2,-0.3793945014,,,
21.4687500000,2,-0.4406737983,,,
21.4843750000,2,-0.4810791016,,,
21.5000000000,2,-0.4554443061,,,
21.5156250000,2,-0.3254395127,,,
21.5312500000,2,-0.0874023363,,,
21.5468750000,2,0.2053222954,,,
21.5625000000,2,0.4815674126,,,
21.5781250000,2,0.6612548828,,,
21.5937500000,2,0.6944580078,,,
21.6093750000,2,0.5773925781,,,
21.6250000000,2,0.3477782905,,,
21.6406250000,2,0.0877685472,,,
21.6562500000,2,-0.1226807013,,,
21.6718750000,2,-0.2182617038,,,
21.6875000000,2,-0.1956786960,,,
21.7031250000,2,-0.0942382813,,,
21.7187500000,2,0.0175781306,,,
21.7343750000,2,0.0759277269,,,
21.7500000000,2,0.0426025391,,,
21.7656250000,2,-0.0657958984,,,
21.7812500000,2,-0.2093506008,,,
21.7968750000,2,-0.3410645127,,,
21.8125000000,2,-0.3945313096,,,
21.8281250000,2,-0.3322753906,,,
21.8437500000,2,-0.1275635064,,,
21.8593750000,2,0.2078856975,,,
21.8750000000,2,0.6112061143,,,
21.8906250000,2,0.9716796875,,,
21.9062500000,2,1.1593019962,,,
21.9218750000,2,1.0655519962,,,
21.9375000000,2,0.6777343750,,,
21.9531250000,2,0.0931396484,,,
21.9687500000,2,-0.5230712891,,,
21.9843750000,2,-1.0031739473,,,
22.0000000000,2,-1.2777099609,,,
22.0156250000,2,-1.3812259436,,,
22.0312500000,2,-1.4057619572,,,
22.0468750000,2,-1.4172359705,,,
22.0625000000,2,-1.4051510096,,,
22.0781250000,2,-1.2948000431,,,
22.0937500000,2,-1.0218509436,,,
22.1093750000,2,-0.6080322266,,,
22.1250000000,2,-0.1801757962,,,
22.1406250000,2,0.1171875000,,,
22.1562500000,2,0.2031250000,,,
22.1718750000,2,0.1306152046,,,
22.1875000000,2,0.0413818397,,,
22.2031250000,2,0.0788574219,,,
22.2187500000,2,0.2883301079,,,
22.2343750000,2,0.5921630859,,,
22.2500000000,2,0.8537598252,,,
22.2656250000,2,0.9722899795,,,
22.2812500000,2,0.9451904297,,,
22.2968750000,2,0.8500977159,,,
22.3125000000,2,0.7736815810,,,
22.3281250000,2,0.7424315810,,,
22.3437500000,2,0.7086182237,,,
22.3593750000,2,0.5985106826,,,
22.3750000000,2,0.3841553032,,,
22.3906250000,2,0.1088866964,,,
22.4062500000,2,-0.1437987983,,,
22.4218750000,2,-0.3183594048,,,
22.4375000000,2,-0.3978270888,,,
22.4531250000,2,-0.4180907905,,,
22.4687500000,2,-0.4073486030,,,
22.4843750000,2,-0.3425292969,,,
22.5000000000,2,-0.1879882962,,,
22.5156250000,2,0.0992431566,,,
22.5312500000,2,0.4880371094,,,
22.5468750000,2,0.8768311143,,,
22.5625000000,2,1.1333010197,,,
22.5781250000,2,1.1624759436,,,
22.5937500000,2,0.9687500000,,,
22.6093750000,2,0.6672363281,,,
22.6250000000,2,0.4199219048,,,
22.6406250000,2,0.3692626953,,,
22.6562500000,2,0.5692139268,,,
22.6718750000,2,0.9365233779,,,
22.6875000000,2,1.3007810116,,,
22.7031250000,2,1.4741209745,,,
22.7187500000,2,1.3480219841,,,
22.7343750000,2,0.9400634766,,,
22.7500000000,2,0.3865967095,,,
22.7656250000,2,-0.1228026971,,,
22.7812500000,2,-0.4512938857,,,
22.7968750000,2,-0.5469970703,,,
22.8125000000,2,-0.4743652046,,,
22.8281250000,2,-0.3455811143,,,
22.8437500000,2,-0.2789306939,,,
22.8593750000,2,-0.3470458984,,,
22.8750000000,2,-0.5432128906,,,
22.8906250000,2,-0.8073729873,,,
22.9062500000,2,-1.0299069881,,,
22.9218750000,2,-1.1201169491,,,
22.9375000000,2,-1.0092769861,,,
22.9531250000,2,-0.7102050781,,,
22.9687500000,2,-0.3026123047,,,
22.9843750000,2,0.0975341797,,,
23.0000000000,2,0.3824462891,,,
23.0156250000,2,0.5085449219,,,
23.0312500000,2,0.5089110732,,,
23.0468750000,2,0.4305419922,,,
23.0625000000,2,0.3041991889,,,
23.0781250000,2,0.1184082031,,,
23.0937500000,2,-0.1638184041,,,
23.1093750000,2,-0.5430908203,,,
23.1250000000,2,-0.9716796875,,,
23.1406250000,2,-1.3548580408,,,
23.1562500000,2,-1.5936280489,,,
23.1718750000,2,-1.6456300020,,,
23.1875000000,2,-1.5312500000,,,
23.2031250000,2,-1.3154300451,,,
23.2187500000,2,-1.0607910156,,,
23.2343750000,2,-0.7937011719,,,
23.2500000000,2,-0.5203856826,,,
23.2656250000,2,-0.2518311143,,,
23.2812500000,2,-0.0255127009,,,
23.2968750000,2,0.0999755934,,,
23.3125000000,2,0.0831298828,,,
23.3281250000,2,-0.0482177697,,,
23.3437500000,2,-0.2026367038,,,
23.3593750000,2,-0.2712402046,,,
23.3750000000,2,-0.1910399944,,,
23.3906250000,2,-0.0161132794,,,
23.4062500000,2,0.1152343974,,,
23.4218750000,2,0.0589599609,,,
23.4375000000,2,-0.2353516072,,,
23.4531250000,2,-0.6754149795,,,
23.4687500000,2,-1.0583499670,,,
23.4843750000,2,-1.1970210075,,,
23.5000000000,2,-1.0153809786,,,
23.5156250000,2,-0.6126708984,,,
23.5312500000,2,-0.1806641072,,,
23.5468750000,2,0.0892333984,,,
23.5625000000,2,0.1104736030,,,
23.5781250000,2,-0.0800781325,,,
23.5937500000,2,-0.3433837891,,,
23.6093750000,2,-0.5270996094,,,
23.6250000000,2,-0.5302733779,,,
23.6406250000,2,-0.3380126953,,,
23.6562500000,2,-0.0002441406,,,
23.6718750000,2,0.3997803032,,,
23.6875000000,2,0.7899169922,,,
23.7031250000,2,1.1119379997,,,
23.7187500000,2,1.3254389763,,,
23.7343750000,2,1.4471440315,,,
23.7500000000,2,1.5065920353,,,
23.7656250000,2,1.5417480469,,,
23.7812500000,2,1.5842289925,,,
23.7968750000,2,1.6357419491,,,
23.8125000000,2,1.6826169491,,,
23.8281250000,2,1.7144780159,,,
23.8437500000,2,1.7320560217,,,
23.8593750000,2,1.7385250330,,,
23.8750000000,2,1.7176510096,,,
23.8906250000,2,1.6273189783,,,
23.9062500000,2,1.4155269861,,,
23.9218750000,2,1.0379639864,,,
23.9375000000,2,0.5355225205,,,
23.9531250000,2,0.0238037091,,,
23.9687500000,2,-0.3314208984,,,
23.9843750000,2,-0.3690186143,,,
24.0000000000,3,-0.0083007813,,,
24.0156250000,3,0.7086182237,,,
24.0312500000,3,1.6129150391,,,
24.0468750000,3,2.4963378906,,,
24.0625000000,3,3.1934809685,,,
24.0781250000,3,3.6329350471,,,
24.0937500000,3,3.8249509335,,,
24.1093750000,3,3.8221440315,,,
24.1250000000,3,3.6593019962,,,
24.1406250000,3,3.3238530159,,,
24.1562500000,3,2.7703859806,,,
24.1718750000,3,1.9874269962,,,
24.1875000000,3,1.0317380428,,,
24.2031250000,3,0.0499267615,,,
24.2187500000,3,-0.7904052734,,,
24.2343750000,3,-1.3823239803,,,
24.2500000000,3,-1.7238769531,,,
24.2656250000,3,-1.9222409725,,,
24.2812500000,3,-2.1060791016,,,
24.2968750000,3,-2.3400878906,,,
24.3125000000,3,-2.5833740234,,,
24.3281250000,3,-2.7395019531,,,
24.3437500000,3,-2.7453610897,,,
24.3593750000,3,-2.6231689453,,,
24.3750000000,3,-2.4857180119,,,
24.3906250000,3,-2.4361569881,,,
24.4062500000,3,-2.4969480038,,,
24.4218750000,3,-2.6190190315,,,
24.4375000000,3,-2.7081298828,,,
24.4531250000,3,-2.6964108944,,,
24.4687500000,3,-2.6016850471,,,
24.4843750000,3,-2.4809570313,,,
24.5000000000,3,-2.3559570313,,,
24.5156250000,3,-2.1711430550,,,
24.5312500000,3,-1.8201899529,,,
24.5468750000,3,-1.2517089844,,,
24.5625000000,3,-0.5216063857,,,
24.5781250000,3,0.2119141072,,,
24.5937500000,3,0.7687988281,,,
24.6093750000,3,1.0599370003,,,
24.6250000000,3,1.1267089844,,,
24.6406250000,3,1.1020510197,,,
24.6562500000,3,1.0952149630,,,
24.6718750000,3,1.1342769861,,,
24.6875000000,3,1.1453859806,,,
24.7031250000,3,1.0263669491,,,
24.7187500000,3,0.7308350205,,,
24.7343750000,3,0.2982178032,,,
24.7500000000,3,-0.1717528999,,,
24.7656250000,3,-0.5764160156,,,
24.7812500000,3,-0.8740233779,,,
24.7968750000,3,-1.0816650391,,,
24.8125000000,3,-1.2388919592,,,
24.8281250000,3,-1.3624269962,,,
24.8437500000,3,-1.4167480469,,,
24.8593750000,3,-1.3442380428,,,
24.8750000000,3,-1.1213380098,,,
24.8906250000,3,-0.7969970703,,,
24.9062500000,3,-0.4768066108,,,
24.9218750000,3,-0.2568359077,,,
24.9375000000,3,-0.1889647990,,,
24.9531250000,3,-0.2344971001,,,
24.9687500000,3,-0.3068847954,,,
24.9843750000,3,-0.3417969048,,,
25.0000000000,3,-0.3400878906,,,
25.0156250000,3,-0.3516846001,,,
25.0312500000,3,-0.4239501953,,,
25.0468750000,3,-0.5576171875,,,
25.0625000000,3,-0.6722412109,,,
25.0781250000,3,-0.6636962891,,,
25.0937500000,3,-0.4503174126,,,
25.1093750000,3,-0.0609130897,,,
25.1250000000,3,0.4099121094,,,
25.1406250000,3,0.8376464844,,,
25.1562500000,3,1.1381839514,,,
25.1718750000,3,1.3088380098,,,
25.1875000000,3,1.3916020393,,,
25.2031250000,3,1.4438480139,,,
25.2187500000,3,1.4735109806,,,
25.2343750000,3,1.4470210075,,,
25.2500000000,3,1.3000489473,,,
25.2656250000,3,0.9964600205,,,
25.2812500000,3,0.5444335938,,,
25.2968750000,3,0.0148925800,,,
25.3125000000,3,-0.4665527046,,,
25.3281250000,3,-0.7672119141,,,
25.3437500000,3,-0.8101807237,,,
25.3593750000,3,-0.6223145127,,,
25.3750000000,3,-0.3087157905,,,
25.3906250000,3,-0.0366210900,,,
25.4062500000,3,0.0524902306,,,
25.4218750000,3,-0.0748291016,,,
25.4375000000,3,-0.3393554986,,,
25.4531250000,3,-0.5916748047,,,
25.4687500000,3,-0.7020264268,,,
25.4843750000,3,-0.6125488281,,,
25.5000000000,3,-0.3909912109,,,
25.5156250000,3,-0.1437987983,,,
25.5312500000,3,0.0281982403,,,
25.5468750000,3,0.0772705078,,,
25.5625000000,3,0.0085449219,,,
25.5781250000,3,-0.1462402046,,,
25.5937500000,3,-0.3472900093,,,
25.6093750000,3,-0.5610352159,,,
25.6250000000,3,-0.7374268174,,,
25.6406250000,3,-0.8060302734,,,
25.6562500000,3,-0.7127686143,,,
25.6718750000,3,-0.4454346001,,,
25.6875000000,3,-0.0559081994,,,
25.7031250000,3,0.3576659858,,,
25.7187500000,3,0.6923828125,,,
25.7343750000,3,0.8770751953,,,
25.7500000000,3,0.9038085938,,,
25.7656250000,3,0.8040770888,,,
25.7812500000,3,0.6251220703,,,
25.7968750000,3,0.4101563096,,,
25.8125000000,3,0.1717528999,,,
25.8281250000,3,-0.0853271484,,,
25.8437500000,3,-0.3775635064,,,
25.8593750000,3,-0.7237548828,,,
25.8750000000,3,-1.1236569881,,,
25.8906250000,3,-1.5449219942,,,
25.9062500000,3,-1.9334720373,,,
25.9218750000,3,-2.2181398869,,,
25.9375000000,3,-2.3455810547,,,
25.9531250000,3,-2.3156740665,,,
25.9687500000,3,-2.1685791016,,,
25.9843750000,3,-1.9589840174,,,
26.0000000000,3,-1.7285159826,,,
26.0156250000,3,-1.4716800451,,,
26.0312500000,3,-1.1572270393,,,
26.0468750000,3,-0.7690430284,,,
26.0625000000,3,-0.3504638970,,,
26.0781250000,3,0.0233154297,,,
26.0937500000,3,0.2593994141,,,
26.1093750000,3,0.3378905952,,,
26.1250000000,3,0.3157958984,,,
26.1406250000,3,0.3343505859,,,
26.1562500000,3,0.5152587891,,,
26.1718750000,3,0.9034423828,,,
26.1875000000,3,1.4379880428,,,
26.2031250000,3,1.9812010527,,,
26.2187500000,3,2.3850100040,,,
26.2343750000,3,2.5512700081,,,
26.2500000000,3,2.4790039063,,,
26.2656250000,3,2.2149660587,,,
26.2812500000,3,1.8218990564,,,
26.2968750000,3,1.3505860567,,,
26.3125000000,3,0.8421630859,,,
26.3281250000,3,0.3435058892,,,
26.3437500000,3,-0.0745849609,,,
26.3593750000,3,-0.3361816108,,,
26.3750000000,3,-0.3977051079,,,
26.3906250000,3,-0.2766112983,,,
26.4062500000,3,-0.0684814528,,,
26.4218750000,3,0.0960693434,,,
26.4375000000,3,0.1220702976,,,
26.4531250000,3,-0.0261230506,,,
26.4687500000,3,-0.3151854873,,,
26.4843750000,3,-0.6711425781,,,
26.5000000000,3,-1.0168459415,,,
26.5156250000,3,-1.2885739803,,,
26.5312500000,3,-1.4299319983,,,
26.5468750000,3,-1.4125980139,,,
26.5625000000,3,-1.2352290154,,,
26.5781250000,3,-0.9499511719,,,
26.5937500000,3,-0.6533203125,,,
26.6093750000,3,-0.4538573921,,,
26.6250000000,3,-0.4278563857,,,
26.6406250000,3,-0.5538330078,,,
26.6562500000,3,-0.7381591797,,,
26.6718750000,3,-0.8530272841,,,
26.6875000000,3,-0.7956542969,,,
26.7031250000,3,-0.5498046875,,,
26.7187500000,3,-0.1632079929,,,
26.7343750000,3,0.2750244141,,,
26.7500000000,3,0.6933593750,,,
26.7656250000,3,1.0396729708,,,
26.7812500000,3,1.2956540585,,,
26.7968750000,3,1.4266359806,,,
26.8125000000,3,1.3988039494,,,
26.8281250000,3,1.1871340275,,,
26.8437500000,3,0.8139647841,,,
26.8593750000,3,0.3378905952,,,
26.8750000000,3,-0.1373291016,,,
26.8906250000,3,-0.5208740234,,,
26.9062500000,3,-0.7521973252,,,
26.9218750000,3,-0.8321533203,,,
26.9375000000,3,-0.7990723252,,,
26.9531250000,3,-0.7081298828,,,
26.9687500000,3,-0.5880126953,,,
26.9843750000,3,-0.4365234077,,,
27.0000000000,3,-0.2315673977,,,
27.0156250000,3,0.0246581994,,,
27.0312500000,3,0.3013916016,,,
27.0468750000,3,0.5209960938,,,
27.0625000000,3,0.6185302734,,,
27.0781250000,3,0.5543212891,,,
27.0937500000,3,0.3543700874,,,
27.1093750000,3,0.0997314528,,,
27.1250000000,3,-0.1184082031,,,
27.1406250000,3,-0.2340088040,,,
27.1562500000,3,-0.2304687947,,,
27.1718750000,3,-0.1336670071,,,
27.1875000000,3,0.0089111328,,,
27.2031250000,3,0.1647949070,,,
27.2187500000,3,0.3261719048,,,
27.2343750000,3,0.5174561143,,,
27.2500000000,3,0.7758789063,,,
27.2656250000,3,1.1062010527,,,
27.2812500000,3,1.4818120003,,,
27.2968750000,3,1.8029789925,,,
27.3125000000,3,1.9304200411,,,
27.3281250000,3,1.7530519962,,,
27.3437500000,3,1.2655030489,,,
27.3593750000,3,0.5614014268,,,
27.3750000000,3,-0.1689452976,,,
27.3906250000,3,-0.7468261719,,,
27.4062500000,3,-1.0733640194,,,
27.4218750000,3,-1.1512449980,,,
27.4375000000,3,-1.0559079647,,,
27.4531250000,3,-0.8645020127,,,
27.4687500000,3,-0.6251220703,,,
27.4843750000,3,-0.3508301079,,,
27.5000000000,3,-0.0612793006,,,
27.5156250000,3,0.1931152046,,,
27.5312500000,3,0.3549804986,,,
27.5468750000,3,0.3939208984,,,
27.5625000000,3,0.3293457031,,,
27.5781250000,3,0.2327881008,,,
27.5937500000,3,0.1729736030,,,
27.6093750000,3,0.1688231975,,,
27.6250000000,3,0.1903076023,,,
27.6406250000,3,0.1688231975,,,
27.6562500000,3,0.0710449219,,,
27.6718750000,3,-0.0830078125,,,
27.6875000000,3,-0.2570801079,,,
27.7031250000,3,-0.4215087891,,,
27.7187500000,3,-0.5780029297,,,
27.7343750000,3,-0.7423095703,,,
27.7500000000,3,-0.9118651748,,,
27.7656250000,3,-1.0417480469,,,
27.7812500000,3,-1.0671390295,,,
27.7968750000,3,-0.9421386719,,,
27.8125000000,3,-0.6834716797,,,
27.8281250000,3,-0.3873291016,,,
27.8437500000,3,-0.1687012017,,,
27.8593750000,3,-0.1123047024,,,
27.8750000000,3,-0.2091064006,,,
27.8906250000,3,-0.3920898139,,,
27.9062500000,3,-0.5533447266,,,
27.9218750000,3,-0.6169434190,,,
27.9375000000,3,-0.5711669922,,,
27.9531250000,3,-0.4403075874,,,
27.9687500000,3,-0.2532958984,,,
27.9843750000,3,-0.0310058594,,,
28.0000000000,3,0.2026367038,,,
28.0156250000,3,0.3912354112,,,
28.0312500000,3,0.4448241889,,,
28.0468750000,3,0.2847900093,,,
28.0625000000,3,-0.0822753906,,,
28.0781250000,3,-0.5458983779,,,
28.0937500000,3,-0.9062500000,,,
28.1093750000,3,-0.9929199219,,,
28.1250000000,3,-0.7414550781,,,
28.1406250000,3,-0.2532958984,,,
28.1562500000,3,0.2690429986,,,
28.1718750000,3,0.6254882813,,,
28.1875000000,3,0.7218018174,,,
28.2031250000,3,0.6051024795,,,
28.2187500000,3,0.3891601861,,,
28.2343750000,3,0.1677245945,,,
28.2500000000,3,-0.0447998010,,,
28.2656250000,3,-0.2816162109,,,
28.2812500000,3,-0.5727539063,,,
28.2968750000,3,-0.8858643174,,,
28.3125000000,3,-1.1293950081,,,
28.3281250000,3,-1.2066650391,,,
28.3437500000,3,-1.0653079748,,,
28.3593750000,3,-0.7360839844,,,
28.3750000000,3,-0.2984619141,,,
28.3906250000,3,0.1417236030,,,
28.4062500000,3,0.5137938857,,,
28.4218750000,3,0.7854003906,,,
28.4375000000,3,0.9653319716,,,
28.4531250000,3,1.0914310217,,,
28.4687500000,3,1.2089840174,,,
28.4843750000,3,1.3588869572,,,
28.5000000000,3,1.5637209415,,,
28.5156250000,3,1.8162839413,,,
28.5312500000,3,2.0799560547,,,
28.5468750000,3,2.2851560116,,,
28.5625000000,3,2.3697509766,,,
28.5781250000,3,2.2792971134,,,
28.5937500000,3,1.9941409826,,,
28.6093750000,3,1.5269780159,,,
28.6250000000,3,0.9309082031,,,
28.6406250000,3,0.3028563857,,,
28.6562500000,3,-0.2218018025,,,
28.6718750000,3,-0.5250244141,,,
28.6875000000,3,-0.5678710938,,,
28.7031250000,3,-0.4177246094,,,
28.7187500000,3,-0.2375487983,,,
28.7343750000,3,-0.2031250000,,,
28.7500000000,3,-0.4219971001,,,
28.7656250000,3,-0.8808593750,,,
28.7812500000,3,-1.4506839514,,,
28.7968750000,3,-1.9627690315,,,
28.8125000000,3,-2.2723391056,,,
28.8281250000,3,-2.3289790154,,,
28.8437500000,3,-2.1542971134,,,
28.8593750000,3,-1.8145749569,,,
28.8750000000,3,-1.3754880428,,,
28.8906250000,3,-0.8897705078,,,
28.9062500000,3,-0.4044188857,,,
28.9218750000,3,0.0083007813,,,
28.9375000000,3,0.2595215142,,,
28.9531250000,3,0.2806395888,,,
28.9687500000,3,0.0334472694,,,
28.9843750000,3,-0.4554443061,,,
29.0000000000,3,-1.0648189783,,,
29.0156250000,3,-1.6206049919,,,
29.0312500000,3,-1.9237060547,,,
29.0468750000,3,-1.8460689783,,,
29.0625000000,3,-1.3937989473,,,
29.0781250000,3,-0.7254639268,,,
29.0937500000,3,-0.0981445313,,,
29.1093750000,3,0.2642821968,,,
29.1250000000,3,0.2803955078,,,
29.1406250000,3,0.0217285194,,,
29.1562500000,3,-0.3231200874,,,
29.1718750000,3,-0.5760498047,,,
29.1875000000,3,-0.6530761719,,,
29.2031250000,3,-0.5738524795,,,
29.2187500000,3,-0.4125976861,,,
29.2343750000,3,-0.2406006008,,,
29.2500000000,3,-0.0854492188,,,
29.2656250000,3,0.0417480506,,,
29.2812500000,3,0.1330565959,,,
29.2968750000,3,0.1376952976,,,
29.3125000000,3,0.0260009803,,,
29.3281250000,3,-0.1879882962,,,
29.3437500000,3,-0.4235840142,,,
29.3593750000,3,-0.5343018174,,,
29.3750000000,3,-0.3913573921,,,
29.3906250000,3,0.0601806603,,,
29.4062500000,3,0.7532958984,,,
29.4218750000,3,1.5332030058,,,
29.4375000000,3,2.2015380859,,,
29.4531250000,3,2.6025390625,,,
29.4687500000,3,2.6816411018,,,
29.4843750000,3,2.4847409725,,,
29.5000000000,3,2.1613769531,,,
29.5156250000,3,1.8702390194,,,
29.5312500000,3,1.7390140295,,,
29.5468750000,3,1.7980959415,,,
29.5625000000,3,1.9982910156,,,
29.5781250000,3,2.2222900391,,,
29.5937500000,3,2.3746340275,,,
29.6093750000,3,2.3937990665,,,
29.6250000000,3,2.2733149529,,,
29.6406250000,3,2.0402829647,,,
29.6562500000,3,1.7425539494,,,
29.6718750000,3,1.4274899960,,,
29.6875000000,3,1.1097409725,,,
29.7031250000,3,0.7774658203,,,
29.7187500000,3,0.3961181939,,,
29.7343750000,3,-0.0439453088,,,
29.7500000000,3,-0.5078125000,,,
29.7656250000,3,-0.9274901748,,,
29.7812500000,3,-1.2119139433,,,
29.7968750000,3,-1.3260500431,,,
29.8125000000,3,-1.3077390194,,,
29.8281250000,3,-1.2407230139,,,
29.8437500000,3,-1.2191159725,,,
29.8593750000,3,-1.2911380529,,,
29.8750000000,3,-1.4290770292,,,
29.8906250000,3,-1.5363769531,,,
29.9062500000,3,-1.5411380529,,,
29.9218750000,3,-1.4165040255,,,
29.9375000000,3,-1.2281490564,,,
29.9531250000,3,-1.0729980469,,,
29.9687500000,3,-1.0380860567,,,
29.9843750000,3,-1.1517330408,,,
30.0000000000,3,-1.3489990234,,,
30.0156250000,3,-1.5390629768,,,
30.0312500000,3,-1.6184079647,,,
30.0468750000,3,-1.5356450081,,,
30.0625000000,3,-1.2973630428,,,
30.0781250000,3,-0.9737548828,,,
30.0937500000,3,-0.6643065810,,,
30.1093750000,3,-0.4508056939,,,
30.1250000000,3,-0.3762207031,,,
30.1406250000,3,-0.4262695014,,,
30.1562500000,3,-0.5539550781,,,
30.1718750000,3,-0.7042235732,,,
30.1875000000,3,-0.8336182237,,,
30.2031250000,3,-0.8977050781,,,
30.2187500000,3,-0.8670654297,,,
30.2343750000,3,-0.6862792969,,,
30.2500000000,3,-0.3243407905,,,
30.2656250000,3,0.2086181939,,,
30.2812500000,3,0.8288574219,,,
30.2968750000,3,1.3970949650,,,
30.3125000000,3,1.7667239904,,,
30.3281250000,3,1.8541259766,,,
30.3437500000,3,1.6929930449,,,
30.3593750000,3,1.3872070313,,,
30.3750000000,3,1.0611569881,,,
30.3906250000,3,0.7921143174,,,
30.4062500000,3,0.5781250000,,,
30.4218750000,3,0.4031982124,,,
30.4375000000,3,0.2468262017,,,
30.4531250000,3,0.1396483928,,,
30.4687500000,3,0.1206054986,,,
30.4843750000,3,0.1640625000,,,
30.5000000000,3,0.2095946968,,,
30.5156250000,3,0.1612548977,,,
30.5312500000,3,-0.0187988300,,,
30.5468750000,3,-0.2678222954,,,
30.5625000000,3,-0.4370116889,,,
30.5781250000,3,-0.4038085938,,,
30.5937500000,3,-0.1445312947,,,
30.6093750000,3,0.2266846001,,,
30.6250000000,3,0.5167235732,,,
30.6406250000,3,0.5722656250,,,
30.6562500000,3,0.3724364936,,,
30.6718750000,3,0.0346679688,,,
30.6875000000,3,-0.2685546875,,,
30.7031250000,3,-0.3980712891,,,
30.7187500000,3,-0.3358153999,,,
30.7343750000,3,-0.1726074070,,,
30.7500000000,3,-0.0465087891,,,
30.7656250000,3,-0.0617675819,,,
30.7812500000,3,-0.2434082031,,,
30.7968750000,3,-0.5310059190,,,
30.8125000000,3,-0.8280029297,,,
30.8281250000,3,-1.0476069450,,,
30.8437500000,3,-1.1475830078,,,
30.8593750000,3,-1.1188960075,,,
30.8750000000,3,-0.9809569716,,,
30.8906250000,3,-0.7813720703,,,
30.9062500000,3,-0.5820313096,,,
30.9218750000,3,-0.4427489936,,,
30.9375000000,3,-0.3898926079,,,
30.9531250000,3,-0.4084472954,,,
30.9687500000,3,-0.4085693061,,,
30.9843750000,3,-0.3125000000,,,
31.0000000000,3,-0.0738525391,,,
31.0156250000,3,0.2814941108,,,
31.0312500000,3,0.6568604112,,,
31.0468750000,3,0.9273682237,,,
31.0625000000,3,1.0238039494,,,
31.0781250000,3,0.9389647841,,,
31.0937500000,3,0.7596436143,,,
31.1093750000,3,0.5799561143,,,
31.1250000000,3,0.4561767876,,,
31.1406250000,3,0.3806152046,,,
31.1562500000,3,0.2987061143,,,
31.1718750000,3,0.1578368992,,,
31.1875000000,3,-0.0369873010,,,
31.2031250000,3,-0.2282714993,,,
31.2187500000,3,-0.3374023139,,,
31.2343750000,3,-0.3549804986,,,
31.2500000000,3,-0.3221436143,,,
31.2656250000,3,-0.3320313096,,,
31.2812500000,3,-0.4609375000,,,
31.2968750000,3,-0.7192382813,,,
31.3125000000,3,-1.0306400061,,,
31.3281250000,3,-1.2581789494,,,
31.3437500000,3,-1.2902829647,,,
31.3593750000,3,-1.0882569551,,,
31.3750000000,3,-0.7161865234,,,
31.3906250000,3,-0.3084717095,,,
31.4062500000,3,-0.0031738279,,,
31.4218750000,3,0.1365966946,,,
31.4375000000,3,0.1478271037,,,
31.4531250000,3,0.1179198995,,,
31.4687500000,3,0.1417236030,,,
31.4843750000,3,0.2520751953,,,
31.5000000000,3,0.4172362983,,,
31.5156250000,3,0.5747069716,,,
31.5312500000,3,0.6590576172,,,
31.5468750000,3,0.6577147841,,,
31.5625000000,3,0.6037598252,,,
31.5781250000,3,0.5314940810,,,
31.5937500000,3,0.4714354873,,,
31.6093750000,3,0.4256592095,,,
31.6250000000,3,0.3745116889,,,
31.6406250000,3,0.3295898139,,,
31.6562500000,3,0.3254395127,,,
31.6718750000,3,0.4002686143,,,
31.6875000000,3,0.5607910156,,,
31.7031250000,3,0.7664794922,,,
31.7187500000,3,0.9475098252,,,
31.7343750000,3,1.0281980038,,,
31.7500000000,3,0.9697266221,,,
31.7656250000,3,0.7702636719,,,
31.7812500000,3,0.4671630859,,,
31.7968750000,3,0.1208496019,,,
31.8125000000,3,-0.1728516072,,,
31.8281250000,3,-0.3112792969,,,
31.8437500000,3,-0.2318114936,,,
31.8593750000,3,0.0582275391,,,
31.8750000000,3,0.4586181939,,,
31.8906250000,3,0.8089600205,,,
31.9062500000,3,0.9650878906,,,
31.9218750000,3,0.8931884766,,,
31.9375000000,3,0.6784667969,,,
31.9531250000,3,0.4862061143,,,
31.9687500000,3,0.4506835938,,,
31.9843750000,3,0.5820313096,,,
32.0000000000,4,0.7539063096,,,
32.0156250000,4,0.8059082031,,,
32.0312500000,4,0.6322020888,,,
32.0468750000,4,0.2421875000,,,
32.0625000000,4,-0.2498778999,,,
32.0781250000,4,-0.7009276748,,,
32.0937500000,4,-1.0181879997,,,
32.1093750000,4,-1.1710209846,,,
32.1250000000,4,-1.1894530058,,,
32.1406250000,4,-1.1090090275,,,
32.1562500000,4,-0.9699707031,,,
32.1718750000,4,-0.7834473252,,,
32.1875000000,4,-0.5520020127,,,
32.2031250000,4,-0.2911376953,,,
32.2187500000,4,-0.0383300819,,,
32.2343750000,4,0.1497803032,,,
32.2500000000,4,0.1821289063,,,
32.2656250000,4,-0.0046386719,,,
32.2812500000,4,-0.4097900093,,,
32.2968750000,4,-0.9471436143,,,
32.3125000000,4,-1.4304200411,,,
32.3281250000,4,-1.6690670252,,,
32.3437500000,4,-1.5577390194,,,
32.3593750000,4,-1.1352540255,,,
32.3750000000,4,-0.5640869141,,,
32.3906250000,4,-0.0654296875,,,
32.4062500000,4,0.1810303032,,,
32.4218750000,4,0.1248778999,,,
32.4375000000,4,-0.1730957031,,,
32.4531250000,4,-0.5780029297,,,
32.4687500000,4,-0.9462891221,,,
32.4843750000,4,-1.1621090174,,,
32.5000000000,4,-1.1678470373,,,
32.5156250000,4,-0.9509276748,,,
32.5312500000,4,-0.5498046875,,,
32.5468750000,4,-0.0427246094,,,
32.5625000000,4,0.4531250000,,,
32.5781250000,4,0.8339843750,,,
32.5937500000,4,1.0120849609,,,
32.6093750000,4,0.9611815810,,,
32.6250000000,4,0.7071533203,,,
32.6406250000,4,0.3374023139,,,
32.6562500000,4,-0.0506591797,,,
32.6718750000,4,-0.3549804986,,,
32.6875000000,4,-0.4920653999,,,
32.7031250000,4,-0.4342041016,,,
32.7187500000,4,-0.1909179986,,,
32.7343750000,4,0.1734618992,,,
32.7500000000,4,0.5682373047,,,
32.7656250000,4,0.8872069716,,,
32.7812500000,4,1.0672609806,,,
32.7968750000,4,1.0777590275,,,
32.8125000000,4,0.9272460938,,,
32.8281250000,4,0.6607666016,,,
32.8437500000,4,0.3248291016,,,
32.8593750000,4,-0.0201415997,,,
32.8750000000,4,-0.3193359077,,,
32.8906250000,4,-0.5150145888,,,
32.9062500000,4,-0.5721436143,,,
32.9218750000,4,-0.4556885064,,,
32.9375000000,4,-0.1752929986,,,
32.9531250000,4,0.2263184041,,,
32.9687500000,4,0.6885985732,,,
32.9843750000,4,1.1479489803,,,
33.0000000000,4,1.5416259766,,,
33.0156250000,4,1.8126219511,,,
33.0312500000,4,1.9008790255,,,
33.0468750000,4,1.7471920252,,,
33.0625000000,4,1.3092039824,,,
33.0781250000,4,0.6046143174,,,
33.0937500000,4,-0.2811278999,,,
33.1093750000,4,-1.1862790585,,,
33.1250000000,4,-1.9660639763,,,
33.1406250000,4,-2.5117189884,,,
33.1562500000,4,-2.8160400391,,,
33.1718750000,4,-2.9592289925,,,
33.1875000000,4,-3.0437009335,,,
33.2031250000,4,-3.1439208984,,,
33.2187500000,4,-3.2529299259,,,
33.2343750000,4,-3.2996830940,,,
33.2500000000,4,-3.1724851131,,,
33.2656250000,4,-2.7934570313,,,
33.2812500000,4,-2.1308588982,,,
33.2968750000,4,-1.2351069450,,,
33.3125000000,4,-0.2094727010,,,
33.3281250000,4,0.8354492188,,,
33.3437500000,4,1.7789310217,,,
33.3593750000,4,2.5291750431,,,
33.3750000000,4,3.0184330940,,,
33.3906250000,4,3.2137451172,,,
33.4062500000,4,3.1269528866,,,
33.4218750000,4,2.8262939453,,,
33.4375000000,4,2.4298100471,,,
33.4531250000,4,2.0632319450,,,
33.4687500000,4,1.8343509436,,,
33.4843750000,4,1.7700200081,,,
33.5000000000,4,1.8165279627,,,
33.5156250000,4,1.8477779627,,,
33.5312500000,4,1.7399899960,,,
33.5468750000,4,1.4003909826,,,
33.5625000000,4,0.8498535156,,,
33.5781250000,4,0.2065429986,,,
33.5937500000,4,-0.3596191108,,,
33.6093750000,4,-0.6826171875,,,
33.6250000000,4,-0.7064208984,,,
33.6406250000,4,-0.5092772841,,,
33.6562500000,4,-0.2521972954,,,
33.6718750000,4,-0.1192627028,,,
33.6875000000,4,-0.2218018025,,,
33.7031250000,4,-0.5357666016,,,
33.7187500000,4,-0.9401854873,,,
33.7343750000,4,-1.2817380428,,,
33.7500000000,4,-1.4653320313,,,
33.7656250000,4,-1.4891359806,,,
33.7812500000,4,-1.4217530489,,,
33.7968750000,4,-1.3280030489,,,
33.8125000000,4,-1.2401119471,,,
33.8281250000,4,-1.1363530159,,,
33.8437500000,4,-0.9841309190,,,
33.8593750000,4,-0.7775878906,,,
33.8750000000,4,-0.5635985732,,,
33.8906250000,4,-0.4267578125,,,
33.9062500000,4,-0.4180907905,,,
33.9218750000,4,-0.5463867188,,,
33.9375000000,4,-0.7482910156,,,
33.9531250000,4,-0.9312744141,,,
33.9687500000,4,-1.0026860237,,,
33.9843750000,4,-0.9174805284,,,
34.0000000000,4,-0.6704102159,,,
34.0156250000,4,-0.3337402046,,,
34.0312500000,4,0.0048828130,,,
34.0468750000,4,0.2617188096,,,
34.0625000000,4,0.3985596001,,,
34.0781250000,4,0.4471436143,,,
34.0937500000,4,0.4836426079,,,
34.1093750000,4,0.5705565810,,,
34.1250000000,4,0.7352294922,,,
34.1406250000,4,0.9620360732,,,
34.1562500000,4,1.2022709846,,,
34.1718750000,4,1.4118649960,,,
34.1875000000,4,1.5650629997,,,
34.2031250000,4,1.6577149630,,,
34.2187500000,4,1.6656490564,,,
34.2343750000,4,1.5522459745,,,
34.2500000000,4,1.2922359705,,,
34.2656250000,4,0.9031981826,,,
34.2812500000,4,0.4444580078,,,
34.2968750000,4,0.0148925800,,,
34.3125000000,4,-0.3123778999,,,
34.3281250000,4,-0.5146483779,,,
34.3437500000,4,-0.6209716797,,,
34.3593750000,4,-0.6658936143,,,
34.3750000000,4,-0.6447753906,,,
34.3906250000,4,-0.5295410156,,,
34.4062500000,4,-0.2823486030,,,
34.4218750000,4,0.0611572303,,,
34.4375000000,4,0.4207763970,,,
34.4531250000,4,0.6918944716,,,
34.4687500000,4,0.8085938096,,,
34.4843750000,4,0.7545166016,,,
34.5000000000,4,0.5863037109,,,
34.5156250000,4,0.3645020127,,,
34.5312500000,4,0.1346435994,,,
34.5468750000,4,-0.0611572303,,,
34.5625000000,4,-0.2111815959,,,
34.5781250000,4,-0.3044433892,,,
34.5937500000,4,-0.3463135064,,,
34.6093750000,4,-0.3775635064,,,
34.6250000000,4,-0.4520263970,,,
34.6406250000,4,-0.5972899795,,,
34.6562500000,4,-0.7673339844,,,
34.6718750000,4,-0.8637694716,,,
34.6875000000,4,-0.7972412109,,,
34.7031250000,4,-0.5588378906,,,
34.7187500000,4,-0.2656250000,,,
34.7343750000,4,-0.1080321968,,,
34.7500000000,4,-0.2314452976,,,
34.7656250000,4,-0.6375731826,,,
34.7812500000,4,-1.1762700081,,,
34.7968750000,4,-1.6071779728,,,
34.8125000000,4,-1.7438960075,,,
34.8281250000,4,-1.5402829647,,,
34.8437500000,4,-1.0976560116,,,
34.8593750000,4,-0.5966796875,,,
34.8750000000,4,-0.1915283054,,,
34.8906250000,4,0.0583496094,,,
34.9062500000,4,0.2099608928,,,
34.9218750000,4,0.3564453125,,,
34.9375000000,4,0.5689697266,,,
34.9531250000,4,0.8450927734,,,
34.9687500000,4,1.1289060116,,,
34.9843750000,4,1.3262939453,,,
35.0000000000,4,1.3983149529,,,
35.0156250000,4,1.3532710075,,,
35.0312500000,4,1.2473139763,,,
35.0468750000,4,1.1235350370,,,
35.0625000000,4,0.9763184190,,,
35.0781250000,4,0.7645264268,,,
35.0937500000,4,0.4431152046,,,
35.1093750000,4,0.0117187500,,,
35.1250000000,4,-0.4594726861,,,
35.1406250000,4,-0.8569335938,,,
35.1562500000,4,-1.0983890295,,,
35.1718750000,4,-1.1573489904,,,
35.1875000000,4,-1.0836180449,,,
35.2031250000,4,-0.9489746094,,,
35.2187500000,4,-0.8176270127,,,
35.2343750000,4,-0.7216796875,,,
35.2500000000,4,-0.6466063857,,,
35.2656250000,4,-0.5706787109,,,
35.2812500000,4,-0.4848633111,,,
35.2968750000,4,-0.3807373047,,,
35.3125000000,4,-0.2751465142,,,
35.3281250000,4,-0.1724853963,,,
35.3437500000,4,-0.0847167969,,,
35.3593750000,4,0.0162353497,,,
35.3750000000,4,0.1489257962,,,
35.3906250000,4,0.3404541016,,,
35.4062500000,4,0.5792235732,,,
35.4218750000,4,0.8149414063,,,
35.4375000000,4,0.9548339844,,,
35.4531250000,4,0.9252930284,,,
35.4687500000,4,0.7325438857,,,
35.4843750000,4,0.4594726861,,,
35.5000000000,4,0.2598876953,,,
35.5156250000,4,0.2349853963,,,
35.5312500000,4,0.3944092095,,,
35.5468750000,4,0.6146240234,,,
35.5625000000,4,0.7381591797,,,
35.5781250000,4,0.6701660156,,,
35.5937500000,4,0.4549561143,,,
35.6093750000,4,0.2369385064,,,
35.6250000000,4,0.1560059041,,,
35.6406250000,4,0.2631835938,,,
35.6562500000,4,0.4445801079,,,
35.6718750000,4,0.5311279297,,,
35.6875000000,4,0.3980712891,,,
35.7031250000,4,0.0753173828,,,
35.7187500000,4,-0.2845458984,,,
35.7343750000,4,-0.5085449219,,,
35.7500000000,4,-0.5030518174,,,
35.7656250000,4,-0.3159179986,,,
35.7812500000,4,-0.0872802734,,,
35.7968750000,4,0.0468750000,,,
35.8125000000,4,0.0501708984,,,
35.8281250000,4,-0.0145263700,,,
35.8437500000,4,-0.0568847694,,,
35.8593750000,4,-0.0292968806,,,
35.8750000000,4,0.0021972661,,,
35.8906250000,4,-0.0632324219,,,
35.9062500000,4,-0.3088378906,,,
35.9218750000,4,-0.7135009766,,,
35.9375000000,4,-1.1761469841,,,
35.9531250000,4,-1.5622559786,,,
35.9687500000,4,-1.7785639763,,,
35.9843750000,4,-1.8353270292,,,
36.0000000000,4,-1.7954100370,,,
36.0156250000,4,-1.7241209745,,,
36.0312500000,4,-1.6203609705,,,
36.0468750000,4,-1.4425050020,,,
36.0625000000,4,-1.1236569881,,,
36.0781250000,4,-0.6531981826,,,
36.0937500000,4,-0.0845947266,,,
36.1093750000,4,0.4581299126,,,
36.1250000000,4,0.8393555284,,,
36.1406250000,4,0.9849854112,,,
36.1562500000,4,0.8909912109,,,
36.1718750000,4,0.6328125000,,,
36.1875000000,4,0.3145751953,,,
36.2031250000,4,0.0401611291,,,
36.2187500000,4,-0.1436768025,,,
36.2343750000,4,-0.2604979873,,,
36.2500000000,4,-0.3914794922,,,
36.2656250000,4,-0.6169434190,,,
36.2812500000,4,-0.9586182237,,,
36.2968750000,4,-1.3579100370,,,
36.3125000000,4,-1.6606450081,,,
36.3281250000,4,-1.7154539824,,,
36.3437500000,4,-1.4256589413,,,
36.3593750000,4,-0.8306884766,,,
36.3750000000,4,-0.0931396484,,,
36.3906250000,4,0.5849608779,,,
36.4062500000,4,1.0191650391,,,
36.4218750000,4,1.1271970272,,,
36.4375000000,4,0.9245604873,,,
36.4531250000,4,0.4853515923,,,
36.4687500000,4,-0.0743408203,,,
36.4843750000,4,-0.6302490234,,,
36.5000000000,4,-1.0578609705,,,
36.5156250000,4,-1.2520749569,,,
36.5312500000,4,-1.1583249569,,,
36.5468750000,4,-0.8099365234,,,
36.5625000000,4,-0.3164063096,,,
36.5781250000,4,0.1777344048,,,
36.5937500000,4,0.5878906250,,,
36.6093750000,4,0.9133300781,,,
36.6250000000,4,1.2301030159,,,
36.6406250000,4,1.6192630529,,,
36.6562500000,4,2.0892329216,,,
36.6718750000,4,2.5675048828,,,
36.6875000000,4,2.9287109375,,,
36.7031250000,4,3.0601809025,,,
36.7187500000,4,2.9350590706,,,
36.7343750000,4,2.5839838982,,,
36.7500000000,4,2.0749509335,,,
36.7656250000,4,1.4626460075,,,
36.7812500000,4,0.7849121094,,,
36.7968750000,4,0.0753173828,,,
36.8125000000,4,-0.5950927734,,,
36.8281250000,4,-1.1224370003,,,
36.8437500000,4,-1.4038089514,,,
36.8593750000,4,-1.4001460075,,,
36.8750000000,4,-1.1727290154,,,
36.8906250000,4,-0.8529052734,,,
36.9062500000,4,-0.5922852159,,,
36.9218750000,4,-0.4915770888,,,
36.9375000000,4,-0.5604248047,,,
36.9531250000,4,-0.7324218750,,,
36.9687500000,4,-0.8933104873,,,
36.9843750000,4,-0.9245604873,,,
37.0000000000,4,-0.7687988281,,,
37.0156250000,4,-0.4392090142,,,
37.0312500000,4,-0.0278320294,,,
37.0468750000,4,0.3427734077,,,
37.0625000000,4,0.5805664063,,,
37.0781250000,4,0.6657714844,,,
37.0937500000,4,0.6579589844,,,
37.1093750000,4,0.6480712891,,,
37.1250000000,4,0.7254639268,,,
37.1406250000,4,0.9119873047,,,
37.1562500000,4,1.1567380428,,,
37.1718750000,4,1.3724370003,,,
37.1875000000,4,1.4801030159,,,
37.2031250000,4,1.4228520393,,,
37.2187500000,4,1.2009279728,,,
37.2343750000,4,0.8316649795,,,
37.2500000000,4,0.3577880859,,,
37.2656250000,4,-0.1715088040,,,
37.2812500000,4,-0.6976317763,,,
37.2968750000,4,-1.1614990234,,,
37.3125000000,4,-1.5233149529,,,
37.3281250000,4,-1.7812500000,,,
37.3437500000,4,-1.9696040154,,,
37.3593750000,4,-2.1260991096,,,
37.3750000000,4,-2.2529299259,,,
37.3906250000,4,-2.3048100471,,,
37.4062500000,4,-2.2150878906,,,
37.4218750000,4,-1.9296879768,,,
37.4375000000,4,-1.4329830408,,,
37.4531250000,4,-0.7802733779,,,
37.4687500000,4,-0.0764160231,,,
37.4843750000,4,0.5611572266,,,
37.5000000000,4,1.0324709415,,,
37.5156250000,4,1.2996829748,,,
37.5312500000,4,1.3679200411,,,
37.5468750000,4,1.2891850471,,,
37.5625000000,4,1.1214599609,,,
37.5781250000,4,0.9174805284,,,
37.5937500000,4,0.7092285156,,,
37.6093750000,4,0.5032958984,,,
37.6250000000,4,0.3326416016,,,
37.6406250000,4,0.2268065959,,,
37.6562500000,4,0.2275391072,,,
37.6718750000,4,0.3588866889,,,
37.6875000000,4,0.6152343750,,,
37.7031250000,4,0.9287108779,,,
37.7187500000,4,1.2053220272,,,
37.7343750000,4,1.3427729607,,,
37.7500000000,4,1.2781980038,,,
37.7656250000,4,1.0076899529,,,
37.7812500000,4,0.5904541016,,,
37.7968750000,4,0.1129150018,,,
37.8125000000,4,-0.3111571968,,,
37.8281250000,4,-0.5874022841,,,
37.8437500000,4,-0.6621093750,,,
37.8593750000,4,-0.5589600205,,,
37.8750000000,4,-0.3538818061,,,
37.8906250000,4,-0.1539306939,,,
37.9062500000,4,-0.0347900391,,,
37.9218750000,4,-0.0109863300,,,
37.9375000000,4,-0.0460205115,,,
37.9531250000,4,-0.0800781325,,,
37.9687500000,4,-0.0761718825,,,
37.9843750000,4,-0.0522460900,,,
38.0000000000,4,-0.0402831994,,,
38.0156250000,4,-0.0529785194,,,
38.0312500000,4,-0.0799560472,,,
38.0468750000,4,-0.0772705078,,,
38.0625000000,4,-0.0294189509,,,
38.0781250000,4,0.0335693397,,,
38.0937500000,4,0.0590820313,,,
38.1093750000,4,-0.0092773438,,,
38.1250000000,4,-0.1682129055,,,
38.1406250000,4,-0.3688965142,,,
38.1562500000,4,-0.5574951172,,,
38.1718750000,4,-0.7193604112,,,
38.1875000000,4,-0.8751220703,,,
38.2031250000,4,-1.0690920353,,,
38.2187500000,4,-1.3045649529,,,
38.2343750000,4,-1.5368649960,,,
38.2500000000,4,-1.6899410486,,,
38.2656250000,4,-1.7033690214,,,
38.2812500000,4,-1.5491939783,,,
38.2968750000,4,-1.2471920252,,,
38.3125000000,4,-0.8569335938,,,
38.3281250000,4,-0.4321289063,,,
38.3437500000,4,-0.0360107385,,,
38.3593750000,4,0.2442626953,,,
38.3750000000,4,0.3476563096,,,
38.3906250000,4,0.2259521037,,,
38.4062500000,4,-0.0788574219,,,
38.4218750000,4,-0.4366455078,,,
38.4375000000,4,-0.7041016221,,,
38.4531250000,4,-0.7825927734,,,
38.4687500000,4,-0.6640625000,,,
38.4843750000,4,-0.4528808892,,,
38.5000000000,4,-0.2624512017,,,
38.5156250000,4,-0.1441649944,,,
38.5312500000,4,-0.0563964806,,,
38.5468750000,4,0.1032714993,,,
38.5625000000,4,0.4088135064,,,
38.5781250000,4,0.8527832031,,,
38.5937500000,4,1.3258060217,,,
38.6093750000,4,1.6854250431,,,
38.6250000000,4,1.8167719841,,,
38.6406250000,4,1.6970210075,,,
38.6562500000,4,1.4053959846,,,
38.6718750000,4,1.0712889433,,,
38.6875000000,4,0.8033447266,,,
38.7031250000,4,0.6569824219,,,
38.7187500000,4,0.6154785156,,,
38.7343750000,4,0.6121826172,,,
38.7500000000,4,0.5693358779,,,
38.7656250000,4,0.4378662109,,,
38.7812500000,4,0.2142333984,,,
38.7968750000,4,-0.0657958984,,,
38.8125000000,4,-0.3408203125,,,
38.8281250000,4,-0.5455322266,,,
38.8437500000,4,-0.6381835938,,,
38.8593750000,4,-0.6308593750,,,
38.8750000000,4,-0.5692139268,,,
38.8906250000,4,-0.5184326172,,,
38.9062500000,4,-0.5192871094,,,
38.9218750000,4,-0.5791016221,,,
38.9375000000,4,-0.6697998047,,,
38.9531250000,4,-0.7709960938,,,
38.9687500000,4,-0.8712158203,,,
38.9843750000,4,-0.9666748047,,,
39.0000000000,4,-1.0336910486,,,
39.0156250000,4,-1.0228270292,,,
39.0312500000,4,-0.8747559190,,,
39.0468750000,4,-0.5541992188,,,
39.0625000000,4,-0.1057128981,,,
39.0781250000,4,0.3929443061,,,
39.0937500000,4,0.8261718750,,,
39.1093750000,4,1.1179200411,,,
39.1250000000,4,1.2600100040,,,
39.1406250000,4,1.2684329748,,,
39.1562500000,4,1.1715090275,,,
39.1718750000,4,0.9783936143,,,
39.1875000000,4,0.7014160156,,,
39.2031250000,4,0.3886719048,,,
39.2187500000,4,0.1257324070,,,
39.2343750000,4,0.0177002009,,,
39.2500000000,4,0.1011962965,,,
39.2656250000,4,0.3342284858,,,
39.2812500000,4,0.6229248047,,,
39.2968750000,4,0.8337401748,,,
39.3125000000,4,0.9016113281,,,
39.3281250000,4,0.8294677734,,,
39.3437500000,4,0.6580811143,,,
39.3593750000,4,0.4366455078,,,
39.3750000000,4,0.1839600056,,,
39.3906250000,4,-0.0806884766,,,
39.4062500000,4,-0.3315429986,,,
39.4218750000,4,-0.5216063857,,,
39.4375000000,4,-0.6168212891,,,
39.4531250000,4,-0.6218261719,,,
39.4687500000,4,-0.6083983779,,,
39.4843750000,4,-0.6677246094,,,
39.5000000000,4,-0.8626708984,,,
39.5156250000,4,-1.1770019531,,,
39.5312500000,4,-1.5280760527,,,
39.5468750000,4,-1.7723389864,,,
39.5625000000,4,-1.8187259436,,,
39.5781250000,4,-1.6264649630,,,
39.5937500000,4,-1.2388919592,,,
39.6093750000,4,-0.7596436143,,,
39.6250000000,4,-0.3020020127,,,
39.6406250000,4,0.0520019494,,,
39.6562500000,4,0.2805176079,,,
39.6718750000,4,0.4008789063,,,
39.6875000000,4,0.4404296875,,,
39.7031250000,4,0.4284667969,,,
39.7187500000,4,0.3688965142,,,
39.7343750000,4,0.2749023139,,,
39.7500000000,4,0.1634521037,,,
39.7656250000,4,0.0698242188,,,
39.7812500000,4,0.0513916016,,,
39.7968750000,4,0.1240234002,,,
39.8125000000,4,0.2545166016,,,
39.8281250000,4,0.3695068061,,,
39.8437500000,4,0.3967284858,,,
39.8593750000,4,0.2908936143,,,
39.8750000000,4,0.0750732422,,,
39.8906250000,4,-0.1738280952,,,
39.9062500000,4,-0.3781737983,,,
39.9218750000,4,-0.4887695014,,,
39.9375000000,4,-0.5015869141,,,
39.9531250000,4,-0.4472655952,,,
39.9687500000,4,-0.3612061143,,,
39.9843750000,4,-0.2652587891,,,
40.0000000000,5,-0.1630858928,,,
40.0156250000,5,-0.0478515588,,,
40.0312500000,5,0.0808105469,,,
40.0468750000,5,0.2242431939,,,
40.0625000000,5,0.3955078125,,,
40.0781250000,5,0.6005858779,,,
40.0937500000,5,0.8464354873,,,
40.1093750000,5,1.1113280058,,,
40.1250000000,5,1.3465579748,,,
40.1406250000,5,1.4810789824,,,
40.1562500000,5,1.4531250000,,,
40.1718750000,5,1.2596440315,,,
40.1875000000,5,0.9327393174,,,
40.2031250000,5,0.5447998047,,,
40.2187500000,5,0.1665039063,,,
40.2343750000,5,-0.1459960938,,,
40.2500000000,5,-0.3895263970,,,
40.2656250000,5,-0.5821533203,,,
40.2812500000,5,-0.7663574219,,,
40.2968750000,5,-0.9547119141,,,
40.3125000000,5,-1.1333010197,,,
40.3281250000,5,-1.2694089413,,,
40.3437500000,5,-1.2930910587,,,
40.3593750000,5,-1.1772459745,,,
40.3750000000,5,-0.9230957031,,,
40.3906250000,5,-0.5754395127,,,
40.4062500000,5,-0.1834716946,,,
40.4218750000,5,0.2124022990,,,
40.4375000000,5,0.5891113281,,,
40.4531250000,5,0.9403076172,,,
40.4687500000,5,1.2381589413,,,
40.4843750000,5,1.4295649529,,,
40.5000000000,5,1.4759520292,,,
40.5156250000,5,1.3610839844,,,
40.5312500000,5,1.1375730038,,,
40.5468750000,5,0.8889160156,,,
40.5625000000,5,0.6961669922,,,
40.5781250000,5,0.5833740234,,,
40.5937500000,5,0.5144042969,,,
40.6093750000,5,0.4104003906,,,
40.6250000000,5,0.2214355022,,,
40.6406250000,5,-0.0427246094,,,
40.6562500000,5,-0.3282471001,,,
40.6718750000,5,-0.5640869141,,,
40.6875000000,5,-0.6989746094,,,
40.7031250000,5,-0.7130126953,,,
40.7187500000,5,-0.6317139268,,,
40.7343750000,5,-0.4818114936,,,
40.7500000000,5,-0.3002929986,,,
40.7656250000,5,-0.1215820014,,,
40.7812500000,5,0.0163574200,,,
40.7968750000,5,0.0798339769,,,
40.8125000000,5,0.0430908203,,,
40.8281250000,5,-0.1055907980,,,
40.8437500000,5,-0.3475342095,,,
40.8593750000,5,-0.6348876953,,,
40.8750000000,5,-0.8881835938,,,
40.8906250000,5,-1.0214840174,,,
40.9062500000,5,-0.9624022841,,,
40.9218750000,5,-0.6741942763,,,
40.9375000000,5,-0.2132568061,,,
40.9531250000,5,0.3034667969,,,
40.9687500000,5,0.7154541016,,,
40.9843750000,5,0.8635253906,,,
41.0000000000,5,0.6767578125,,,
41.0156250000,5,0.1846923977,,,
41.0312500000,5,-0.4785155952,,,
41.0468750000,5,-1.1225589514,,,
41.0625000000,5,-1.5728759766,,,
41.0781250000,5,-1.7136230469,,,
41.0937500000,5,-1.5446779728,,,
41.1093750000,5,-1.1712650061,,,
41.1250000000,5,-0.7375488281,,,
41.1406250000,5,-0.3870849907,,,
41.1562500000,5,-0.1829833984,,,
41.1718750000,5,-0.1204833984,,,
41.1875000000,5,-0.1478271037,,,
41.2031250000,5,-0.2092285007,,,
41.2187500000,5,-0.2918700874,,,
41.2343750000,5,-0.3972167969,,,
41.2500000000,5,-0.5125731826,,,
41.2656250000,5,-0.5899658203,,,
41.2812500000,5,-0.5577393174,,,
41.2968750000,5,-0.3642578125,,,
41.3125000000,5,-0.0297851600,,,
41.3281250000,5,0.3572998047,,,
41.3437500000,5,0.6723632813,,,
41.3593750000,5,0.8057860732,,,
41.3750000000,5,0.7220458984,,,
41.3906250000,5,0.4410400093,,,
41.4062500000,5,0.0301513709,,,
41.4218750000,5,-0.4051513970,,,
41.4375000000,5,-0.7657470703,,,
41.4531250000,5,-0.9766845703,,,
41.4687500000,5,-0.9987792969,,,
41.4843750000,5,-0.8692626953,,,
41.5000000000,5,-0.6711425781,,,
41.5156250000,5,-0.5142822266,,,
41.5312500000,5,-0.4689941108,,,
41.5468750000,5,-0.5212401748,,,
41.5625000000,5,-0.5959473252,,,
41.5781250000,5,-0.5917968750,,,
41.5937500000,5,-0.4532471001,,,
41.6093750000,5,-0.2247314006,,,
41.6250000000,5,-0.0247802697,,,
41.6406250000,5,0.0135498000,,,
41.6562500000,5,-0.1701660007,,,
41.6718750000,5,-0.5166016221,,,
41.6875000000,5,-0.8793944716,,,
41.7031250000,5,-1.1032710075,,,
41.7187500000,5,-1.0986330509,,,
41.7343750000,5,-0.8712158203,,,
41.7500000000,5,-0.4989013970,,,
41.7656250000,5,-0.0673828125,,,
41.7812500000,5,0.3729248047,,,
41.7968750000,5,0.8201904297,,,
41.8125000000,5,1.2866209745,,,
41.8281250000,5,1.7631839514,,,
41.8437500000,5,2.1898190975,,,
41.8593750000,5,2.4775390625,,,
41.8750000000,5,2.5635991096,,,
41.8906250000,5,2.4482419491,,,
41.9062500000,5,2.1809079647,,,
41.9218750000,5,1.8259279728,,,
41.9375000000,5,1.4376219511,,,
41.9531250000,5,1.0435789824,,,
41.9687500000,5,0.6604003906,,,
41.9843750000,5,0.3255614936,,,
42.0000000000,5,0.0910644531,,,
42.0156250000,5,-0.0029296880,,,
42.0312500000,5,0.0399169885,,,
42.0468750000,5,0.1630858928,,,
42.0625000000,5,0.2999267876,,,
42.0781250000,5,0.3935546875,,,
42.0937500000,5,0.4281005859,,,
42.1093750000,5,0.4146729112,,,
42.1250000000,5,0.3713378906,,,
42.1406250000,5,0.3076171875,,,
42.1562500000,5,0.2147216946,,,
42.1718750000,5,0.0705566406,,,
42.1875000000,5,-0.1256103963,,,
42.2031250000,5,-0.3806152046,,,
42.2187500000,5,-0.7001953125,,,
42.2343750000,5,-1.0834959745,,,
42.2500000000,5,-1.5183110237,,,
42.2656250000,5,-1.9527590275,,,
42.2812500000,5,-2.3049321175,,,
42.2968750000,5,-2.4802250862,,,
42.3125000000,5,-2.4039309025,,,
42.3281250000,5,-2.0667719841,,,
42.3437500000,5,-1.5423580408,,,
42.3593750000,5,-0.9522705078,,,
42.3750000000,5,-0.4267578125,,,
42.3906250000,5,-0.0566406287,,,
42.4062500000,5,0.1118163988,,,
42.4218750000,5,0.0740966797,,,
42.4375000000,5,-0.1461181939,,,
42.4531250000,5,-0.4908446968,,,
42.4687500000,5,-0.8718261719,,,
42.4843750000,5,-1.1652829647,,,
42.5000000000,5,-1.2734379768,,,
42.5156250000,5,-1.1414790154,,,
42.5312500000,5,-0.7950438857,,,
42.5468750000,5,-0.3403320014,,,
42.5625000000,5,0.0867919922,,,
42.5781250000,5,0.3739013970,,,
42.5937500000,5,0.5061035156,,,
42.6093750000,5,0.5341796875,,,
42.6250000000,5,0.5726317763,,,
42.6406250000,5,0.7086182237,,,
42.6562500000,5,0.9876708984,,,
42.6718750000,5,1.3583979607,,,
42.6875000000,5,1.7263180017,,,
42.7031250000,5,2.0008540154,,,
42.7187500000,5,2.1279299259,,,
42.7343750000,5,2.0972900391,,,
42.7500000000,5,1.9333499670,,,
42.7656250000,5,1.6755369902,,,
42.7812500000,5,1.3483890295,,,
42.7968750000,5,0.9581298828,,,
42.8125000000,5,0.5239257813,,,
42.8281250000,5,0.0900878906,,,
42.8437500000,5,-0.2623291016,,,
42.8593750000,5,-0.4587402046,,,
42.8750000000,5,-0.4539794922,,,
42.8906250000,5,-0.2590332031,,,
42.9062500000,5,0.0736083984,,,
42.9218750000,5,0.4743652046,,,
42.9375000000,5,0.8598632813,,,
42.9531250000,5,1.1633299589,,,
42.9687500000,5,1.3154300451,,,
42.9843750000,5,1.2829589844,,,
43.0000000000,5,1.0668950081,,,
43.0156250000,5,0.7279052734,,,
43.0312500000,5,0.3819580078,,,
43.0468750000,5,0.1348876953,,,
43.0625000000,5,0.0450439490,,,
43.0781250000,5,0.0726318434,,,
43.0937500000,5,0.1275635064,,,
43.1093750000,5,0.1094971001,,,
43.1250000000,5,-0.0148925800,,,
43.1406250000,5,-0.2091064006,,,
43.1562500000,5,-0.3745116889,,,
43.1718750000,5,-0.4393311143,,,
43.1875000000,5,-0.3878174126,,,
43.2031250000,5,-0.2802734077,,,
43.2187500000,5,-0.2075195014,,,
43.2343750000,5,-0.2322998047,,,
43.2500000000,5,-0.3741455078,,,
43.2656250000,5,-0.5933837891,,,
43.2812500000,5,-0.8304442763,,,
43.2968750000,5,-1.0246579647,,,
43.3125000000,5,-1.1458740234,,,
43.3281250000,5,-1.1906739473,,,
43.3437500000,5,-1.1700439453,,,
43.3593750000,5,-1.1094969511,,,
43.3750000000,5,-1.0395510197,,,
43.3906250000,5,-0.9884033203,,,
43.4062500000,5,-0.9572753906,,,
43.4218750000,5,-0.9146729112,,,
43.4375000000,5,-0.8041992188,,,
43.4531250000,5,-0.5980225205,,,
43.4687500000,5,-0.3117676079,,,
43.4843750000,5,-0.0107421903,,,
43.5000000000,5,0.2222899944,,,
43.5156250000,5,0.3265380859,,,
43.5312500000,5,0.3221436143,,,
43.5468750000,5,0.2719726861,,,
43.5625000000,5,0.2446289063,,,
43.5781250000,5,0.2526854873,,,
43.5937500000,5,0.2508544922,,,
43.6093750000,5,0.1624756008,,,
43.6250000000,5,-0.0396728516,,,
43.6406250000,5,-0.2912597954,,,
43.6562500000,5,-0.4488525093,,,
43.6718750000,5,-0.3881835938,,,
43.6875000000,5,-0.0793457031,,,
43.7031250000,5,0.3685303032,,,
43.7187500000,5,0.7496337891,,,
43.7343750000,5,0.8867188096,,,
43.7500000000,5,0.7297363281,,,
43.7656250000,5,0.3944092095,,,
43.7812500000,5,0.0895996094,,,
43.7968750000,5,-0.0056152339,,,
43.8125000000,5,0.1496582031,,,
43.8281250000,5,0.4528808892,,,
43.8437500000,5,0.7175292969,,,
43.8593750000,5,0.7980957031,,,
43.8750000000,5,0.6697998047,,,
43.8906250000,5,0.4105224907,,,
43.9062500000,5,0.1358643025,,,
43.9218750000,5,-0.0878906325,,,
43.9375000000,5,-0.2642821968,,,
43.9531250000,5,-0.4486083984,,,
43.9687500000,5,-0.6802979112,,,
43.9843750000,5,-0.9367675781,,,
44.0000000000,5,-1.1479489803,,,
44.0156250000,5,-1.2340090275,,,
44.0312500000,5,-1.1593019962,,,
44.0468750000,5,-0.9584960938,,,
44.0625000000,5,-0.7075194716,,,
44.0781250000,5,-0.5130615234,,,
44.0937500000,5,-0.4470215142,,,
44.1093750000,5,-0.5490723252,,,
44.1250000000,5,-0.7965087891,,,
44.1406250000,5,-1.1170649529,,,
44.1562500000,5,-1.3991700411,,,
44.1718750000,5,-1.5552979708,,,
44.1875000000,5,-1.5572509766,,,
44.2031250000,5,-1.4488530159,,,
44.2187500000,5,-1.3104250431,,,
44.2343750000,5,-1.1983640194,,,
44.2500000000,5,-1.1080319881,,,
44.2656250000,5,-0.9862061143,,,
44.2812500000,5,-0.7666016221,,,
44.2968750000,5,-0.4317626953,,,
44.3125000000,5,-0.0406494103,,,
44.3281250000,5,0.2902832031,,,
44.3437500000,5,0.4484862983,,,
44.3593750000,5,0.3867188096,,,
44.3750000000,5,0.1551513970,,,
44.3906250000,5,-0.1250000000,,,
44.4062500000,5,-0.3132323921,,,
44.4218750000,5,-0.3442383111,,,
44.4375000000,5,-0.2359618992,,,
44.4531250000,5,-0.0977783203,,,
44.4687500000,5,-0.0491943397,,,
44.4843750000,5,-0.1397704929,,,
44.5000000000,5,-0.3367919922,,,
44.5156250000,5,-0.5158690810,,,
44.5312500000,5,-0.5417479873,,,
44.5468750000,5,-0.3480224907,,,
44.5625000000,5,0.0427246094,,,
44.5781250000,5,0.5432128906,,,
44.5937500000,5,1.0533449650,,,
44.6093750000,5,1.5041500330,,,
44.6250000000,5,1.8734129667,,,
44.6406250000,5,2.1560060978,,,
44.6562500000,5,2.3250730038,,,
44.6718750000,5,2.3438720703,,,
44.6875000000,5,2.1976320744,,,
44.7031250000,5,1.9045410156,,,
44.7187500000,5,1.5306400061,,,
44.7343750000,5,1.1701660156,,,
44.7500000000,5,0.8952636719,,,
44.7656250000,5,0.7182617188,,,
44.7812500000,5,0.5980225205,,,
44.7968750000,5,0.4693604112,,,
44.8125000000,5,0.2926025093,,,
44.8281250000,5,0.0874023363,,,
44.8437500000,5,-0.0905761719,,,
44.8593750000,5,-0.1588135064,,,
44.8750000000,5,-0.0739746094,,,
44.8906250000,5,0.1462402046,,,
44.9062500000,5,0.4218750000,,,
44.9218750000,5,0.6142578125,,,
44.9375000000,5,0.6093750000,,,
44.9531250000,5,0.3520508111,,,
44.9687500000,5,-0.1130371019,,,
44.9843750000,5,-0.6383057237,,,
45.0000000000,5,-1.0612790585,,,
45.0156250000,5,-1.2659909725,,,
45.0312500000,5,-1.2313230038,,,
45.0468750000,5,-1.0311280489,,,
45.0625000000,5,-0.7790526748,,,
45.0781250000,5,-0.5516356826,,,
45.0937500000,5,-0.3629150093,,,
45.1093750000,5,-0.1673583984,,,
45.1250000000,5,0.0671386719,,,
45.1406250000,5,0.3469237983,,,
45.1562500000,5,0.6180419922,,,
45.1718750000,5,0.8203125000,,,
45.1875000000,5,0.9472656250,,,
45.2031250000,5,1.0222170353,,,
45.2187500000,5,1.1032710075,,,
45.2343750000,5,1.2213129997,,,
45.2500000000,5,1.3319089413,,,
45.2656250000,5,1.3577879667,,,
45.2812500000,5,1.2257080078,,,
45.2968750000,5,0.9277343750,,,
45.3125000000,5,0.5344238281,,,
45.3281250000,5,0.1754149944,,,
45.3437500000,5,-0.0366210900,,,
45.3593750000,5,-0.0474853516,,,
45.3750000000,5,0.0928955078,,,
45.3906250000,5,0.2615967095,,,
45.4062500000,5,0.3115234077,,,
45.4218750000,5,0.1354980022,,,
45.4375000000,5,-0.2761229873,,,
45.4531250000,5,-0.8247069716,,,
45.4687500000,5,-1.3393549919,,,
45.4843750000,5,-1.6628420353,,,
45.5000000000,5,-1.7189940214,,,
45.5156250000,5,-1.5595699549,,,
45.5312500000,5,-1.3363039494,,,
45.5468750000,5,-1.1928709745,,,
45.5625000000,5,-1.1691889763,,,
45.5781250000,5,-1.2009279728,,,
45.5937500000,5,-1.1683349609,,,
45.6093750000,5,-0.9759520888,,,
45.6250000000,5,-0.6408690810,,,
45.6406250000,5,-0.2567138970,,,
45.6562500000,5,0.0500488319,,,
45.6718750000,5,0.1956786960,,,
45.6875000000,5,0.1900635064,,,
45.7031250000,5,0.0643310472,,,
45.7187500000,5,-0.1322021037,,,
45.7343750000,5,-0.3781737983,,,
45.7500000000,5,-0.6751708984,,,
45.7656250000,5,-1.0072020292,,,
45.7812500000,5,-1.3258060217,,,
45.7968750000,5,-1.5454100370,,,
45.8125000000,5,-1.5822750330,,,
45.8281250000,5,-1.3885500431,,,
45.8437500000,5,-0.9732666016,,,
45.8593750000,5,-0.3984375000,,,
45.8750000000,5,0.2340088040,,,
45.8906250000,5,0.8255615234,,,
45.9062500000,5,1.3066409826,,,
45.9218750000,5,1.6455080509,,,
45.9375000000,5,1.8731689453,,,
45.9531250000,5,2.0328369141,,,
45.9687500000,5,2.1638178825,,,
45.9843750000,5,2.2398679256,,,
46.0000000000,5,2.1966550350,,,
46.0156250000,5,1.9682619572,,,
46.0312500000,5,1.5488280058,,,
46.0468750000,5,1.0148930550,,,
46.0625000000,5,0.5224608779,,,
46.0781250000,5,0.2139893025,,,
46.0937500000,5,0.1591797024,,,
46.1093750000,5,0.3115234077,,,
46.1250000000,5,0.5297852159,,,
46.1406250000,5,0.6706542969,,,
46.1562500000,5,0.6516113281,,,
46.1718750000,5,0.4945068061,,,
46.1875000000,5,0.2933349907,,,
46.2031250000,5,0.1262207031,,,
46.2187500000,5,0.0213622991,,,
46.2343750000,5,-0.0565185510,,,
46.2500000000,5,-0.1689452976,,,
46.2656250000,5,-0.3459472954,,,
46.2812500000,5,-0.5637207031,,,
46.2968750000,5,-0.7554932237,,,
46.3125000000,5,-0.8574218750,,,
46.3281250000,5,-0.8507080078,,,
46.3437500000,5,-0.7718505859,,,
46.3593750000,5,-0.7131348252,,,
46.3750000000,5,-0.7673339844,,,
46.3906250000,5,-0.9774169922,,,
46.4062500000,5,-1.2900389433,,,
46.4218750000,5,-1.5787349939,,,
46.4375000000,5,-1.6818850040,,,
46.4531250000,5,-1.5006099939,,,
46.4687500000,5,-1.0384520292,,,
46.4843750000,5,-0.4056395888,,,
46.5000000000,5,0.2233887017,,,
46.5156250000,5,0.6807860732,,,
46.5312500000,5,0.8765869141,,,
46.5468750000,5,0.8105468750,,,
46.5625000000,5,0.5692139268,,,
46.5781250000,5,0.2351074070,,,
46.5937500000,5,-0.0971679688,,,
46.6093750000,5,-0.3704833984,,,
46.6250000000,5,-0.5443115234,,,
46.6406250000,5,-0.6063231826,,,
46.6562500000,5,-0.5577393174,,,
46.6718750000,5,-0.4099121094,,,
46.6875000000,5,-0.1910399944,,,
46.7031250000,5,0.0856933594,,,
46.7187500000,5,0.3986816108,,,
46.7343750000,5,0.7302246094,,,
46.7500000000,5,1.0467530489,,,
46.7656250000,5,1.3165279627,,,
46.7812500000,5,1.5025629997,,,
46.7968750000,5,1.5869139433,,,
46.8125000000,5,1.5545649529,,,
46.8281250000,5,1.3905030489,,,
46.8437500000,5,1.1069339514,,,
46.8593750000,5,0.7374268174,,,
46.8750000000,5,0.3673096001,,,
46.8906250000,5,0.1099854037,,,
46.9062500000,5,0.0460205115,,,
46.9218750000,5,0.1859131008,,,
46.9375000000,5,0.4361571968,,,
46.9531250000,5,0.6296386719,,,
46.9687500000,5,0.6254882813,,,
46.9843750000,5,0.3708496094,,,
47.0000000000,5,-0.0771484375,,,
47.0156250000,5,-0.5969238281,,,
47.0312500000,5,-1.0908199549,,,
47.0468750000,5,-1.5251460075,,,
47.0625000000,5,-1.8785400391,,,
47.0781250000,5,-2.1329350471,,,
47.0937500000,5,-2.2102050781,,,
47.1093750000,5,-2.0437009335,,,
47.1250000000,5,-1.6148680449,,,
47.1406250000,5,-1.0406490564,,,
47.1562500000,5,-0.5142822266,,,
47.1718750000,5,-0.2357178032,,,
47.1875000000,5,-0.3072510064,,,
47.2031250000,5,-0.6564940810,,,
47.2187500000,5,-1.0820310116,,,
47.2343750000,5,-1.3449709415,,,
47.2500000000,5,-1.2834470272,,,
47.2656250000,5,-0.8764647841,,,
47.2812500000,5,-0.2478027046,,,
47.2968750000,5,0.4090575874,,,
47.3125000000,5,0.8902587891,,,
47.3281250000,5,1.0523680449,,,
47.3437500000,5,0.8497313857,,,
47.3593750000,5,0.3374023139,,,
47.3750000000,5,-0.3544921875,,,
47.3906250000,5,-1.0395510197,,,
47.4062500000,5,-1.5396729708,,,
47.4218750000,5,-1.7315670252,,,
47.4375000000,5,-1.5710450411,,,
47.4531250000,5,-1.1080319881,,,
47.4687500000,5,-0.4346924126,,,
47.4843750000,5,0.3281250000,,,
47.5000000000,5,1.0506589413,,,
47.5156250000,5,1.6331789494,,,
47.5312500000,5,1.9918210506,,,
47.5468750000,5,2.0596919060,,,
47.5625000000,5,1.8405760527,,,
47.5781250000,5,1.4011230469,,,
47.5937500000,5,0.8748779297,,,
47.6093750000,5,0.4005126953,,,
47.6250000000,5,0.0953369066,,,
47.6406250000,5,-0.0068359380,,,
47.6562500000,5,0.0465087891,,,
47.6718750000,5,0.1492920071,,,
47.6875000000,5,0.1883545071,,,
47.7031250000,5,0.0772705078,,,
47.7187500000,5,-0.1976318061,,,
47.7343750000,5,-0.5761718750,,,
47.7500000000,5,-0.9521483779,,,
47.7656250000,5,-1.2196040154,,,
47.7812500000,5,-1.3167719841,,,
47.7968750000,5,-1.2373050451,,,
47.8125000000,5,-1.0249019861,,,
47.8281250000,5,-0.7420654297,,,
47.8437500000,5,-0.4510498047,,,
47.8593750000,5,-0.1876221001,,,
47.8750000000,5,0.0245361291,,,
47.8906250000,5,0.1674804986,,,
47.9062500000,5,0.2347411960,,,
47.9218750000,5,0.2211914063,,,
47.9375000000,5,0.1496582031,,,
47.9531250000,5,0.0644531325,,,
47.9687500000,5,0.0285644494,,,
47.9843750000,5,0.1055907980,,,
48.0000000000,6,0.3078612983,,,
48.0156250000,6,0.5911865234,,,
48.0312500000,6,0.8947753906,,,
48.0468750000,6,1.1391600370,,,
48.0625000000,6,1.2756350040,,,
48.0781250000,6,1.2856450081,,,
48.0937500000,6,1.1997070313,,,
48.1093750000,6,1.0548100471,,,
48.1250000000,6,0.8952636719,,,
48.1406250000,6,0.7406005859,,,
48.1562500000,6,0.5876464844,,,
48.1718750000,6,0.4039306939,,,
48.1875000000,6,0.1705321968,,,
48.2031250000,6,-0.1247558966,,,
48.2187500000,6,-0.4776611030,,,
48.2343750000,6,-0.8488770127,,,
48.2500000000,6,-1.1970210075,,,
48.2656250000,6,-1.4460450411,,,
48.2812500000,6,-1.5404050350,,,
48.2968750000,6,-1.4401860237,,,
48.3125000000,6,-1.1656490564,,,
48.3281250000,6,-0.7906494141,,,
48.3437500000,6,-0.4520263970,,,
48.3593750000,6,-0.2753905952,,,
48.3750000000,6,-0.3253174126,,,
48.3906250000,6,-0.5770264268,,,
48.4062500000,6,-0.9130858779,,,
48.4218750000,6,-1.1889649630,,,
48.4375000000,6,-1.2840579748,,,
48.4531250000,6,-1.1651610136,,,
48.4687500000,6,-0.8764647841,,,
48.4843750000,6,-0.5115966797,,,
48.5000000000,6,-0.1737060994,,,
48.5156250000,6,0.0642089769,,,
48.5312500000,6,0.1781006008,,,
48.5468750000,6,0.1973876953,,,
48.5625000000,6,0.1634521037,,,
48.5781250000,6,0.1151122972,,,
48.5937500000,6,0.0592041016,,,
48.6093750000,6,-0.0339355506,,,
48.6250000000,6,-0.2011719048,,,
48.6406250000,6,-0.4552001953,,,
48.6562500000,6,-0.7397460938,,,
48.6718750000,6,-0.9619141221,,,
48.6875000000,6,-1.0205080509,,,
48.7031250000,6,-0.8797606826,,,
48.7187500000,6,-0.5955811143,,,
48.7343750000,6,-0.2718505859,,,
48.7500000000,6,-0.0047607422,,,
48.7656250000,6,0.1987304986,,,
48.7812500000,6,0.3947753906,,,
48.7968750000,6,0.6680908203,,,
48.8125000000,6,1.0087889433,,,
48.8281250000,6,1.3305660486,,,
48.8437500000,6,1.4992680550,,,
48.8593750000,6,1.4577640295,,,
48.8750000000,6,1.2866209745,,,
48.8906250000,6,1.1696779728,,,
48.9062500000,6,1.2901610136,,,
48.9218750000,6,1.6829830408,,,
48.9375000000,6,2.2065429688,,,
48.9531250000,6,2.5921630859,,,
48.9687500000,6,2.6206049919,,,
48.9843750000,6,2.2336430550,,,
49.0000000000,6,1.5541989803,,,
49.0156250000,6,0.8133544922,,,
49.0312500000,6,0.2019042969,,,
49.0468750000,6,-0.1866454929,,,
49.0625000000,6,-0.3690186143,,,
49.0781250000,6,-0.4300537109,,,
49.0937500000,6,-0.4438476861,,,
49.1093750000,6,-0.4284667969,,,
49.1250000000,6,-0.3919678032,,,
49.1406250000,6,-0.3504638970,,,
49.1562500000,6,-0.3637695014,,,
49.1718750000,6,-0.5278319716,,,
49.1875000000,6,-0.8919677734,,,
49.2031250000,6,-1.4342039824,,,
49.2187500000,6,-2.0201420784,,,
49.2343750000,6,-2.4544680119,,,
49.2500000000,6,-2.5563960075,,,
49.2656250000,6,-2.2463378906,,,
49.2812500000,6,-1.5876460075,,,
49.2968750000,6,-0.7462158203,,,
49.3125000000,6,0.0587158203,,,
49.3281250000,6,0.6700438857,,,
49.3437500000,6,1.0244139433,,,
49.3593750000,6,1.1591800451,,,
49.3750000000,6,1.1695560217,,,
49.3906250000,6,1.1188960075,,,
49.4062500000,6,1.0283199549,,,
49.4218750000,6,0.8848876953,,,
49.4375000000,6,0.6868895888,,,
49.4531250000,6,0.4622803032,,,
49.4687500000,6,0.2584229112,,,
49.4843750000,6,0.1046143025,,,
49.5000000000,6,-0.0004882813,,,
49.5156250000,6,-0.0933837891,,,
49.5312500000,6,-0.2128905952,,,
49.5468750000,6,-0.3852539063,,,
49.5625000000,6,-0.5772705078,,,
49.5781250000,6,-0.7393798828,,,
49.5937500000,6,-0.8133544922,,,
49.6093750000,6,-0.7583007813,,,
49.6250000000,6,-0.5845947266,,,
49.6406250000,6,-0.3397217095,,,
49.6562500000,6,-0.0931396484,,,
49.6718750000,6,0.0911865234,,,
49.6875000000,6,0.1827393025,,,
49.7031250000,6,0.1926269978,,,
49.7187500000,6,0.1477050930,,,
49.7343750000,6,0.0999755934,,,
49.7500000000,6,0.0863037109,,,
49.7656250000,6,0.1138916016,,,
49.7812500000,6,0.1506347954,,,
49.7968750000,6,0.1528320014,,,
49.8125000000,6,0.0964355469,,,
49.8281250000,6,0.0034179690,,,
49.8437500000,6,-0.0712890625,,,
49.8593750000,6,-0.0914306566,,,
49.8750000000,6,-0.0468750000,,,
49.8906250000,6,0.0174560491,,,
49.9062500000,6,0.0312500000,,,
49.9218750000,6,-0.0505371094,,,
49.9375000000,6,-0.2327881008,,,
49.9531250000,6,-0.4650878906,,,
49.9687500000,6,-0.6882324219,,,
49.9843750000,6,-0.8635253906,,,
50.0000000000,6,-1.0064699650,,,
50.0156250000,6,-1.1571040154,,,
50.0312500000,6,-1.3239749670,,,
50.0468750000,6,-1.4613039494,,,
50.0625000000,6,-1.4543459415,,,
50.0781250000,6,-1.1984859705,,,
50.0937500000,6,-0.6905518174,,,
50.1093750000,6,-0.0483398400,,,
50.1250000000,6,0.5389404297,,,
50.1406250000,6,0.9182128906,,,
50.1562500000,6,1.0389399529,,,
50.1718750000,6,0.9686279297,,,
50.1875000000,6,0.8068848252,,,
50.2031250000,6,0.6085205078,,,
50.2187500000,6,0.3492431939,,,
50.2343750000,6,-0.0231933594,,,
50.2500000000,6,-0.5024414063,,,
50.2656250000,6,-0.9801024795,,,
50.2812500000,6,-1.2971190214,,,
50.2968750000,6,-1.3292239904,,,
50.3125000000,6,-1.0793459415,,,
50.3281250000,6,-0.6696776748,,,
50.3437500000,6,-0.2625732124,,,
50.3593750000,6,0.0484619103,,,
50.3750000000,6,0.2733153999,,,
50.3906250000,6,0.4946289063,,,
50.4062500000,6,0.7742919922,,,
50.4218750000,6,1.0826419592,,,
50.4375000000,6,1.3034670353,,,
50.4531250000,6,1.3245849609,,,
50.4687500000,6,1.1098630428,,,
50.4843750000,6,0.7452393174,,,
50.5000000000,6,0.3713378906,,,
50.5156250000,6,0.1151122972,,,
50.5312500000,6,0.0090332031,,,
50.5468750000,6,-0.0070800781,,,
50.5625000000,6,-0.0452880897,,,
50.5781250000,6,-0.1784667969,,,
50.5937500000,6,-0.4027099907,,,
50.6093750000,6,-0.6427001953,,,
50.6250000000,6,-0.7958983779,,,
50.6406250000,6,-0.7857666016,,,
50.6562500000,6,-0.6027832031,,,
50.6718750000,6,-0.3094482124,,,
50.6875000000,6,0.0093994141,,,
50.7031250000,6,0.2659912109,,,
50.7187500000,6,0.4243164063,,,
50.7343750000,6,0.4827880859,,,
50.7500000000,6,0.4726563096,,,
50.7656250000,6,0.4185791016,,,
50.7812500000,6,0.3353270888,,,
50.7968750000,6,0.2244873047,,,
50.8125000000,6,0.0919189528,,,
50.8281250000,6,-0.0479736291,,,
50.8437500000,6,-0.1776123047,,,
50.8593750000,6,-0.2609862983,,,
50.8750000000,6,-0.2808837891,,,
50.8906250000,6,-0.2337646037,,,
50.9062500000,6,-0.1169433966,,,
50.9218750000,6,0.0590820313,,,
50.9375000000,6,0.2750244141,,,
50.9531250000,6,0.4942626953,,,
50.9687500000,6,0.6452636719,,,
50.9843750000,6,0.6500244141,,,
51.0000000000,6,0.4545898139,,,
51.0156250000,6,0.0911865234,,,
51.0312500000,6,-0.3215332031,,,
51.0468750000,6,-0.6069335938,,,
51.0625000000,6,-0.6335449219,,,
51.0781250000,6,-0.4050292969,,,
51.0937500000,6,-0.0548095703,,,
51.1093750000,6,0.2136230022,,,
51.1250000000,6,0.2457274944,,,
51.1406250000,6,0.0407714806,,,
51.1562500000,6,-0.2379149944,,,
51.1718750000,6,-0.3676758111,,,
51.1875000000,6,-0.1992187947,,,
51.2031250000,6,0.2578125000,,,
51.2187500000,6,0.8349608779,,,
51.2343750000,6,1.2971190214,,,
51.2500000000,6,1.4920649529,,,
51.2656250000,6,1.3900150061,,,
51.2812500000,6,1.1173100471,,,
51.2968750000,6,0.8284912109,,,
51.3125000000,6,0.6417235732,,,
51.3281250000,6,0.5606688857,,,
51.3437500000,6,0.4956054986,,,
51.3593750000,6,0.3348388970,,,
51.3750000000,6,0.0281982403,,,
51.3906250000,6,-0.3741455078,,,
51.4062500000,6,-0.7308350205,,,
51.4218750000,6,-0.9068604112,,,
51.4375000000,6,-0.8541259766,,,
51.4531250000,6,-0.6348876953,,,
51.4687500000,6,-0.3824462891,,,
51.4843750000,6,-0.2156981975,,,
51.5000000000,6,-0.1666260064,,,
51.5156250000,6,-0.1761475056,,,
51.5312500000,6,-0.1427001953,,,
51.5468750000,6,-0.0089111328,,,
51.5625000000,6,0.2026367038,,,
51.5781250000,6,0.3959960938,,,
51.5937500000,6,0.4755859077,,,
51.6093750000,6,0.4136962891,,,
51.6250000000,6,0.2718505859,,,
51.6406250000,6,0.1625977010,,,
51.6562500000,6,0.1705321968,,,
51.6718750000,6,0.2966308892,,,
51.6875000000,6,0.4398193061,,,
51.7031250000,6,0.4765625000,,,
51.7187500000,6,0.3231200874,,,
51.7343750000,6,0.0142822303,,,
51.7500000000,6,-0.3063965142,,,
51.7656250000,6,-0.4827880859,,,
51.7812500000,6,-0.4193114936,,,
51.7968750000,6,-0.1558838040,,,
51.8125000000,6,0.1833495945,,,
51.8281250000,6,0.4254150093,,,
51.8437500000,6,0.4892578125,,,
51.8593750000,6,0.3908691108,,,
51.8750000000,6,0.2272949070,,,
51.8906250000,6,0.0870361328,,,
51.9062500000,6,-0.0091552734,,,
51.9218750000,6,-0.0924072266,,,
51.9375000000,6,-0.2171631008,,,
51.9531250000,6,-0.3812255859,,,
51.9687500000,6,-0.5295410156,,,
51.9843750000,6,-0.5920410156,,,
52.0000000000,6,-0.5579833984,,,
52.0156250000,6,-0.4873046875,,,
52.0312500000,6,-0.4688721001,,,
52.0468750000,6,-0.5678710938,,,
52.0625000000,6,-0.7524414063,,,
52.0781250000,6,-0.9362792969,,,
52.0937500000,6,-1.0059809685,,,
52.1093750000,6,-0.8930664063,,,
52.1250000000,6,-0.5998535156,,,
52.1406250000,6,-0.1685791016,,,
52.1562500000,6,0.3193359077,,,
52.1718750000,6,0.7738037109,,,
52.1875000000,6,1.0928959846,,,
52.2031250000,6,1.1971440315,,,
52.2187500000,6,1.0458979607,,,
52.2343750000,6,0.6906738281,,,
52.2500000000,6,0.2751465142,,,
52.2656250000,6,-0.0269775409,,,
52.2812500000,6,-0.1024169996,,,
52.2968750000,6,0.0297851600,,,
52.3125000000,6,0.2470702976,,,
52.3281250000,6,0.3804931939,,,
52.3437500000,6,0.3269042969,,,
52.3593750000,6,0.0805664137,,,
52.3750000000,6,-0.2589111030,,,
52.3906250000,6,-0.5866699219,,,
52.4062500000,6,-0.8503417969,,,
52.4218750000,6,-1.0563960075,,,
52.4375000000,6,-1.2620849609,,,
52.4531250000,6,-1.4934079647,,,
52.4687500000,6,-1.7236330509,,,
52.4843750000,6,-1.8760989904,,,
52.5000000000,6,-1.8836669922,,,
52.5156250000,6,-1.7194819450,,,
52.5312500000,6,-1.4108890295,,,
52.5468750000,6,-1.0150150061,,,
52.5625000000,6,-0.5891113281,,,
52.5781250000,6,-0.1809082031,,,
52.5937500000,6,0.2019042969,,,
52.6093750000,6,0.5460205078,,,
52.6250000000,6,0.8300781250,,,
52.6406250000,6,1.0141600370,,,
52.6562500000,6,1.0439449549,,,
52.6718750000,6,0.8892822266,,,
52.6875000000,6,0.5659180284,,,
52.7031250000,6,0.1759033054,,,
52.7187500000,6,-0.1527100056,,,
52.7343750000,6,-0.3149414063,,,
52.7500000000,6,-0.2864989936,,,
52.7656250000,6,-0.1341553032,,,
52.7812500000,6,0.0114746103,,,
52.7968750000,6,0.0340576209,,,
52.8125000000,6,-0.1119384989,,,
52.8281250000,6,-0.3712157905,,,
52.8437500000,6,-0.6115723252,,,
52.8593750000,6,-0.7056884766,,,
52.8750000000,6,-0.5797119141,,,
52.8906250000,6,-0.2567138970,,,
52.9062500000,6,0.1584472954,,,
52.9218750000,6,0.5279541016,,,
52.9375000000,6,0.7489014268,,,
52.9531250000,6,0.8062744141,,,
52.9687500000,6,0.7766113281,,,
52.9843750000,6,0.7828369141,,,
53.0000000000,6,0.9281005859,,,
53.0156250000,6,1.2148439884,,,
53.0312500000,6,1.5391850471,,,
53.0468750000,6,1.7512209415,,,
53.0625000000,6,1.7249759436,,,
53.0781250000,6,1.4226069450,,,
53.0937500000,6,0.9147949219,,,
53.1093750000,6,0.3315429986,,,
53.1250000000,6,-0.2197266072,,,
53.1406250000,6,-0.6766356826,,,
53.1562500000,6,-1.0202640295,,,
53.1718750000,6,-1.2176510096,,,
53.1875000000,6,-1.2370610237,,,
53.2031250000,6,-1.0474849939,,,
53.2187500000,6,-0.6749268174,,,
53.2343750000,6,-0.2277832031,,,
53.2500000000,6,0.1600341946,,,
53.2656250000,6,0.3947753906,,,
53.2812500000,6,0.4743652046,,,
53.2968750000,6,0.4487304986,,,
53.3125000000,6,0.3571777046,,,
53.3281250000,6,0.1933594048,,,
53.3437500000,6,-0.0927734375,,,
53.3593750000,6,-0.5136718750,,,
53.3750000000,6,-0.9809569716,,,
53.3906250000,6,-1.3164060116,,,
53.4062500000,6,-1.3361819983,,,
53.4218750000,6,-0.9785156250,,,
53.4375000000,6,-0.3489989936,,,
53.4531250000,6,0.3273926079,,,
53.4687500000,6,0.8262938857,,,
53.4843750000,6,1.0296629667,,,
53.5000000000,6,0.9832764268,,,
53.5156250000,6,0.8170166016,,,
53.5312500000,6,0.6667479873,,,
53.5468750000,6,0.5848389268,,,
53.5625000000,6,0.5351563096,,,
53.5781250000,6,0.4277344048,,,
53.5937500000,6,0.2062987983,,,
53.6093750000,6,-0.1293945014,,,
53.6250000000,6,-0.4901123047,,,
53.6406250000,6,-0.7585449219,,,
53.6562500000,6,-0.8442382813,,,
53.6718750000,6,-0.7076416016,,,
53.6875000000,6,-0.4080811143,,,
53.7031250000,6,-0.0677490234,,,
53.7187500000,6,0.1820068061,,,
53.7343750000,6,0.2530517876,,,
53.7500000000,6,0.1374512017,,,
53.7656250000,6,-0.1059570014,,,
53.7812500000,6,-0.3869628906,,,
53.7968750000,6,-0.6235352159,,,
53.8125000000,6,-0.7591552734,,,
53.8281250000,6,-0.7662354112,,,
53.8437500000,6,-0.6406250000,,,
53.8593750000,6,-0.4296875000,,,
53.8750000000,6,-0.2159423977,,,
53.8906250000,6,-0.1140137017,,,
53.9062500000,6,-0.1949463040,,,
53.9218750000,6,-0.4528808892,,,
53.9375000000,6,-0.7779541016,,,
53.9531250000,6,-0.9978026748,,,
53.9687500000,6,-0.9871826172,,,
53.9843750000,6,-0.7442626953,,,
54.0000000000,6,-0.3994140923,,,
54.0156250000,6,-0.1386719048,,,
54.0312500000,6,-0.0833740234,,,
54.0468750000,6,-0.2050780952,,,
54.0625000000,6,-0.3419188857,,,
54.0781250000,6,-0.3326416016,,,
54.0937500000,6,-0.1075439006,,,
54.1093750000,6,0.2288818061,,,
54.1250000000,6,0.4920653999,,,
54.1406250000,6,0.5220947266,,,
54.1562500000,6,0.2899169922,,,
54.1718750000,6,-0.0756835863,,,
54.1875000000,6,-0.3941650093,,,
54.2031250000,6,-0.5290526748,,,
54.2187500000,6,-0.4770508111,,,
54.2343750000,6,-0.3365479112,,,
54.2500000000,6,-0.2283935994,,,
54.2656250000,6,-0.2038574070,,,
54.2812500000,6,-0.2115478963,,,
54.2968750000,6,-0.1556396037,,,
54.3125000000,6,0.0364990197,,,
54.3281250000,6,0.3525390923,,,
54.3437500000,6,0.6860352159,,,
54.3593750000,6,0.9119873047,,,
54.3750000000,6,0.9661865234,,,
54.3906250000,6,0.8786621094,,,
54.4062500000,6,0.7695313096,,,
54.4218750000,6,0.7507324219,,,
54.4375000000,6,0.8541259766,,,
54.4531250000,6,1.0137939453,,,
54.4687500000,6,1.1114499569,,,
54.4843750000,6,1.0681149960,,,
54.5000000000,6,0.8724365234,,,
54.5156250000,6,0.5869141221,,,
54.5312500000,6,0.2811278999,,,
54.5468750000,6,-0.0219726600,,,
54.5625000000,6,-0.3425292969,,,
54.5781250000,6,-0.7065430284,,,
54.5937500000,6,-1.0819089413,,,
54.6093750000,6,-1.3685300350,,,
54.6250000000,6,-1.4396970272,,,
54.6406250000,6,-1.2243649960,,,
54.6562500000,6,-0.7832031250,,,
54.6718750000,6,-0.2796630859,,,
54.6875000000,6,0.0742187500,,,
54.7031250000,6,0.1345214993,,,
54.7187500000,6,-0.1284179986,,,
54.7343750000,6,-0.6152343750,,,
54.7500000000,6,-1.1444089413,,,
54.7656250000,6,-1.5416259766,,,
54.7812500000,6,-1.6809079647,,,
54.7968750000,6,-1.5197750330,,,
54.8125000000,6,-1.1020510197,,,
54.8281250000,6,-0.5048828125,,,
54.8437500000,6,0.1661376953,,,
54.8593750000,6,0.8295897841,,,
54.8750000000,6,1.4346920252,,,
54.8906250000,6,1.9693599939,,,
54.9062500000,6,2.4305419922,,,
54.9218750000,6,2.7872309685,,,
54.9375000000,6,2.9841310978,,,
54.9531250000,6,2.9692380428,,,
54.9687500000,6,2.7210690975,,,
54.9843750000,6,2.2752690315,,,
55.0000000000,6,1.7152099609,,,
55.0156250000,6,1.1363530159,,,
55.0312500000,6,0.6072998047,,,
55.0468750000,6,0.1618652046,,,
55.0625000000,6,-0.1738280952,,,
55.0781250000,6,-0.3798828125,,,
55.0937500000,6,-0.4428710938,,,
55.1093750000,6,-0.3873291016,,,
55.1250000000,6,-0.2805176079,,,
55.1406250000,6,-0.2076416016,,,
55.1562500000,6,-0.2253417969,,,
55.1718750000,6,-0.3287354112,,,
55.1875000000,6,-0.4599609077,,,
55.2031250000,6,-0.5397949219,,,
55.2187500000,6,-0.5294188857,,,
55.2343750000,6,-0.4611816108,,,
55.2500000000,6,-0.4108887017,,,
55.2656250000,6,-0.4653320014,,,
55.2812500000,6,-0.6295166016,,,
55.2968750000,6,-0.8189697266,,,
55.3125000000,6,-0.9196776748,,,
55.3281250000,6,-0.8414307237,,,
55.3437500000,6,-0.5926514268,,,
55.3593750000,6,-0.2935791016,,,
55.3750000000,6,-0.1148682013,,,
55.3906250000,6,-0.1827393025,,,
55.4062500000,6,-0.5046386719,,,
55.4218750000,6,-0.9583740234,,,
55.4375000000,6,-1.3599849939,,,
55.4531250000,6,-1.5469969511,,,
55.4687500000,6,-1.4584959745,,,
55.4843750000,6,-1.1856689453,,,
55.5000000000,6,-0.8985595703,,,
55.5156250000,6,-0.7491455078,,,
55.5312500000,6,-0.7600098252,,,
55.5468750000,6,-0.8431395888,,,
55.5625000000,6,-0.8685302734,,,
55.5781250000,6,-0.7625731826,,,
55.5937500000,6,-0.5782470703,,,
55.6093750000,6,-0.4479979873,,,
55.6250000000,6,-0.4738770127,,,
55.6406250000,6,-0.6417235732,,,
55.6562500000,6,-0.8145751953,,,
55.6718750000,6,-0.8143311143,,,
55.6875000000,6,-0.5361328125,,,
55.7031250000,6,-0.0284423791,,,
55.7187500000,6,0.5343018174,,,
55.7343750000,6,0.9547119141,,,
55.7500000000,6,1.1456300020,,,
55.7656250000,6,1.1461180449,,,
55.7812500000,6,1.0723880529,,,
55.7968750000,6,1.0347900391,,,
55.8125000000,6,1.0383299589,,,
55.8281250000,6,1.0111080408,,,
55.8437500000,6,0.8658447266,,,
55.8593750000,6,0.5832520127,,,
55.8750000000,6,0.2220458984,,,
55.8906250000,6,-0.0750732422,,,
55.9062500000,6,-0.1776123047,,,
55.9218750000,6,0.0029296880,,,
55.9375000000,6,0.4390869141,,,
55.9531250000,6,1.0021970272,,,
55.9687500000,6,1.5043950081,,,
55.9843750000,6,1.7550050020,,,
56.0000000000,7,1.6516109705,,,
56.0156250000,7,1.2174069881,,,
56.0312500000,7,0.5865479112,,,
56.0468750000,7,-0.0422363319,,,
56.0625000000,7,-0.5123291016,,,
56.0781250000,7,-0.7591552734,,,
56.0937500000,7,-0.8312988281,,,
56.1093750000,7,-0.8264160156,,,
56.1250000000,7,-0.8431395888,,,
56.1406250000,7,-0.9075927734,,,
56.1562500000,7,-0.9720458984,,,
56.1718750000,7,-0.9722899795,,,
