Time:64Hz,Epoch,Channel 1,Event Id,Event Date,Event Duration
0.0000000000,0,-1.0338129997,,,
0.0156250000,0,-1.0339360237,,,
0.0312500000,0,-0.8964843750,,,
0.0468750000,0,-0.6761475205,,,
0.0625000000,0,-0.4428710938,,,
0.0781250000,0,-0.2398681939,,,
0.0937500000,0,-0.0838622972,,,
0.1093750000,0,0.0242919903,,,
0.1250000000,0,0.0722656325,,,
0.1406250000,0,0.0809326172,,,
0.1562500000,0,0.0809326172,,,
0.1718750000,0,0.1486815959,,,
0.1875000000,0,0.3461914063,,,
0.2031250000,0,0.6848145127,,,
0.2187500000,0,1.0723880529,,,
0.2343750000,0,1.3338619471,,,
0.2500000000,0,1.2906490564,,,
0.2656250000,0,0.8590087891,,,
0.2812500000,0,0.1040038988,,,
0.2968750000,0,-0.7761229873,,,
0.3125000000,0,-1.5322270393,,,
0.3281250000,0,-1.9823000431,,,
0.3437500000,0,-2.0848391056,,,
0.3593750000,0,-1.9016109705,,,
0.3750000000,0,-1.5209959745,,,
0.3906250000,0,-1.0076899529,,,
0.4062500000,0,-0.3999023139,,,
0.4218750000,0,0.2723388970,,,
0.4375000000,0,0.8970947266,,,
0.4531250000,0,1.3345949650,,,
0.4687500000,0,1.4437259436,,,
0.4843750000,0,1.2016600370,,,
0.5000000000,0,0.7329102159,,,
0.5156250000,0,0.2442626953,,,
0.5312500000,0,-0.0729980469,,,
0.5468750000,0,-0.1511230022,,,
0.5625000000,0,-0.0659179688,,,
0.5781250000,0,0.0361328088,,,
0.5937500000,0,0.0583496094,,,
0.6093750000,0,0.0032958980,,,
0.6250000000,0,-0.0432128906,,,
0.6406250000,0,0.0104980497,,,
0.6562500000,0,0.1708983928,,,
0.6718750000,0,0.3599854112,,,
0.6875000000,0,0.4622803032,,,
0.7031250000,0,0.4241943061,,,
0.7187500000,0,0.2847900093,,,
0.7343750000,0,0.1636963040,,,
0.7500000000,0,0.1739501953,,,
0.7656250000,0,0.3775635064,,,
0.7812500000,0,0.7457274795,,,
0.7968750000,0,1.1892089844,,,
0.8125000000,0,1.6159670353,,,
0.8281250000,0,1.9600830078,,,
0.8437500000,0,2.1962890625,,,
0.8593750000,0,2.2934570313,,,
0.8750000000,0,2.2476809025,,,
0.8906250000,0,2.0461430550,,,
0.9062500000,0,1.7182619572,,,
0.9218750000,0,1.3200680017,,,
0.9375000000,0,0.9393311143,,,
0.9531250000,0,0.6551514268,,,
0.9687500000,0,0.4757080078,,,
0.9843750000,0,0.3657226861,,,
1.0000000000,0,0.2507323921,,,
1.0156250000,0,0.0697021484,,,
1.0312500000,0,-0.1806641072,,,
1.0468750000,0,-0.4362792969,,,
1.0625000000,0,-0.6094970703,,,
1.0781250000,0,-0.6473389268,,,
1.0937500000,0,-0.5364990234,,,
1.1093750000,0,-0.3431395888,,,
1.1250000000,0,-0.1608887017,,,
1.1406250000,0,-0.0810546875,,,
1.1562500000,0,-0.1379394978,,,
1.1718750000,0,-0.3031005859,,,
1.1875000000,0,-0.4765625000,,,
1.2031250000,0,-0.5478516221,,,
1.2187500000,0,-0.4425049126,,,
1.2343750000,0,-0.1625977010,,,
1.2500000000,0,0.2023925930,,,
1.2656250000,0,0.5189208984,,,
1.2812500000,0,0.6744384766,,,
1.2968750000,0,0.6477050781,,,
1.3125000000,0,0.4920653999,,,
1.3281250000,0,0.3261719048,,,
1.3437500000,0,0.2745361030,,,
1.3593750000,0,0.3933104873,,,
1.3750000000,0,0.6827393174,,,
1.3906250000,0,1.0634770393,,,
1.4062500000,0,1.4627690315,,,
1.4218750000,0,1.8157960176,,,
1.4375000000,0,2.1092529297,,,
1.4531250000,0,2.3323969841,,,
1.4687500000,0,2.4610600471,,,
1.4843750000,0,2.4228520393,,,
1.5000000000,0,2.1269528866,,,
1.5156250000,0,1.5106199980,,,
1.5312500000,0,0.6105957031,,,
1.5468750000,0,-0.4252929986,,,
1.5625000000,0,-1.3775629997,,,
1.5781250000,0,-2.0507810116,,,
1.5937500000,0,-2.3438720703,,,
1.6093750000,0,-2.3090820313,,,
1.6250000000,0,-2.1033940315,,,
1.6406250000,0,-1.9176030159,,,
1.6562500000,0,-1.8679200411,,,
1.6718750000,0,-1.9672850370,,,
1.6875000000,0,-2.1356201172,,,
1.7031250000,0,-2.2652590275,,,
1.7187500000,0,-2.2827150822,,,
1.7343750000,0,-2.1693120003,,,
1.7500000000,0,-1.9555660486,,,
1.7656250000,0,-1.6860350370,,,
1.7812500000,0,-1.4104000330,,,
1.7968750000,0,-1.1633299589,,,
1.8125000000,0,-0.9860839844,,,
1.8281250000,0,-0.9158936143,,,
1.8437500000,0,-0.9594727159,,,
1.8593750000,0,-1.0863039494,,,
1.8750000000,0,-1.2166750431,,,
1.8906250000,0,-1.2475589514,,,
1.9062500000,0,-1.1030269861,,,
1.9218750000,0,-0.7897949219,,,
1.9375000000,0,-0.3824462891,,,
1.9531250000,0,-0.0068359380,,,
1.9687500000,0,0.2373047024,,,
1.9843750000,0,0.3422851861,,,
2.0000000000,0,0.3845215142,,,
2.0156250000,0,0.4774169922,,,
2.0312500000,0,0.7127686143,,,
2.0468750000,0,1.1158449650,,,
2.0625000000,0,1.6256099939,,,
2.0781250000,0,2.1309809685,,,
2.0937500000,0,2.5065920353,,,
2.1093750000,0,2.6416020393,,,
2.1250000000,0,2.4689939022,,,
2.1406250000,0,1.9743649960,,,
2.1562500000,0,1.2175290585,,,
2.1718750000,0,0.3066405952,,,
2.1875000000,0,-0.6143798828,,,
2.2031250000,0,-1.4039310217,,,
2.2187500000,0,-1.9652099609,,,
2.2343750000,0,-2.2529299259,,,
2.2500000000,0,-2.2996830940,,,
2.2656250000,0,-2.1744379997,,,
2.2812500000,0,-1.9581300020,,,
2.2968750000,0,-1.7250980139,,,
2.3125000000,0,-1.5191650391,,,
2.3281250000,0,-1.3776860237,,,
2.3437500000,0,-1.3004150391,,,
2.3593750000,0,-1.2816159725,,,
2.3750000000,0,-1.3247070313,,,
2.3906250000,0,-1.4265140295,,,
2.4062500000,0,-1.5673830509,,,
2.4218750000,0,-1.6945799589,,,
2.4375000000,0,-1.7239990234,,,
2.4531250000,0,-1.5463869572,,,
2.4687500000,0,-1.1048580408,,,
2.4843750000,0,-0.4112549126,,,
2.5000000000,0,0.4383544922,,,
2.5156250000,0,1.2968750000,,,
2.5312500000,0,2.0119628906,,,
2.5468750000,0,2.4774169922,,,
2.5625000000,0,2.6258540154,,,
2.5781250000,0,2.4382319450,,,
2.5937500000,0,1.9514160156,,,
2.6093750000,0,1.2603759766,,,
2.6250000000,0,0.5058593750,,,
2.6406250000,0,-0.1317138970,,,
2.6562500000,0,-0.4941405952,,,
2.6718750000,0,-0.5183104873,,,
2.6875000000,0,-0.2667236030,,,
2.7031250000,0,0.0826416016,,,
2.7187500000,0,0.3247070014,,,
2.7343750000,0,0.3404541016,,,
2.7500000000,0,0.1422118992,,,
2.7656250000,0,-0.1314696968,,,
2.7812500000,0,-0.3189696968,,,
2.7968750000,0,-0.3243407905,,,
2.8125000000,0,-0.1583251953,,,
2.8281250000,0,0.0720214769,,,
2.8437500000,0,0.2420653999,,,
2.8593750000,0,0.2773438096,,,
2.8750000000,0,0.1759033054,,,
2.8906250000,0,-0.0246581994,,,
2.9062500000,0,-0.2899169922,,,
2.9218750000,0,-0.6198729873,,,
2.9375000000,0,-1.0511469841,,,
2.9531250000,0,-1.5899660587,,,
2.9687500000,0,-2.1531980038,,,
2.9843750000,0,-2.5761721134,,,
3.0000000000,0,-2.6782228947,,,
3.0156250000,0,-2.3574221134,,,
3.0312500000,0,-1.6641850471,,,
3.0468750000,0,-0.7863770127,,,
3.0625000000,0,0.0404052697,,,
3.0781250000,0,0.6470947266,,,
3.0937500000,0,1.0017089844,,,
3.1093750000,0,1.1950680017,,,
3.1250000000,0,1.3529050350,,,
3.1406250000,0,1.5522459745,,,
3.1562500000,0,1.7595210075,,,
3.1718750000,0,1.8737790585,,,
3.1875000000,0,1.7910159826,,,
3.2031250000,0,1.4798580408,,,
3.2187500000,0,1.0217289925,,,
3.2343750000,0,0.5723876953,,,
3.2500000000,0,0.2789306939,,,
3.2656250000,0,0.2189940959,,,
3.2812500000,0,0.3781737983,,,
3.2968750000,0,0.6679688096,,,
3.3125000000,0,0.9882813096,,,
3.3281250000,0,1.2921140194,,,
3.3437500000,0,1.6020510197,,,
3.3593750000,0,1.9578859806,,,
3.3750000000,0,2.3631589413,,,
3.3906250000,0,2.7292480469,,,
3.4062500000,0,2.9006350040,,,
3.4218750000,0,2.7440190315,,,
3.4375000000,0,2.2457280159,,,
3.4531250000,0,1.5549319983,,,
3.4687500000,0,0.9248046875,,,
3.4843750000,0,0.5710449219,,,
3.5000000000,0,0.5372313857,,,
3.5156250000,0,0.6656494141,,,
3.5312500000,0,0.6978759766,,,
3.5468750000,0,0.4317626953,,,
3.5625000000,0,-0.1566161960,,,
3.5781250000,0,-0.9105225205,,,
3.5937500000,0,-1.5845949650,,,
3.6093750000,0,-2.0115969181,,,
3.6250000000,0,-2.1489260197,,,
3.6406250000,0,-2.0793459415,,,
3.6562500000,0,-1.9260250330,,,
3.6718750000,0,-1.7718509436,,,
3.6875000000,0,-1.6518549919,,,
3.7031250000,0,-1.5732419491,,,
3.7187500000,0,-1.5402829647,,,
3.7343750000,0,-1.5488280058,,,
3.7500000000,0,-1.5869139433,,,
3.7656250000,0,-1.6132810116,,,
3.7812500000,0,-1.5620119572,,,
3.7968750000,0,-1.3846440315,,,
3.8125000000,0,-1.0731199980,,,
3.8281250000,0,-0.6688231826,,,
3.8437500000,0,-0.2292480022,,,
3.8593750000,0,0.1763916016,,,
3.8750000000,0,0.4909667969,,,
3.8906250000,0,0.6765136719,,,
3.9062500000,0,0.7308350205,,,
3.9218750000,0,0.6850585938,,,
3.9375000000,0,0.5961914063,,,
3.9531250000,0,0.5234375000,,,
3.9687500000,0,0.5012207031,,,
3.9843750000,0,0.5069580078,,,
4.0000000000,0,0.4987792969,,,
4.0156250000,0,0.4155273139,,,
4.0312500000,0,0.2490233928,,,
4.0468750000,0,0.0325927697,,,
4.0625000000,0,-0.1699219048,,,
4.0781250000,0,-0.3155517876,,,
4.0937500000,0,-0.3957520127,,,
4.1093750000,0,-0.4514159858,,,
4.1250000000,0,-0.5096436143,,,
4.1406250000,0,-0.5816649795,,,
4.1562500000,0,-0.6495360732,,,
4.1718750000,0,-0.6840819716,,,
4.1875000000,0,-0.6807860732,,,
4.2031250000,0,-0.6669921875,,,
4.2187500000,0,-0.6772460938,,,
4.2343750000,0,-0.7155761719,,,
4.2500000000,0,-0.7479248047,,,
4.2656250000,0,-0.7165526748,,,
4.2812500000,0,-0.5736083984,,,
4.2968750000,0,-0.3195801079,,,
4.3125000000,0,-0.0058593750,,,
4.3281250000,0,0.2849121094,,,
4.3437500000,0,0.4787597954,,,
4.3593750000,0,0.5505371094,,,
4.3750000000,0,0.5196533203,,,
4.3906250000,0,0.4348145127,,,
4.4062500000,0,0.3454590142,,,
4.4218750000,0,0.2725830078,,,
4.4375000000,0,0.2246094048,,,
4.4531250000,0,0.2255858928,,,
4.4687500000,0,0.3160400093,,,
4.4843750000,0,0.5163574219,,,
4.5000000000,0,0.8229979873,,,
4.5156250000,0,1.1582030058,,,
4.5312500000,0,1.4384770393,,,
4.5468750000,0,1.5917969942,,,
4.5625000000,0,1.6062010527,,,
4.5781250000,0,1.5168459415,,,
4.5937500000,0,1.3720699549,,,
4.6093750000,0,1.1831049919,,,
4.6250000000,0,0.9512938857,,,
4.6406250000,0,0.6800537109,,,
4.6562500000,0,0.3958739936,,,
4.6718750000,0,0.1711425930,,,
4.6875000000,0,0.0623779297,,,
4.7031250000,0,0.0847167969,,,
4.7187500000,0,0.1708983928,,,
4.7343750000,0,0.1982422024,,,
4.7500000000,0,0.0672607422,,,
4.7656250000,0,-0.2502441108,,,
4.7812500000,0,-0.6978759766,,,
4.7968750000,0,-1.1673580408,,,
4.8125000000,0,-1.5522459745,,,
4.8281250000,0,-1.7785639763,,,
4.8437500000,0,-1.8153079748,,,
4.8593750000,0,-1.6602779627,,,
4.8750000000,0,-1.3376460075,,,
4.8906250000,0,-0.9167479873,,,
4.9062500000,0,-0.5093994141,,,
4.9218750000,0,-0.2376708984,,,
4.9375000000,0,-0.1876221001,,,
4.9531250000,0,-0.3413085938,,,
4.9687500000,0,-0.6154785156,,,
4.9843750000,0,-0.8840332031,,,
5.0000000000,0,-1.0518800020,,,
5.0156250000,0,-1.0966800451,,,
5.0312500000,0,-1.0511469841,,,
5.0468750000,0,-0.9494628906,,,
5.0625000000,0,-0.7950438857,,,
5.0781250000,0,-0.5665283203,,,
5.0937500000,0,-0.2452393025,,,
5.1093750000,0,0.1328125000,,,
5.1250000000,0,0.5008544922,,,
5.1406250000,0,0.7987061143,,,
5.1562500000,0,0.9997559190,,,
5.1718750000,0,1.1448969841,,,
5.1875000000,0,1.2891850471,,,
5.2031250000,0,1.4508060217,,,
5.2187500000,0,1.5892330408,,,
5.2343750000,0,1.6242680550,,,
5.2500000000,0,1.5024410486,,,
5.2656250000,0,1.2465820313,,,
5.2812500000,0,0.9421386719,,,
5.2968750000,0,0.6839600205,,,
5.3125000000,0,0.5321044922,,,
5.3281250000,0,0.4880371094,,,
5.3437500000,0,0.4962157905,,,
5.3593750000,0,0.4886474907,,,
5.3750000000,0,0.4238280952,,,
5.3906250000,0,0.2835693061,,,
5.4062500000,0,0.0776367188,,,
5.4218750000,0,-0.1729736030,,,
5.4375000000,0,-0.4343262017,,,
5.4531250000,0,-0.6417235732,,,
5.4687500000,0,-0.7377930284,,,
5.4843750000,0,-0.6748046875,,,
5.5000000000,0,-0.4421387017,,,
5.5156250000,0,-0.0830078125,,,
5.5312500000,0,0.2973633111,,,
5.5468750000,0,0.5797119141,,,
5.5625000000,0,0.6534423828,,,
5.5781250000,0,0.4715575874,,,
5.5937500000,0,0.0637207031,,,
5.6093750000,0,-0.4519042969,,,
5.6250000000,0,-0.9154052734,,,
5.6406250000,0,-1.1674799919,,,
5.6562500000,0,-1.1512449980,,,
5.6718750000,0,-0.9332274795,,,
5.6875000000,0,-0.6737061143,,,
5.7031250000,0,-0.5643311143,,,
5.7187500000,0,-0.7144774795,,,
5.7343750000,0,-1.0782469511,,,
5.7500000000,0,-1.4904789925,,,
5.7656250000,0,-1.7415770292,,,
5.7812500000,0,-1.6900629997,,,
5.7968750000,0,-1.3186039925,,,
5.8125000000,0,-0.7252197266,,,
5.8281250000,0,-0.0307617206,,,
5.8437500000,0,0.6706542969,,,
5.8593750000,0,1.3369139433,,,
5.8750000000,0,1.9526369572,,,
5.8906250000,0,2.4808349609,,,
5.9062500000,0,2.8591310978,,,
5.9218750000,0,3.0136721134,,,
5.9375000000,0,2.9071040154,,,
5.9531250000,0,2.5401608944,,,
5.9687500000,0,1.9610600471,,,
5.9843750000,0,1.2418210506,,,
6.0000000000,0,0.4656982124,,,
6.0156250000,0,-0.2615967095,,,
6.0312500000,0,-0.8304442763,,,
6.0468750000,0,-1.1364749670,,,
6.0625000000,0,-1.1379389763,,,
6.0781250000,0,-0.8818358779,,,
6.0937500000,0,-0.5218505859,,,
6.1093750000,0,-0.2503662109,,,
6.1250000000,0,-0.2034911960,,,
6.1406250000,0,-0.4014892876,,,
6.1562500000,0,-0.7395020127,,,
6.1718750000,0,-1.0705569983,,,
6.1875000000,0,-1.2758790255,,,
6.2031250000,0,-1.3311769962,,,
6.2187500000,0,-1.2872309685,,,
6.2343750000,0,-1.2169189453,,,
6.2500000000,0,-1.1599119902,,,
6.2656250000,0,-1.1081540585,,,
6.2812500000,0,-1.0377199650,,,
6.2968750000,0,-0.9221190810,,,
6.3125000000,0,-0.7904052734,,,
6.3281250000,0,-0.6889647841,,,
6.3437500000,0,-0.6696776748,,,
6.3593750000,0,-0.7542725205,,,
6.3750000000,0,-0.9157714844,,,
6.3906250000,0,-1.0955810547,,,
6.4062500000,0,-1.2365720272,,,
6.4218750000,0,-1.3133540154,,,
6.4375000000,0,-1.3038330078,,,
6.4531250000,0,-1.2065429688,,,
6.4687500000,0,-1.0117189884,,,
6.4843750000,0,-0.7158203125,,,
6.5000000000,0,-0.3409424126,,,
6.5156250000,0,0.0651855469,,,
6.5312500000,0,0.4414063096,,,
6.5468750000,0,0.7445067763,,,
6.5625000000,0,0.9566649795,,,
6.5781250000,0,1.0800780058,,,
6.5937500000,0,1.1254880428,,,
6.6093750000,0,1.0788569450,,,
6.6250000000,0,0.9121093750,,,
6.6406250000,0,0.6071776748,,,
6.6562500000,0,0.2011719048,,,
6.6718750000,0,-0.2109375000,,,
6.6875000000,0,-0.4855957031,,,
6.7031250000,0,-0.5290526748,,,
6.7187500000,0,-0.3348388970,,,
6.7343750000,0,-0.0114746103,,,
6.7500000000,0,0.2883301079,,,
6.7656250000,0,0.4578857124,,,
6.7812500000,0,0.4803467095,,,
6.7968750000,0,0.4598388970,,,
6.8125000000,0,0.5119628906,,,
6.8281250000,0,0.7109375000,,,
6.8437500000,0,1.0150150061,,,
6.8593750000,0,1.2882080078,,,
6.8750000000,0,1.3815920353,,,
6.8906250000,0,1.2230219841,,,
6.9062500000,0,0.8482666016,,,
6.9218750000,0,0.3767090142,,,
6.9375000000,0,-0.0617675819,,,
6.9531250000,0,-0.4141846001,,,
6.9687500000,0,-0.7148438096,,,
6.9843750000,0,-1.0249019861,,,
7.0000000000,0,-1.3428959846,,,
7.0156250000,0,-1.5826419592,,,
7.0312500000,0,-1.6149899960,,,
7.0468750000,0,-1.3403320313,,,
7.0625000000,0,-0.7855225205,,,
7.0781250000,0,-0.1047362983,,,
7.0937500000,0,0.4822998047,,,
7.1093750000,0,0.8012694716,,,
7.1250000000,0,0.8143311143,,,
7.1406250000,0,0.6359863281,,,
7.1562500000,0,0.4635010064,,,
7.1718750000,0,0.4599609077,,,
7.1875000000,0,0.6901854873,,,
7.2031250000,0,1.0755620003,,,
7.2187500000,0,1.4558110237,,,
7.2343750000,0,1.6696779728,,,
7.2500000000,0,1.6168210506,,,
7.2656250000,0,1.2993160486,,,
7.2812500000,0,0.7916259766,,,
7.2968750000,0,0.2081298977,,,
7.3125000000,0,-0.3415527046,,,
7.3281250000,0,-0.7514647841,,,
7.3437500000,0,-0.9522705078,,,
7.3593750000,0,-0.9118651748,,,
7.3750000000,0,-0.6541748047,,,
7.3906250000,0,-0.2497559041,,,
7.4062500000,0,0.1619873047,,,
7.4218750000,0,0.4500732124,,,
7.4375000000,0,0.5354003906,,,
7.4531250000,0,0.4516601861,,,
7.4687500000,0,0.3164063096,,,
7.4843750000,0,0.2724609077,,,
7.5000000000,0,0.4111328125,,,
7.5156250000,0,0.6973876953,,,
7.5312500000,0,0.9978026748,,,
7.5468750000,0,1.1575930119,,,
7.5625000000,0,1.0766600370,,,
7.5781250000,0,0.7790526748,,,
7.5937500000,0,0.3703612983,,,
7.6093750000,0,-0.0197753906,,,
7.6250000000,0,-0.3040770888,,,
7.6406250000,0,-0.4647217095,,,
7.6562500000,0,-0.5223389268,,,
7.6718750000,0,-0.5004882813,,,
7.6875000000,0,-0.3966063857,,,
7.7031250000,0,-0.2010498047,,,
7.7187500000,0,0.0644531325,,,
7.7343750000,0,0.3383789063,,,
7.7500000000,0,0.5200194716,,,
7.7656250000,0,0.5218505859,,,
7.7812500000,0,0.3199462891,,,
7.7968750000,0,-0.0245361291,,,
7.8125000000,0,-0.3690186143,,,
7.8281250000,0,-0.5743408203,,,
7.8437500000,0,-0.5643311143,,,
7.8593750000,0,-0.3616943061,,,
7.8750000000,0,-0.0839843825,,,
7.8906250000,0,0.1190185994,,,
7.9062500000,0,0.1331786960,,,
7.9218750000,0,-0.0711669922,,,
7.9375000000,0,-0.4399414063,,,
7.9531250000,0,-0.8491210938,,,
7.9687500000,0,-1.1812740564,,,
7.9843750000,0,-1.3723139763,,,
8.0000000000,1,-1.4151610136,,,
8.0156250000,1,-1.3568120003,,,
8.0312500000,1,-1.2460939884,,,
8.0468750000,1,-1.1085209846,,,
8.0625000000,1,-0.9383544922,,,
8.0781250000,1,-0.7264404297,,,
8.0937500000,1,-0.4919433892,,,
8.1093750000,1,-0.2745361030,,,
8.1250000000,1,-0.1025390998,,,
8.1406250000,1,0.0024414060,,,
8.1562500000,1,0.0474853516,,,
8.1718750000,1,0.0490722694,,,
8.1875000000,1,0.0228271503,,,
8.2031250000,1,-0.0247802697,,,
8.2187500000,1,-0.0871582031,,,
8.2343750000,1,-0.1489257962,,,
8.2500000000,1,-0.1885986030,,,
8.2656250000,1,-0.1982422024,,,
8.2812500000,1,-0.1654053032,,,
8.2968750000,1,-0.0859375000,,,
8.3125000000,1,0.0603027306,,,
8.3281250000,1,0.2900390923,,,
8.3437500000,1,0.5855712891,,,
8.3593750000,1,0.8775634766,,,
8.3750000000,1,1.0499269962,,,
8.3906250000,1,0.9714354873,,,
8.4062500000,1,0.6046143174,,,
8.4218750000,1,0.0347900391,,,
8.4375000000,1,-0.5533447266,,,
8.4531250000,1,-0.9353026748,,,
8.4687500000,1,-0.9678955078,,,
8.4843750000,1,-0.6363524795,,,
8.5000000000,1,-0.0638427734,,,
8.5156250000,1,0.5760498047,,,
8.5312500000,1,1.1394040585,,,
8.5468750000,1,1.5391850471,,,
8.5625000000,1,1.7426760197,,,
8.5781250000,1,1.7446290255,,,
8.5937500000,1,1.5382080078,,,
8.6093750000,1,1.1356199980,,,
8.6250000000,1,0.6072998047,,,
8.6406250000,1,0.0710449219,,,
8.6562500000,1,-0.3372803032,,,
8.6718750000,1,-0.5091552734,,,
8.6875000000,1,-0.4173583984,,,
8.7031250000,1,-0.1253661960,,,
8.7187500000,1,0.2288818061,,,
8.7343750000,1,0.5003662109,,,
8.7500000000,1,0.5671386719,,,
8.7656250000,1,0.3842773139,,,
8.7812500000,1,0.0045166020,,,
8.7968750000,1,-0.4403075874,,,
8.8125000000,1,-0.7943115234,,,
8.8281250000,1,-0.9526367188,,,
8.8437500000,1,-0.8981934190,,,
8.8593750000,1,-0.7280272841,,,
8.8750000000,1,-0.5722656250,,,
8.8906250000,1,-0.5535889268,,,
8.9062500000,1,-0.6989746094,,,
8.9218750000,1,-0.9403076172,,,
8.9375000000,1,-1.1823730469,,,
8.9531250000,1,-1.3635250330,,,
8.9687500000,1,-1.5030519962,,,
8.9843750000,1,-1.6496579647,,,
9.0000000000,1,-1.8283690214,,,
9.0156250000,1,-1.9735109806,,,
9.0312500000,1,-1.9765629768,,,
9.0468750000,1,-1.7593990564,,,
9.0625000000,1,-1.3654789925,,,
9.0781250000,1,-0.9599608779,,,
9.0937500000,1,-0.7379149795,,,
9.1093750000,1,-0.8050537109,,,
9.1250000000,1,-1.0935059786,,,
9.1406250000,1,-1.4104000330,,,
9.1562500000,1,-1.5302729607,,,
9.1718750000,1,-1.3315429688,,,
9.1875000000,1,-0.8399658203,,,
9.2031250000,1,-0.2010498047,,,
9.2187500000,1,0.4235840142,,,
9.2343750000,1,0.9572753906,,,
9.2500000000,1,1.4017330408,,,
9.2656250000,1,1.8023680449,,,
9.2812500000,1,2.1699221134,,,
9.2968750000,1,2.4520258904,,,
9.3125000000,1,2.5686039925,,,
9.3281250000,1,2.4722900391,,,
9.3437500000,1,2.1942141056,,,
9.3593750000,1,1.8447270393,,,
9.3750000000,1,1.5667719841,,,
9.3906250000,1,1.4666750431,,,
9.4062500000,1,1.5742189884,,,
9.4218750000,1,1.8154300451,,,
9.4375000000,1,2.0589599609,,,
9.4531250000,1,2.1651608944,,,
9.4687500000,1,2.0430910587,,,
9.4843750000,1,1.6898189783,,,
9.5000000000,1,1.1665040255,,,
9.5156250000,1,0.5909423828,,,
9.5312500000,1,0.0776367188,,,
9.5468750000,1,-0.2980957031,,,
9.5625000000,1,-0.5119628906,,,
9.5781250000,1,-0.5858154297,,,
9.5937500000,1,-0.5582274795,,,
9.6093750000,1,-0.4786376953,,,
9.6250000000,1,-0.3735351861,,,
9.6406250000,1,-0.3027344048,,,
9.6562500000,1,-0.3186034858,,,
9.6718750000,1,-0.4827880859,,,
9.6875000000,1,-0.8090819716,,,
9.7031250000,1,-1.2454830408,,,
9.7187500000,1,-1.6727290154,,,
9.7343750000,1,-1.9561769962,,,
9.7500000000,1,-1.9976810217,,,
9.7656250000,1,-1.7791750431,,,
9.7812500000,1,-1.3629150391,,,
9.7968750000,1,-0.8344727159,,,
9.8125000000,1,-0.2874755859,,,
9.8281250000,1,0.2327881008,,,
9.8437500000,1,0.7014160156,,,
9.8593750000,1,1.0957030058,,,
9.8750000000,1,1.3724370003,,,
9.8906250000,1,1.4593509436,,,
9.9062500000,1,1.3248289824,,,
9.9218750000,1,0.9927979112,,,
9.9375000000,1,0.5622559190,,,
9.9531250000,1,0.1499022990,,,
9.9687500000,1,-0.1553954929,,,
9.9843750000,1,-0.3342284858,,,
10.0000000000,1,-0.4168700874,,,
10.0156250000,1,-0.4395751953,,,
10.0312500000,1,-0.4045409858,,,
10.0468750000,1,-0.2857666016,,,
10.0625000000,1,-0.0871582031,,,
10.0781250000,1,0.1370850056,,,
10.0937500000,1,0.2717284858,,,
10.1093750000,1,0.2126464993,,,
10.1250000000,1,-0.0474853516,,,
10.1406250000,1,-0.4138183892,,,
10.1562500000,1,-0.7089843750,,,
10.1718750000,1,-0.7805175781,,,
10.1875000000,1,-0.5876464844,,,
10.2031250000,1,-0.2161864936,,,
10.2187500000,1,0.1751708984,,,
10.2343750000,1,0.4340820014,,,
10.2500000000,1,0.4949950874,,,
10.2656250000,1,0.3793945014,,,
10.2812500000,1,0.1480713040,,,
10.2968750000,1,-0.1179198995,,,
10.3125000000,1,-0.3747558892,,,
10.3281250000,1,-0.6052246094,,,
10.3437500000,1,-0.8052979112,,,
10.3593750000,1,-0.9884033203,,,
10.3750000000,1,-1.1597900391,,,
10.3906250000,1,-1.2963869572,,,
10.4062500000,1,-1.3637700081,,,
10.4218750000,1,-1.3033449650,,,
10.4375000000,1,-1.0795899630,,,
10.4531250000,1,-0.7083740234,,,
10.4687500000,1,-0.2615967095,,,
10.4843750000,1,0.1492920071,,,
10.5000000000,1,0.4302979112,,,
10.5156250000,1,0.5430908203,,,
10.5312500000,1,0.5233154297,,,
10.5468750000,1,0.4368895888,,,
10.5625000000,1,0.3262938857,,,
10.5781250000,1,0.2098388970,,,
10.5937500000,1,0.0546875000,,,
10.6093750000,1,-0.1708983928,,,
10.6250000000,1,-0.4528808892,,,
10.6406250000,1,-0.7485352159,,,
10.6562500000,1,-0.9864501953,,,
10.6718750000,1,-1.1180419922,,,
10.6875000000,1,-1.1485600471,,,
10.7031250000,1,-1.1195069551,,,
10.7187500000,1,-1.0976560116,,,
10.7343750000,1,-1.1300050020,,,
10.7500000000,1,-1.2088619471,,,
10.7656250000,1,-1.2790529728,,,
10.7812500000,1,-1.2578129768,,,
10.7968750000,1,-1.0738530159,,,
10.8125000000,1,-0.6967772841,,,
10.8281250000,1,-0.1770019978,,,
10.8437500000,1,0.3983153999,,,
10.8593750000,1,0.9273682237,,,
10.8750000000,1,1.3388669491,,,
10.8906250000,1,1.6184079647,,,
10.9062500000,1,1.7955319881,,,
10.9218750000,1,1.9188230038,,,
10.9375000000,1,1.9921879768,,,
10.9531250000,1,2.0100100040,,,
10.9687500000,1,1.9283449650,,,
10.9843750000,1,1.7302249670,,,
11.0000000000,1,1.4237060547,,,
11.0156250000,1,1.0273439884,,,
11.0312500000,1,0.5690917969,,,
11.0468750000,1,0.0828857422,,,
11.0625000000,1,-0.3826903999,,,
11.0781250000,1,-0.7348632813,,,
11.0937500000,1,-0.8637694716,,,
11.1093750000,1,-0.6818848252,,,
11.1250000000,1,-0.1968993992,,,
11.1406250000,1,0.4644775093,,,
11.1562500000,1,1.0952149630,,,
11.1718750000,1,1.4902340174,,,
11.1875000000,1,1.5408940315,,,
11.2031250000,1,1.2735600471,,,
11.2187500000,1,0.8046875000,,,
11.2343750000,1,0.2822265923,,,
11.2500000000,1,-0.1876221001,,,
11.2656250000,1,-0.5627440810,,,
11.2812500000,1,-0.8479003906,,,
11.2968750000,1,-1.0477290154,,,
11.3125000000,1,-1.1510009766,,,
11.3281250000,1,-1.1463619471,,,
11.3437500000,1,-1.0363769531,,,
11.3593750000,1,-0.8614501953,,,
11.3750000000,1,-0.6838378906,,,
11.3906250000,1,-0.5688477159,,,
11.4062500000,1,-0.5510253906,,,
11.4218750000,1,-0.6141356826,,,
11.4375000000,1,-0.7070313096,,,
11.4531250000,1,-0.7537841797,,,
11.4687500000,1,-0.7097167969,,,
11.4843750000,1,-0.5881348252,,,
11.5000000000,1,-0.4599609077,,,
11.5156250000,1,-0.4168700874,,,
11.5312500000,1,-0.5174561143,,,
11.5468750000,1,-0.7404785156,,,
11.5625000000,1,-0.9793701172,,,
11.5781250000,1,-1.1201169491,,,
11.5937500000,1,-1.1016850471,,,
11.6093750000,1,-0.9429932237,,,
11.6250000000,1,-0.7204589844,,,
11.6406250000,1,-0.5040283203,,,
11.6562500000,1,-0.3154296875,,,
11.6718750000,1,-0.1258545071,,,
11.6875000000,1,0.0943603516,,,
11.7031250000,1,0.3409424126,,,
11.7187500000,1,0.5653076172,,,
11.7343750000,1,0.7258300781,,,
11.7500000000,1,0.8155518174,,,
11.7656250000,1,0.8947753906,,,
11.7812500000,1,1.0045169592,,,
11.7968750000,1,1.1488039494,,,
11.8125000000,1,1.2437740564,,,
11.8281250000,1,1.1835939884,,,
11.8437500000,1,0.9155272841,,,
11.8593750000,1,0.5010985732,,,
11.8750000000,1,0.0793457031,,,
11.8906250000,1,-0.1954346001,,,
11.9062500000,1,-0.2612304986,,,
11.9218750000,1,-0.1478271037,,,
11.9375000000,1,0.0533447303,,,
11.9531250000,1,0.2762450874,,,
11.9687500000,1,0.5219727159,,,
11.9843750000,1,0.8321533203,,,
12.0000000000,1,1.2176510096,,,
12.0156250000,1,1.6224370003,,,
12.0312500000,1,1.9414060116,,,
12.0468750000,1,2.0675048828,,,
12.0625000000,1,1.9863280058,,,
12.0781250000,1,1.7561039925,,,
12.0937500000,1,1.4719239473,,,
12.1093750000,1,1.1942139864,,,
12.1250000000,1,0.9189453125,,,
12.1406250000,1,0.6054688096,,,
12.1562500000,1,0.2354736030,,,
12.1718750000,1,-0.1405028999,,,
12.1875000000,1,-0.4309082031,,,
12.2031250000,1,-0.5657958984,,,
12.2187500000,1,-0.5471190810,,,
12.2343750000,1,-0.4639892876,,,
12.2500000000,1,-0.4313965142,,,
12.2656250000,1,-0.5170897841,,,
12.2812500000,1,-0.7033690810,,,
12.2968750000,1,-0.8967285156,,,
12.3125000000,1,-0.9990233779,,,
12.3281250000,1,-0.9625244141,,,
12.3437500000,1,-0.8220214844,,,
12.3593750000,1,-0.6380615234,,,
12.3750000000,1,-0.4915770888,,,
12.3906250000,1,-0.3989258111,,,
12.4062500000,1,-0.3483887017,,,
12.4218750000,1,-0.3087157905,,,
12.4375000000,1,-0.2730712891,,,
12.4531250000,1,-0.2622070014,,,
12.4687500000,1,-0.3024902046,,,
12.4843750000,1,-0.3927001953,,,
12.5000000000,1,-0.4788818061,,,
12.5156250000,1,-0.4838866889,,,
12.5312500000,1,-0.3403320014,,,
12.5468750000,1,-0.0559081994,,,
12.5625000000,1,0.2835693061,,,
12.5781250000,1,0.5491942763,,,
12.5937500000,1,0.6160889268,,,
12.6093750000,1,0.4333496094,,,
12.6250000000,1,0.0509033203,,,
12.6406250000,1,-0.4067383111,,,
12.6562500000,1,-0.7777100205,,,
12.6718750000,1,-0.9377440810,,,
12.6875000000,1,-0.8509520888,,,
12.7031250000,1,-0.5845947266,,,
12.7187500000,1,-0.2624512017,,,
12.7343750000,1,-0.0246581994,,,
12.7500000000,1,0.0570068397,,,
12.7656250000,1,-0.0114746103,,,
12.7812500000,1,-0.1455077976,,,
12.7968750000,1,-0.2346190959,,,
12.8125000000,1,-0.2127685994,,,
12.8281250000,1,-0.0963134766,,,
12.8437500000,1,0.0169677697,,,
12.8593750000,1,0.0252685491,,,
12.8750000000,1,-0.1411132962,,,
12.8906250000,1,-0.4626465142,,,
12.9062500000,1,-0.8320313096,,,
12.9218750000,1,-1.1136469841,,,
12.9375000000,1,-1.1954350471,,,
12.9531250000,1,-1.0334470272,,,
12.9687500000,1,-0.6611328125,,,
12.9843750000,1,-0.1755370945,,,
13.0000000000,1,0.3007813096,,,
13.0156250000,1,0.6386718750,,,
13.0312500000,1,0.7584229112,,,
13.0468750000,1,0.6407470703,,,
13.0625000000,1,0.3167724907,,,
13.0781250000,1,-0.1434326023,,,
13.0937500000,1,-0.6604003906,,,
13.1093750000,1,-1.1362299919,,,
13.1250000000,1,-1.4606930017,,,
13.1406250000,1,-1.5354000330,,,
13.1562500000,1,-1.2977290154,,,
13.1718750000,1,-0.7539063096,,,
13.1875000000,1,-0.0014648440,,,
13.2031250000,1,0.7937011719,,,
13.2187500000,1,1.4541020393,,,
13.2343750000,1,1.8385009766,,,
13.2500000000,1,1.9136960506,,,
13.2656250000,1,1.7286380529,,,
13.2812500000,1,1.3933110237,,,
13.2968750000,1,0.9936522841,,,
13.3125000000,1,0.5753173828,,,
13.3281250000,1,0.1357422024,,,
13.3437500000,1,-0.3261719048,,,
13.3593750000,1,-0.7602539063,,,
13.3750000000,1,-1.0771479607,,,
13.3906250000,1,-1.1976319551,,,
13.4062500000,1,-1.1171879768,,,
13.4218750000,1,-0.9116210938,,,
13.4375000000,1,-0.7238770127,,,
13.4531250000,1,-0.6688231826,,,
13.4687500000,1,-0.7753906250,,,
13.4843750000,1,-0.9682617188,,,
13.5000000000,1,-1.1032710075,,,
13.5156250000,1,-1.0535889864,,,
13.5312500000,1,-0.7915039063,,,
13.5468750000,1,-0.3807373047,,,
13.5625000000,1,0.0747070313,,,
13.5781250000,1,0.4792479873,,,
13.5937500000,1,0.7976074219,,,
13.6093750000,1,1.0059809685,,,
13.6250000000,1,1.0764160156,,,
13.6406250000,1,0.9664307237,,,
13.6562500000,1,0.6486815810,,,
13.6718750000,1,0.1761475056,,,
13.6875000000,1,-0.3051758111,,,
13.7031250000,1,-0.6058350205,,,
13.7187500000,1,-0.5802001953,,,
13.7343750000,1,-0.2094727010,,,
13.7500000000,1,0.3664551079,,,
13.7656250000,1,0.8956298828,,,
13.7812500000,1,1.1655269861,,,
13.7968750000,1,1.0635989904,,,
13.8125000000,1,0.6666259766,,,
13.8281250000,1,0.1647949070,,,
13.8437500000,1,-0.2271728963,,,
13.8593750000,1,-0.3773193061,,,
13.8750000000,1,-0.2736816108,,,
13.8906250000,1,-0.0137939500,,,
13.9062500000,1,0.2773438096,,,
13.9218750000,1,0.5089110732,,,
13.9375000000,1,0.6685791016,,,
13.9531250000,1,0.8020020127,,,
13.9687500000,1,0.9675292969,,,
13.9843750000,1,1.1696779728,,,
14.0000000000,1,1.3292239904,,,
14.0156250000,1,1.3281250000,,,
14.0312500000,1,1.0566409826,,,
14.0468750000,1,0.5097656250,,,
14.0625000000,1,-0.1622314006,,,
14.0781250000,1,-0.7314453125,,,
14.0937500000,1,-0.9482421875,,,
14.1093750000,1,-0.7048339844,,,
14.1250000000,1,-0.0617675819,,,
14.1406250000,1,0.7791748047,,,
14.1562500000,1,1.5753170252,,,
14.1718750000,1,2.1477050781,,,
14.1875000000,1,2.4354250431,,,
14.2031250000,1,2.4820559025,,,
14.2187500000,1,2.3400878906,,,
14.2343750000,1,2.0361330509,,,
14.2500000000,1,1.5703129768,,,
14.2656250000,1,0.9624022841,,,
14.2812500000,1,0.2973633111,,,
14.2968750000,1,-0.2972412109,,,
14.3125000000,1,-0.7193604112,,,
14.3281250000,1,-0.9481201172,,,
14.3437500000,1,-1.0448000431,,,
14.3593750000,1,-1.1120610237,,,
14.3750000000,1,-1.1906739473,,,
14.3906250000,1,-1.2600100040,,,
14.4062500000,1,-1.2558590174,,,
14.4218750000,1,-1.1485600471,,,
14.4375000000,1,-0.9738770127,,,
14.4531250000,1,-0.8181151748,,,
14.4687500000,1,-0.7651367188,,,
14.4843750000,1,-0.8581542969,,,
14.5000000000,1,-1.0771479607,,,
14.5156250000,1,-1.3499759436,,,
14.5312500000,1,-1.5930180550,,,
14.5468750000,1,-1.7198489904,,,
14.5625000000,1,-1.6525880098,,,
14.5781250000,1,-1.3496090174,,,
14.5937500000,1,-0.8157958984,,,
14.6093750000,1,-0.1488036960,,,
14.6250000000,1,0.5013427734,,,
14.6406250000,1,0.9600830078,,,
14.6562500000,1,1.1264649630,,,
14.6718750000,1,1.0018310547,,,
14.6875000000,1,0.6911621094,,,
14.7031250000,1,0.3232421875,,,
14.7187500000,1,-0.0332031287,,,
14.7343750000,1,-0.3859862983,,,
14.7500000000,1,-0.7692871094,,,
14.7656250000,1,-1.1751710176,,,
14.7812500000,1,-1.5360109806,,,
14.7968750000,1,-1.7232669592,,,
14.8125000000,1,-1.6544189453,,,
14.8281250000,1,-1.3496090174,,,
14.8437500000,1,-0.9238281250,,,
14.8593750000,1,-0.5579833984,,,
14.8750000000,1,-0.3989258111,,,
14.8906250000,1,-0.4924316108,,,
14.9062500000,1,-0.7794188857,,,
14.9218750000,1,-1.1241459846,,,
14.9375000000,1,-1.3895260096,,,
14.9531250000,1,-1.4781490564,,,
14.9687500000,1,-1.3535159826,,,
14.9843750000,1,-1.0351560116,,,
15.0000000000,1,-0.5853270888,,,
15.0156250000,1,-0.0930175781,,,
15.0312500000,1,0.3299561143,,,
15.0468750000,1,0.5897216797,,,
15.0625000000,1,0.6383057237,,,
15.0781250000,1,0.4901123047,,,
15.0937500000,1,0.2097167969,,,
15.1093750000,1,-0.1374512017,,,
15.1250000000,1,-0.4855957031,,,
15.1406250000,1,-0.7801514268,,,
15.1562500000,1,-0.9862061143,,,
15.1718750000,1,-1.0939940214,,,
15.1875000000,1,-1.1090090275,,,
15.2031250000,1,-1.0603029728,,,
15.2187500000,1,-0.9881591797,,,
15.2343750000,1,-0.9051514268,,,
15.2500000000,1,-0.8111572266,,,
15.2656250000,1,-0.6844481826,,,
15.2812500000,1,-0.5197753906,,,
15.2968750000,1,-0.3439941108,,,
15.3125000000,1,-0.2207030952,,,
15.3281250000,1,-0.2227783054,,,
15.3437500000,1,-0.4138183892,,,
15.3593750000,1,-0.8071289063,,,
15.3750000000,1,-1.3455810547,,,
15.3906250000,1,-1.9080810547,,,
15.4062500000,1,-2.3256840706,,,
15.4218750000,1,-2.3894040585,,,
15.4375000000,1,-1.9133299589,,,
15.4531250000,1,-0.7988281250,,,
15.4687500000,1,0.9071044922,,,
15.4843750000,1,2.9743649960,,,
15.5000000000,1,5.0302729607,,,
15.5156250000,1,6.6749272346,,,
15.5312500000,1,7.6105961800,,,
15.5468750000,1,7.7327880859,,,
15.5625000000,1,7.1652832031,,,
15.5781250000,1,6.1733398438,,,
15.5937500000,1,5.0513920784,,,
15.6093750000,1,4.0091547966,,,
15.6250000000,1,3.1302490234,,,
15.6406250000,1,2.3909909725,,,
15.6562500000,1,1.7410889864,,,
15.6718750000,1,1.1517330408,,,
15.6875000000,1,0.6564940810,,,
15.7031250000,1,0.3028563857,,,
15.7187500000,1,0.0783691406,,,
15.7343750000,1,-0.0986328125,,,
15.7500000000,1,-0.3531494141,,,
15.7656250000,1,-0.7821044922,,,
15.7812500000,1,-1.3936769962,,,
15.7968750000,1,-2.0897219181,,,
15.8125000000,1,-2.7354741096,,,
15.8281250000,1,-3.2054440975,,,
15.8437500000,1,-3.4375000000,,,
15.8593750000,1,-3.4355471134,,,
15.8750000000,1,-3.2164309025,,,
15.8906250000,1,-2.8072509766,,,
15.9062500000,1,-2.2462160587,,,
15.9218750000,1,-1.6038819551,,,
15.9375000000,1,-0.9753417969,,,
15.9531250000,1,-0.4637450874,,,
15.9687500000,1,-0.1209717020,,,
15.9843750000,1,0.0537109412,,,
16.0000000000,2,0.1160888970,,,
16.0156250000,2,0.1300048977,,,
16.0312500000,2,0.1242676005,,,
16.0468750000,2,0.0812988281,,,
16.0625000000,2,-0.0368652306,,,
16.0781250000,2,-0.2366943061,,,
16.0937500000,2,-0.5030518174,,,
16.1093750000,2,-0.7869873047,,,
16.1250000000,2,-1.0363769531,,,
16.1406250000,2,-1.2182619572,,,
16.1562500000,2,-1.3034670353,,,
16.1718750000,2,-1.2895510197,,,
16.1875000000,2,-1.1682130098,,,
16.2031250000,2,-0.9416503906,,,
16.2187500000,2,-0.6154785156,,,
16.2343750000,2,-0.2117920071,,,
16.2500000000,2,0.2502441108,,,
16.2656250000,2,0.7452393174,,,
16.2812500000,2,1.2375489473,,,
16.2968750000,2,1.6948239803,,,
16.3125000000,2,2.0737299919,,,
16.3281250000,2,2.3489990234,,,
16.3437500000,2,2.5039060116,,,
16.3593750000,2,2.5401608944,,,
16.3750000000,2,2.4742429256,,,
16.3906250000,2,2.3181149960,,,
16.4062500000,2,2.0764160156,,,
16.4218750000,2,1.7369379997,,,
16.4375000000,2,1.2874759436,,,
16.4531250000,2,0.7102050781,,,
16.4687500000,2,0.0268554706,,,
16.4843750000,2,-0.7139893174,,,
16.5000000000,2,-1.4299319983,,,
16.5156250000,2,-2.0322270393,,,
16.5312500000,2,-2.4663090706,,,
16.5468750000,2,-2.7086179256,,,
16.5625000000,2,-2.7868649960,,,
16.5781250000,2,-2.7232670784,,,
16.5937500000,2,-2.5334470272,,,
16.6093750000,2,-2.2062990665,,,
16.6250000000,2,-1.7431639433,,,
16.6406250000,2,-1.1724849939,,,
16.6562500000,2,-0.5712891221,,,
16.6718750000,2,-0.0346679688,,,
16.6875000000,2,0.3701171875,,,
16.7031250000,2,0.6367188096,,,
16.7187500000,2,0.7973632813,,,
16.7343750000,2,0.8787841797,,,
16.7500000000,2,0.8732910156,,,
16.7656250000,2,0.7416992188,,,
16.7812500000,2,0.4671630859,,,
16.7968750000,2,0.0921630934,,,
16.8125000000,2,-0.2802734077,,,
16.8281250000,2,-0.5217285156,,,
16.8437500000,2,-0.5555419922,,,
16.8593750000,2,-0.3907471001,,,
16.8750000000,2,-0.1166991964,,,
16.8906250000,2,0.1535644978,,,
16.9062500000,2,0.3297119141,,,
16.9218750000,2,0.3902587891,,,
16.9375000000,2,0.3623046875,,,
16.9531250000,2,0.2956542969,,,
16.9687500000,2,0.2479248047,,,
16.9843750000,2,0.2510986030,,,
17.0000000000,2,0.3416748047,,,
17.0156250000,2,0.5113524795,,,
17.0312500000,2,0.7004395127,,,
17.0468750000,2,0.7966309190,,,
17.0625000000,2,0.6829833984,,,
17.0781250000,2,0.2930907905,,,
17.0937500000,2,-0.3157958984,,,
17.1093750000,2,-0.9694824219,,,
17.1250000000,2,-1.4599610567,,,
17.1406250000,2,-1.6315920353,,,
17.1562500000,2,-1.4775389433,,,
17.1718750000,2,-1.1313480139,,,
17.1875000000,2,-0.7894287109,,,
17.2031250000,2,-0.5961914063,,,
17.2187500000,2,-0.5834960938,,,
17.2343750000,2,-0.6573485732,,,
17.2500000000,2,-0.7008057237,,,
17.2656250000,2,-0.6247559190,,,
17.2812500000,2,-0.4270020127,,,
17.2968750000,2,-0.1519774944,,,
17.3125000000,2,0.1416016072,,,
17.3281250000,2,0.4273681939,,,
17.3437500000,2,0.7009276748,,,
17.3593750000,2,0.9526367188,,,
17.3750000000,2,1.1591800451,,,
17.3906250000,2,1.2891850471,,,
17.4062500000,2,1.3089599609,,,
17.4218750000,2,1.2207030058,,,
17.4375000000,2,1.0457760096,,,
17.4531250000,2,0.8137207031,,,
17.4687500000,2,0.5618895888,,,
17.4843750000,2,0.3149414063,,,
17.5000000000,2,0.1163330004,,,
17.5156250000,2,0.0148925800,,,
17.5312500000,2,0.0410156287,,,
17.5468750000,2,0.1884766072,,,
17.5625000000,2,0.4257813096,,,
17.5781250000,2,0.6705322266,,,
17.5937500000,2,0.8271483779,,,
17.6093750000,2,0.8181151748,,,
17.6250000000,2,0.6091309190,,,
17.6406250000,2,0.2321777046,,,
17.6562500000,2,-0.2167969048,,,
17.6718750000,2,-0.6109619141,,,
17.6875000000,2,-0.8385009766,,,
17.7031250000,2,-0.8668212891,,,
17.7187500000,2,-0.7648925781,,,
17.7343750000,2,-0.6572266221,,,
17.7500000000,2,-0.6909180284,,,
17.7656250000,2,-0.9387207031,,,
17.7812500000,2,-1.3781739473,,,
17.7968750000,2,-1.8850100040,,,
17.8125000000,2,-2.2888178825,,,
17.8281250000,2,-2.4392089844,,,
17.8437500000,2,-2.2596440315,,,
17.8593750000,2,-1.7757569551,,,
17.8750000000,2,-1.0976560116,,,
17.8906250000,2,-0.3725585938,,,
17.9062500000,2,0.2457274944,,,
17.9218750000,2,0.6533203125,,,
17.9375000000,2,0.8093261719,,,
17.9531250000,2,0.7540283203,,,
17.9687500000,2,0.5843505859,,,
17.9843750000,2,0.4300537109,,,
18.0000000000,2,0.4050292969,,,
18.0156250000,2,0.5733643174,,,
18.0312500000,2,0.9273682237,,,
18.0468750000,2,1.3774410486,,,
18.0625000000,2,1.7867430449,,,
18.0781250000,2,2.0324709415,,,
18.0937500000,2,2.0371088982,,,
18.1093750000,2,1.8229980469,,,
18.1250000000,2,1.4718019962,,,
18.1406250000,2,1.0913089514,,,
18.1562500000,2,0.7340087891,,,
18.1718750000,2,0.4027099907,,,
18.1875000000,2,0.0913085863,,,
18.2031250000,2,-0.1727295071,,,
18.2187500000,2,-0.3117676079,,,
18.2343750000,2,-0.2442626953,,,
18.2500000000,2,0.0251464806,,,
18.2656250000,2,0.3790282905,,,
18.2812500000,2,0.6251220703,,,
18.2968750000,2,0.5917968750,,,
18.3125000000,2,0.2352295071,,,
18.3281250000,2,-0.3200683892,,,
18.3437500000,2,-0.8526610732,,,
18.3593750000,2,-1.1353759766,,,
18.3750000000,2,-1.0726319551,,,
18.3906250000,2,-0.7000731826,,,
18.4062500000,2,-0.1562500000,,,
18.4218750000,2,0.4047851861,,,
18.4375000000,2,0.8688964844,,,
18.4531250000,2,1.1708979607,,,
18.4687500000,2,1.2618410587,,,
18.4843750000,2,1.1008299589,,,
18.5000000000,2,0.6743164063,,,
18.5156250000,2,0.0104980497,,,
18.5312500000,2,-0.7917479873,,,
18.5468750000,2,-1.5844730139,,,
18.5625000000,2,-2.2192380428,,,
18.5781250000,2,-2.5963129997,,,
18.5937500000,2,-2.6933588982,,,
18.6093750000,2,-2.5504150391,,,
18.6250000000,2,-2.2526860237,,,
18.6406250000,2,-1.8621829748,,,
18.6562500000,2,-1.4272459745,,,
18.6718750000,2,-0.9741210938,,,
18.6875000000,2,-0.5230712891,,,
18.7031250000,2,-0.1075439006,,,
18.7187500000,2,0.2097167969,,,
18.7343750000,2,0.3662109077,,,
18.7500000000,2,0.3319092095,,,
18.7656250000,2,0.1322021037,,,
18.7812500000,2,-0.1597899944,,,
18.7968750000,2,-0.4296875000,,,
18.8125000000,2,-0.5676270127,,,
18.8281250000,2,-0.5065917969,,,
18.8437500000,2,-0.2506104112,,,
18.8593750000,2,0.1342772990,,,
18.8750000000,2,0.5357666016,,,
18.8906250000,2,0.8411865234,,,
18.9062500000,2,0.9658203125,,,
18.9218750000,2,0.8924561143,,,
18.9375000000,2,0.6777343750,,,
18.9531250000,2,0.4237061143,,,
18.9687500000,2,0.2436522990,,,
18.9843750000,2,0.2213135064,,,
19.0000000000,2,0.3862304986,,,
19.0156250000,2,0.6882324219,,,
19.0312500000,2,1.0299069881,,,
19.0468750000,2,1.3134770393,,,
19.0625000000,2,1.4854739904,,,
19.0781250000,2,1.5560300350,,,
19.0937500000,2,1.5795899630,,,
19.1093750000,2,1.6297609806,,,
19.1250000000,2,1.7310789824,,,
19.1406250000,2,1.8707280159,,,
19.1562500000,2,2.0118410587,,,
19.1718750000,2,2.1038820744,,,
19.1875000000,2,2.1157228947,,,
19.2031250000,2,2.0422360897,,,
19.2187500000,2,1.8919680119,,,
19.2343750000,2,1.6522220373,,,
19.2500000000,2,1.3023680449,,,
19.2656250000,2,0.8333740234,,,
19.2812500000,2,0.2708739936,,,
19.2968750000,2,-0.3057861030,,,
19.3125000000,2,-0.7863770127,,,
19.3281250000,2,-1.0734859705,,,
19.3437500000,2,-1.1380620003,,,
19.3593750000,2,-1.0439449549,,,
19.3750000000,2,-0.9187011719,,,
19.3906250000,2,-0.8946533203,,,
19.4062500000,2,-1.0610350370,,,
19.4218750000,2,-1.4101560116,,,
19.4375000000,2,-1.8566889763,,,
19.4531250000,2,-2.2684330940,,,
19.4687500000,2,-2.5125730038,,,
19.4843750000,2,-2.5092771053,,,
19.5000000000,2,-2.2280271053,,,
19.5156250000,2,-1.7081300020,,,
19.5312500000,2,-1.0456540585,,,
19.5468750000,2,-0.3852539063,,,
19.5625000000,2,0.1221923977,,,
19.5781250000,2,0.3659667969,,,
19.5937500000,2,0.3142090142,,,
19.6093750000,2,0.0400390588,,,
19.6250000000,2,-0.3309325874,,,
19.6406250000,2,-0.6608886719,,,
19.6562500000,2,-0.8394774795,,,
19.6718750000,2,-0.8209229112,,,
19.6875000000,2,-0.6293944716,,,
19.7031250000,2,-0.3177489936,,,
19.7187500000,2,0.0334472694,,,
19.7343750000,2,0.3487549126,,,
19.7500000000,2,0.5615233779,,,
19.7656250000,2,0.6505126953,,,
19.7812500000,2,0.6472167969,,,
19.7968750000,2,0.6156005859,,,
19.8125000000,2,0.6171875000,,,
19.8281250000,2,0.6748046875,,,
19.8437500000,2,0.7678223252,,,
19.8593750000,2,0.8300781250,,,
19.8750000000,2,0.8184813857,,,
19.8906250000,2,0.7302246094,,,
19.9062500000,2,0.6185302734,,,
19.9218750000,2,0.5429688096,,,
19.9375000000,2,0.5285645127,,,
19.9531250000,2,0.5300292969,,,
19.9687500000,2,0.4696044922,,,
19.9843750000,2,0.2852782905,,,
20.0000000000,2,-0.0155029297,,,
20.0156250000,2,-0.3533936143,,,
20.0312500000,2,-0.6370850205,,,
20.0468750000,2,-0.8187255859,,,
20.0625000000,2,-0.9229735732,,,
20.0781250000,2,-1.0412600040,,,
20.0937500000,2,-1.2510989904,,,
20.1093750000,2,-1.5718990564,,,
20.1250000000,2,-1.9429930449,,,
20.1406250000,2,-2.2670900822,,,
20.1562500000,2,-2.4329829216,,,
20.1718750000,2,-2.3798830509,,,
20.1875000000,2,-2.1140139103,,,
20.2031250000,2,-1.6799319983,,,
20.2187500000,2,-1.1522220373,,,
20.2343750000,2,-0.5781250000,,,
20.2500000000,2,-0.0042724609,,,
20.2656250000,2,0.5555419922,,,
20.2812500000,2,1.0869139433,,,
20.2968750000,2,1.5794680119,,,
20.3125000000,2,2.0102539063,,,
20.3281250000,2,2.3280029297,,,
20.3437500000,2,2.4801030159,,,
20.3593750000,2,2.4047849178,,,
20.3750000000,2,2.0911870003,,,
20.3906250000,2,1.5839840174,,,
20.4062500000,2,0.9962158203,,,
20.4218750000,2,0.4425049126,,,
20.4375000000,2,0.0118408203,,,
20.4531250000,2,-0.2733153999,,,
20.4687500000,2,-0.4416503906,,,
20.4843750000,2,-0.5306395888,,,
20.5000000000,2,-0.5567626953,,,
20.5156250000,2,-0.4998778999,,,
20.5312500000,2,-0.3464354873,,,
20.5468750000,2,-0.1069336012,,,
20.5625000000,2,0.1822510064,,,
20.5781250000,2,0.4704590142,,,
20.5937500000,2,0.7193604112,,,
20.6093750000,2,0.8999022841,,,
20.6250000000,2,0.9833983779,,,
20.6406250000,2,0.9290770888,,,
20.6562500000,2,0.7076416016,,,
20.6718750000,2,0.3215332031,,,
20.6875000000,2,-0.1655272990,,,
20.7031250000,2,-0.6336669922,,,
20.7187500000,2,-0.9503173828,,,
20.7343750000,2,-1.0250240564,,,
20.7500000000,2,-0.8703613281,,,
20.7656250000,2,-0.5791016221,,,
20.7812500000,2,-0.2725830078,,,
20.7968750000,2,-0.0467529297,,,
20.8125000000,2,0.0472412109,,,
20.8281250000,2,-0.0222168006,,,
20.8437500000,2,-0.2679443061,,,
20.8593750000,2,-0.6746826172,,,
20.8750000000,2,-1.1636960506,,,
20.8906250000,2,-1.5748289824,,,
20.9062500000,2,-1.7355959415,,,
20.9218750000,2,-1.5498050451,,,
20.9375000000,2,-1.0784909725,,,
20.9531250000,2,-0.5244141221,,,
20.9687500000,2,-0.1293945014,,,
20.9843750000,2,-0.0673828125,,,
21.0000000000,2,-0.3449707031,,,
21.0156250000,2,-0.8251953125,,,
21.0312500000,2,-1.3055419922,,,
21.0468750000,2,-1.6149899960,,,
21.0625000000,2,-1.6871340275,,,
21.0781250000,2,-1.5605469942,,,
21.0937500000,2,-1.3255620003,,,
21.1093750000,2,-1.0495610237,,,
21.1250000000,2,-0.7697753906,,,
21.1406250000,2,-0.4785155952,,,
21.1562500000,2,-0.1621094048,,,
21.1718750000,2,0.1829833984,,,
21.1875000000,2,0.5306395888,,,
21.2031250000,2,0.8222656250,,,
21.2187500000,2,1.0040279627,,,
21.2343750000,2,1.0423580408,,,
21.2500000000,2,0.9659423828,,,
21.2656250000,2,0.8496093750,,,
21.2812500000,2,0.8182373047,,,
21.2968750000,2,0.9545897841,,,
21.3125000000,2,1.2669680119,,,
21.3281250000,2,1.6815190315,,,
21.3437500000,2,2.0749509335,,,
21.3593750000,2,2.3480219841,,,
21.3750000000,2,2.4533689022,,,
21.3906250000,2,2.4165039063,,,
21.4062500000,2,2.2795410156,,,
21.4218750000,2,2.0789790154,,,
21.4375000000,2,1.8159179688,,,
21.4531250000,2,1.4730219841,,,
21.4687500000,2,1.0551760197,,,
21.4843750000,2,0.5895996094,,,
21.5000000000,2,0.1416016072,,,
21.5156250000,2,-0.2286376953,,,
21.5312500000,2,-0.5002440810,,,
21.5468750000,2,-0.7115479112,,,
21.5625000000,2,-0.9351807237,,,
21.5781250000,2,-1.2237550020,,,
21.5937500000,2,-1.5638430119,,,
21.6093750000,2,-1.8563230038,,,
21.6250000000,2,-1.9725339413,,,
21.6406250000,2,-1.8248289824,,,
21.6562500000,2,-1.4172359705,,,
21.6718750000,2,-0.8536376953,,,
21.6875000000,2,-0.2750244141,,,
21.7031250000,2,0.2003173977,,,
21.7187500000,2,0.5366210938,,,
21.7343750000,2,0.7678223252,,,
21.7500000000,2,0.9573975205,,,
21.7656250000,2,1.1141359806,,,
21.7812500000,2,1.1958010197,,,
21.7968750000,2,1.1119379997,,,
21.8125000000,2,0.8287354112,,,
21.8281250000,2,0.3901366889,,,
21.8437500000,2,-0.0736083984,,,
21.8593750000,2,-0.4106445014,,,
21.8750000000,2,-0.5255126953,,,
21.8906250000,2,-0.4204101861,,,
21.9062500000,2,-0.1834716946,,,
21.9218750000,2,0.0831298828,,,
21.9375000000,2,0.3034667969,,,
21.9531250000,2,0.4558104873,,,
21.9687500000,2,0.5566406250,,,
21.9843750000,2,0.6186522841,,,
22.0000000000,2,0.6274414063,,,
22.0156250000,2,0.5490723252,,,
22.0312500000,2,0.3708496094,,,
22.0468750000,2,0.1350097954,,,
22.0625000000,2,-0.0911865234,,,
22.0781250000,2,-0.2425536960,,,
22.0937500000,2,-0.2901611030,,,
22.1093750000,2,-0.2695313096,,,
22.1250000000,2,-0.2418213040,,,
22.1406250000,2,-0.2580566108,,,
22.1562500000,2,-0.3331299126,,,
22.1718750000,2,-0.4434813857,,,
22.1875000000,2,-0.5577393174,,,
22.2031250000,2,-0.6486815810,,,
22.2187500000,2,-0.7191162109,,,
22.2343750000,2,-0.8134766221,,,
22.2500000000,2,-0.9777832031,,,
22.2656250000,2,-1.2463380098,,,
22.2812500000,2,-1.5950930119,,,
22.2968750000,2,-1.9571529627,,,
22.3125000000,2,-2.2093510628,,,
22.3281250000,2,-2.2355959415,,,
22.3437500000,2,-1.9603270292,,,
22.3593750000,2,-1.3934329748,,,
22.3750000000,2,-0.6301270127,,,
22.3906250000,2,0.1807861030,,,
22.4062500000,2,0.8856201172,,,
22.4218750000,2,1.3688960075,,,
22.4375000000,2,1.5667719841,,,
22.4531250000,2,1.4799799919,,,
22.4687500000,2,1.1496579647,,,
22.4843750000,2,0.6446533203,,,
22.5000000000,2,0.0638427734,,,
22.5156250000,2,-0.4711914063,,,
22.5312500000,2,-0.8548583984,,,
22.5468750000,2,-0.9969481826,,,
22.5625000000,2,-0.8865966797,,,
22.5781250000,2,-0.5958251953,,,
22.5937500000,2,-0.2364501953,,,
22.6093750000,2,0.0638427734,,,
22.6250000000,2,0.2231445014,,,
22.6406250000,2,0.2358397990,,,
22.6562500000,2,0.1553954929,,,
22.6718750000,2,0.0739746094,,,
22.6875000000,2,0.0567626990,,,
22.7031250000,2,0.1398925930,,,
22.7187500000,2,0.3128662109,,,
22.7343750000,2,0.5301514268,,,
22.7500000000,2,0.7448729873,,,
22.7656250000,2,0.9140625000,,,
22.7812500000,2,1.0030519962,,,
22.7968750000,2,0.9902343750,,,
22.8125000000,2,0.8719481826,,,
22.8281250000,2,0.6730957031,,,
22.8437500000,2,0.4635010064,,,
22.8593750000,2,0.3244628906,,,
22.8750000000,2,0.3077392876,,,
22.8906250000,2,0.3908691108,,,
22.9062500000,2,0.4942626953,,,
22.9218750000,2,0.5201416016,,,
22.9375000000,2,0.4104003906,,,
22.9531250000,2,0.1873778999,,,
22.9687500000,2,-0.0688476637,,,
22.9843750000,2,-0.2659912109,,,
23.0000000000,2,-0.3665770888,,,
23.0156250000,2,-0.3919678032,,,
23.0312500000,2,-0.4022217095,,,
23.0468750000,2,-0.4384765923,,,
23.0625000000,2,-0.4892578125,,,
23.0781250000,2,-0.5010985732,,,
23.0937500000,2,-0.4086914063,,,
23.1093750000,2,-0.1873778999,,,
23.1250000000,2,0.1291504055,,,
23.1406250000,2,0.4620361030,,,
23.1562500000,2,0.7351074219,,,
23.1718750000,2,0.9122313857,,,
23.1875000000,2,0.9860839844,,,
23.2031250000,2,0.9731444716,,,
23.2187500000,2,0.8699951172,,,
23.2343750000,2,0.6635742188,,,
23.2500000000,2,0.3547362983,,,
23.2656250000,2,-0.0279540997,,,
23.2812500000,2,-0.4100342095,,,
23.2968750000,2,-0.6873779297,,,
23.3125000000,2,-0.7858886719,,,
23.3281250000,2,-0.6993408203,,,
23.3437500000,2,-0.4897460938,,,
23.3593750000,2,-0.2504883111,,,
23.3750000000,2,-0.0581054688,,,
23.3906250000,2,0.0584716797,,,
23.4062500000,2,0.1062012017,,,
23.4218750000,2,0.0947265625,,,
23.4375000000,2,0.0225830097,,,
23.4531250000,2,-0.1268310994,,,
23.4687500000,2,-0.3601073921,,,
23.4843750000,2,-0.6440430284,,,
23.5000000000,2,-0.9122313857,,,
23.5156250000,2,-1.1066889763,,,
23.5312500000,2,-1.2055660486,,,
23.5468750000,2,-1.2391359806,,,
23.5625000000,2,-1.2647709846,,,
23.5781250000,2,-1.2978520393,,,
23.5937500000,2,-1.2934570313,,,
23.6093750000,2,-1.1912839413,,,
23.6250000000,2,-0.9619141221,,,
23.6406250000,2,-0.6732177734,,,
23.6562500000,2,-0.4559325874,,,
23.6718750000,2,-0.4263916016,,,
23.6875000000,2,-0.5947266221,,,
23.7031250000,2,-0.8443604112,,,
23.7187500000,2,-1.0056149960,,,
23.7343750000,2,-0.9611815810,,,
23.7500000000,2,-0.6885985732,,,
23.7656250000,2,-0.2843017876,,,
23.7812500000,2,0.1218262017,,,
23.7968750000,2,0.4289551079,,,
23.8125000000,2,0.6185302734,,,
23.8281250000,2,0.7324218750,,,
23.8437500000,2,0.8212891221,,,
23.8593750000,2,0.9144287109,,,
23.8750000000,2,1.0020749569,,,
23.8906250000,2,1.0590820313,,,
23.9062500000,2,1.0566409826,,,
23.9218750000,2,0.9898682237,,,
23.9375000000,2,0.8474121094,,,
23.9531250000,2,0.6287841797,,,
23.9687500000,2,0.3277587891,,,
23.9843750000,2,-0.0506591797,,,
24.0000000000,3,-0.4813232124,,,
24.0156250000,3,-0.9018555284,,,
24.0312500000,3,-1.2320560217,,,
24.0468750000,3,-1.3874510527,,,
24.0625000000,3,-1.3176269531,,,
24.0781250000,3,-1.0269780159,,,
24.0937500000,3,-0.5557860732,,,
24.1093750000,3,0.0046386719,,,
24.1250000000,3,0.5555419922,,,
24.1406250000,3,0.9971923828,,,
24.1562500000,3,1.2465820313,,,
24.1718750000,3,1.2484129667,,,
24.1875000000,3,0.9844970703,,,
24.2031250000,3,0.4948729873,,,
24.2187500000,3,-0.1068115011,,,
24.2343750000,3,-0.6619873047,,,
24.2500000000,3,-1.0089110136,,,
24.2656250000,3,-1.0620119572,,,
24.2812500000,3,-0.8337401748,,,
24.2968750000,3,-0.4632568061,,,
24.3125000000,3,-0.1257324070,,,
24.3281250000,3,0.0368652306,,,
24.3437500000,3,-0.0173339806,,,
24.3593750000,3,-0.2165527046,,,
24.3750000000,3,-0.4238280952,,,
24.3906250000,3,-0.4943847954,,,
24.4062500000,3,-0.3548583984,,,
24.4218750000,3,-0.0015869139,,,
24.4375000000,3,0.4686278999,,,
24.4531250000,3,0.9274901748,,,
24.4687500000,3,1.2553709745,,,
24.4843750000,3,1.3953859806,,,
24.5000000000,3,1.3640140295,,,
24.5156250000,3,1.2398680449,,,
24.5312500000,3,1.1055910587,,,
24.5468750000,3,1.0189210176,,,
24.5625000000,3,0.9957274795,,,
24.5781250000,3,1.0172120333,,,
24.5937500000,3,1.0681149960,,,
24.6093750000,3,1.1419680119,,,
24.6250000000,3,1.2438960075,,,
24.6406250000,3,1.3546140194,,,
24.6562500000,3,1.4155269861,,,
24.6718750000,3,1.3548580408,,,
24.6875000000,3,1.1018069983,,,
24.7031250000,3,0.6464843750,,,
24.7187500000,3,0.0444335900,,,
24.7343750000,3,-0.5935059190,,,
24.7500000000,3,-1.1229250431,,,
24.7656250000,3,-1.4309079647,,,
24.7812500000,3,-1.4730219841,,,
24.7968750000,3,-1.2969969511,,,
24.8125000000,3,-1.0145260096,,,
24.8281250000,3,-0.7818604112,,,
24.8437500000,3,-0.7313231826,,,
24.8593750000,3,-0.9281005859,,,
24.8750000000,3,-1.3415529728,,,
24.8906250000,3,-1.8531490564,,,
24.9062500000,3,-2.2805180550,,,
24.9218750000,3,-2.4398190975,,,
24.9375000000,3,-2.2207028866,,,
24.9531250000,3,-1.6345210075,,,
24.9687500000,3,-0.8292235732,,,
24.9843750000,3,-0.0316162109,,,
25.0000000000,3,0.5380858779,,,
25.0156250000,3,0.8022460938,,,
25.0312500000,3,0.8160399795,,,
25.0468750000,3,0.7430419922,,,
25.0625000000,3,0.7474365234,,,
25.0781250000,3,0.9010009766,,,
25.0937500000,3,1.1519780159,,,
25.1093750000,3,1.3707280159,,,
25.1250000000,3,1.4299319983,,,
25.1406250000,3,1.2828370333,,,
25.1562500000,3,0.9584960938,,,
25.1718750000,3,0.5449218750,,,
25.1875000000,3,0.1152343974,,,
25.2031250000,3,-0.2600097954,,,
25.2187500000,3,-0.5316162109,,,
25.2343750000,3,-0.6500244141,,,
25.2500000000,3,-0.5778809190,,,
25.2656250000,3,-0.2967528999,,,
25.2812500000,3,0.1475829929,,,
25.2968750000,3,0.6707764268,,,
25.3125000000,3,1.1801760197,,,
25.3281250000,3,1.5895999670,,,
25.3437500000,3,1.8586430550,,,
25.3593750000,3,1.9683840275,,,
25.3750000000,3,1.9130860567,,,
25.3906250000,3,1.6816409826,,,
25.4062500000,3,1.2954100370,,,
25.4218750000,3,0.8105468750,,,
25.4375000000,3,0.3114013970,,,
25.4531250000,3,-0.1285399944,,,
25.4687500000,3,-0.4777832031,,,
25.4843750000,3,-0.7578125000,,,
25.5000000000,3,-1.0224610567,,,
25.5156250000,3,-1.2725830078,,,
25.5312500000,3,-1.4716800451,,,
25.5468750000,3,-1.5435789824,,,
25.5625000000,3,-1.4370119572,,,
25.5781250000,3,-1.1846920252,,,
25.5937500000,3,-0.8909912109,,,
25.6093750000,3,-0.6813964844,,,
25.6250000000,3,-0.6091309190,,,
25.6406250000,3,-0.6340332031,,,
25.6562500000,3,-0.6431884766,,,
25.6718750000,3,-0.5379639268,,,
25.6875000000,3,-0.3106688857,,,
25.7031250000,3,-0.0313720703,,,
25.7187500000,3,0.1710204929,,,
25.7343750000,3,0.2171631008,,,
25.7500000000,3,0.1013183966,,,
25.7656250000,3,-0.0909423828,,,
25.7812500000,3,-0.2814941108,,,
25.7968750000,3,-0.4351806939,,,
25.8125000000,3,-0.5812988281,,,
25.8281250000,3,-0.7945557237,,,
25.8437500000,3,-1.1065670252,,,
25.8593750000,3,-1.4689940214,,,
25.8750000000,3,-1.7346190214,,,
25.8906250000,3,-1.7698969841,,,
25.9062500000,3,-1.4995119572,,,
25.9218750000,3,-0.9760742188,,,
25.9375000000,3,-0.3446044922,,,
25.9531250000,3,0.2353516072,,,
25.9687500000,3,0.6644287109,,,
25.9843750000,3,0.9371337891,,,
26.0000000000,3,1.1033940315,,,
26.0156250000,3,1.2376710176,,,
26.0312500000,3,1.3814699650,,,
26.0468750000,3,1.5394289494,,,
26.0625000000,3,1.7048339844,,,
26.0781250000,3,1.8685300350,,,
26.0937500000,3,2.0178220272,,,
26.1093750000,3,2.1031489372,,,
26.1250000000,3,2.0782470703,,,
26.1406250000,3,1.9038089514,,,
26.1562500000,3,1.6083979607,,,
26.1718750000,3,1.2830810547,,,
26.1875000000,3,1.0291750431,,,
26.2031250000,3,0.9166259766,,,
26.2187500000,3,0.9189453125,,,
26.2343750000,3,0.9536132813,,,
26.2500000000,3,0.9028319716,,,
26.2656250000,3,0.7117919922,,,
26.2812500000,3,0.3859862983,,,
26.2968750000,3,-0.0269775409,,,
26.3125000000,3,-0.4720458984,,,
26.3281250000,3,-0.9114990234,,,
26.3437500000,3,-1.3110350370,,,
26.3593750000,3,-1.6387939453,,,
26.3750000000,3,-1.8406980038,,,
26.3906250000,3,-1.8696290255,,,
26.4062500000,3,-1.7288819551,,,
26.4218750000,3,-1.4836430550,,,
26.4375000000,3,-1.2430419922,,,
26.4531250000,3,-1.1247559786,,,
26.4687500000,3,-1.1965329647,,,
26.4843750000,3,-1.4343260527,,,
26.5000000000,3,-1.7280269861,,,
26.5156250000,3,-1.9232180119,,,
26.5312500000,3,-1.8863530159,,,
26.5468750000,3,-1.5651860237,,,
26.5625000000,3,-1.0236819983,,,
26.5781250000,3,-0.4251708984,,,
26.5937500000,3,0.0355224609,,,
26.6093750000,3,0.2198486030,,,
26.6250000000,3,0.1263428032,,,
26.6406250000,3,-0.1329346001,,,
26.6562500000,3,-0.3869628906,,,
26.6718750000,3,-0.5003662109,,,
26.6875000000,3,-0.4449462891,,,
26.7031250000,3,-0.2979736030,,,
26.7187500000,3,-0.1860352010,,,
26.7343750000,3,-0.1986083984,,,
26.7500000000,3,-0.3492431939,,,
26.7656250000,3,-0.5533447266,,,
26.7812500000,3,-0.6770020127,,,
26.7968750000,3,-0.6068115234,,,
26.8125000000,3,-0.3017578125,,,
26.8281250000,3,0.1738280952,,,
26.8437500000,3,0.6937255859,,,
26.8593750000,3,1.1196290255,,,
26.8750000000,3,1.3621829748,,,
26.8906250000,3,1.4108890295,,,
26.9062500000,3,1.3154300451,,,
26.9218750000,3,1.1406250000,,,
26.9375000000,3,0.9254149795,,,
26.9531250000,3,0.6813964844,,,
26.9687500000,3,0.4058837891,,,
26.9843750000,3,0.1014403999,,,
27.0000000000,3,-0.1761475056,,,
27.0156250000,3,-0.3635253906,,,
27.0312500000,3,-0.4310303032,,,
27.0468750000,3,-0.4020996094,,,
27.0625000000,3,-0.3377686143,,,
27.0781250000,3,-0.2840575874,,,
27.0937500000,3,-0.2337646037,,,
27.1093750000,3,-0.1440429986,,,
27.1250000000,3,0.0246581994,,,
27.1406250000,3,0.2351074070,,,
27.1562500000,3,0.3862304986,,,
27.1718750000,3,0.3820801079,,,
27.1875000000,3,0.1944579929,,,
27.2031250000,3,-0.0948486328,,,
27.2187500000,3,-0.3621825874,,,
27.2343750000,3,-0.5209960938,,,
27.2500000000,3,-0.6112061143,,,
27.2656250000,3,-0.7659912109,,,
27.2812500000,3,-1.0921629667,,,
27.2968750000,3,-1.5963129997,,,
27.3125000000,3,-2.1080319881,,,
27.3281250000,3,-2.3912351131,,,
27.3437500000,3,-2.2448730469,,,
27.3593750000,3,-1.6328129768,,,
27.3750000000,3,-0.6906738281,,,
27.3906250000,3,0.3569335938,,,
27.4062500000,3,1.3035889864,,,
27.4218750000,3,2.0517580509,,,
27.4375000000,3,2.5800778866,,,
27.4531250000,3,2.8948969841,,,
27.4687500000,3,2.9781489372,,,
27.4843750000,3,2.7950439453,,,
27.5000000000,3,2.3270258904,,,
27.5156250000,3,1.6568599939,,,
27.5312500000,3,0.9453125000,,,
27.5468750000,3,0.3826903999,,,
27.5625000000,3,0.0997314528,,,
27.5781250000,3,0.1020508036,,,
27.5937500000,3,0.2780762017,,,
27.6093750000,3,0.4431152046,,,
27.6250000000,3,0.4595946968,,,
27.6406250000,3,0.2899169922,,,
27.6562500000,3,-0.0068359380,,,
27.6718750000,3,-0.3157958984,,,
27.6875000000,3,-0.5622559190,,,
27.7031250000,3,-0.7275391221,,,
27.7187500000,3,-0.8684082031,,,
27.7343750000,3,-1.0339360237,,,
27.7500000000,3,-1.2364499569,,,
27.7656250000,3,-1.4345699549,,,
27.7812500000,3,-1.5448000431,,,
27.7968750000,3,-1.5167239904,,,
27.8125000000,3,-1.3481450081,,,
27.8281250000,3,-1.1099849939,,,
27.8437500000,3,-0.8789063096,,,
27.8593750000,3,-0.7164307237,,,
27.8750000000,3,-0.6040039063,,,
27.8906250000,3,-0.4829101861,,,
27.9062500000,3,-0.2978515923,,,
27.9218750000,3,-0.0415039100,,,
27.9375000000,3,0.2481689006,,,
27.9531250000,3,0.5040283203,,,
27.9687500000,3,0.6644287109,,,
27.9843750000,3,0.7490233779,,,
28.0000000000,3,0.8048095703,,,
28.0156250000,3,0.9168701172,,,
28.0312500000,3,1.1330569983,,,
28.0468750000,3,1.4400629997,,,
28.0625000000,3,1.7524410486,,,
28.0781250000,3,1.9597170353,,,
28.0937500000,3,1.9742430449,,,
28.1093750000,3,1.7824709415,,,
28.1250000000,3,1.4365229607,,,
28.1406250000,3,1.0130620003,,,
28.1562500000,3,0.5721436143,,,
28.1718750000,3,0.1275635064,,,
28.1875000000,3,-0.3378905952,,,
28.2031250000,3,-0.8297119141,,,
28.2187500000,3,-1.3209229708,,,
28.2343750000,3,-1.7447509766,,,
28.2500000000,3,-2.0328369141,,,
28.2656250000,3,-2.1445310116,,,
28.2812500000,3,-2.0574951172,,,
28.2968750000,3,-1.7871090174,,,
28.3125000000,3,-1.3487550020,,,
28.3281250000,3,-0.7790526748,,,
28.3437500000,3,-0.1451416016,,,
28.3593750000,3,0.4370116889,,,
28.3750000000,3,0.8408203125,,,
28.3906250000,3,0.9620360732,,,
28.4062500000,3,0.7949218750,,,
28.4218750000,3,0.4215087891,,,
28.4375000000,3,0.0014648440,,,
28.4531250000,3,-0.3343505859,,,
28.4687500000,3,-0.5270996094,,,
28.4843750000,3,-0.6098632813,,,
28.5000000000,3,-0.6547852159,,,
28.5156250000,3,-0.7117919922,,,
28.5312500000,3,-0.7852783203,,,
28.5468750000,3,-0.8468018174,,,
28.5625000000,3,-0.8658447266,,,
28.5781250000,3,-0.8366699219,,,
28.5937500000,3,-0.7788085938,,,
28.6093750000,3,-0.6977539063,,,
28.6250000000,3,-0.5795897841,,,
28.6406250000,3,-0.4007568061,,,
28.6562500000,3,-0.1479492038,,,
28.6718750000,3,0.1558838040,,,
28.6875000000,3,0.4514159858,,,
28.7031250000,3,0.6967772841,,,
28.7187500000,3,0.8913574219,,,
28.7343750000,3,1.0975339413,,,
28.7500000000,3,1.3955080509,,,
28.7656250000,3,1.8154300451,,,
28.7812500000,3,2.3046879768,,,
28.7968750000,3,2.7287600040,,,
28.8125000000,3,2.9348139763,,,
28.8281250000,3,2.8293459415,,,
28.8437500000,3,2.4103999138,,,
28.8593750000,3,1.7753909826,,,
28.8750000000,3,1.0734859705,,,
28.8906250000,3,0.4549561143,,,
28.9062500000,3,0.0159912091,,,
28.9218750000,3,-0.2178954929,,,
28.9375000000,3,-0.2856445014,,,
28.9531250000,3,-0.2630614936,,,
28.9687500000,3,-0.2248535007,,,
28.9843750000,3,-0.2467041016,,,
29.0000000000,3,-0.3511962891,,,
29.0156250000,3,-0.5283203125,,,
29.0312500000,3,-0.7227783203,,,
29.0468750000,3,-0.8742675781,,,
29.0625000000,3,-0.9268798828,,,
29.0781250000,3,-0.8576660156,,,
29.0937500000,3,-0.6817626953,,,
29.1093750000,3,-0.4508056939,,,
29.1250000000,3,-0.2329102010,,,
29.1406250000,3,-0.0926513672,,,
29.1562500000,3,-0.0571289100,,,
29.1718750000,3,-0.0988769531,,,
29.1875000000,3,-0.1503905952,,,
29.2031250000,3,-0.1381835938,,,
29.2187500000,3,-0.0263671894,,,
29.2343750000,3,0.1485596001,,,
29.2500000000,3,0.2954101861,,,
29.2656250000,3,0.3150635064,,,
29.2812500000,3,0.1636963040,,,
29.2968750000,3,-0.1241455004,,,
29.3125000000,3,-0.4632568061,,,
29.3281250000,3,-0.7452393174,,,
29.3437500000,3,-0.9208983779,,,
29.3593750000,3,-1.0158690214,,,
29.3750000000,3,-1.1013180017,,,
29.3906250000,3,-1.2092289925,,,
29.4062500000,3,-1.3116459846,,,
29.4218750000,3,-1.3234859705,,,
29.4375000000,3,-1.1682130098,,,
29.4531250000,3,-0.8640136719,,,
29.4687500000,3,-0.5162354112,,,
29.4843750000,3,-0.3066405952,,,
29.5000000000,3,-0.3632813096,,,
29.5156250000,3,-0.6801757813,,,
29.5312500000,3,-1.0991209745,,,
29.5468750000,3,-1.3745119572,,,
29.5625000000,3,-1.3083499670,,,
29.5781250000,3,-0.8538817763,,,
29.5937500000,3,-0.1357422024,,,
29.6093750000,3,0.6145020127,,,
29.6250000000,3,1.1846920252,,,
29.6406250000,3,1.4687500000,,,
29.6562500000,3,1.4958499670,,,
29.6718750000,3,1.3795169592,,,
29.6875000000,3,1.2583010197,,,
29.7031250000,3,1.2159420252,,,
29.7187500000,3,1.2664790154,,,
29.7343750000,3,1.3576660156,,,
29.7500000000,3,1.4016109705,,,
29.7656250000,3,1.3099370003,,,
29.7812500000,3,1.0334470272,,,
29.7968750000,3,0.5924072266,,,
29.8125000000,3,0.0560302697,,,
29.8281250000,3,-0.4696044922,,,
29.8437500000,3,-0.8875731826,,,
29.8593750000,3,-1.1500240564,,,
29.8750000000,3,-1.2579350471,,,
29.8906250000,3,-1.2502440214,,,
29.9062500000,3,-1.1625980139,,,
29.9218750000,3,-1.0139160156,,,
29.9375000000,3,-0.8226317763,,,
29.9531250000,3,-0.6292725205,,,
29.9687500000,3,-0.4896239936,,,
29.9843750000,3,-0.4509277046,,,
30.0000000000,3,-0.5238037109,,,
30.0156250000,3,-0.6501464844,,,
30.0312500000,3,-0.7620850205,,,
30.0468750000,3,-0.8222656250,,,
30.0625000000,3,-0.8662108779,,,
30.0781250000,3,-0.9821776748,,,
30.0937500000,3,-1.2271729708,,,
30.1093750000,3,-1.5865479708,,,
30.1250000000,3,-1.9418950081,,,
30.1406250000,3,-2.1506350040,,,
30.1562500000,3,-2.1145019531,,,
30.1718750000,3,-1.8420410156,,,
30.1875000000,3,-1.4376219511,,,
30.2031250000,3,-1.0258790255,,,
30.2187500000,3,-0.6806641221,,,
30.2343750000,3,-0.3945313096,,,
30.2500000000,3,-0.1069336012,,,
30.2656250000,3,0.2493896037,,,
30.2812500000,3,0.6793212891,,,
30.2968750000,3,1.1289060116,,,
30.3125000000,3,1.5194089413,,,
30.3281250000,3,1.7896729708,,,
30.3437500000,3,1.9257810116,,,
30.3593750000,3,1.9482419491,,,
30.3750000000,3,1.8940429688,,,
30.3906250000,3,1.7860109806,,,
30.4062500000,3,1.6198730469,,,
30.4218750000,3,1.3619379997,,,
30.4375000000,3,0.9608154297,,,
30.4531250000,3,0.3946532905,,,
30.4687500000,3,-0.3023681939,,,
30.4843750000,3,-1.0240479708,,,
30.5000000000,3,-1.5910639763,,,
30.5156250000,3,-1.8326419592,,,
30.5312500000,3,-1.6657710075,,,
30.5468750000,3,-1.1326899529,,,
30.5625000000,3,-0.4284667969,,,
30.5781250000,3,0.1911620945,,,
30.5937500000,3,0.5120850205,,,
30.6093750000,3,0.4631347954,,,
30.6250000000,3,0.1430664063,,,
30.6406250000,3,-0.2344971001,,,
30.6562500000,3,-0.4460448921,,,
30.6718750000,3,-0.3642578125,,,
30.6875000000,3,0.0006103516,,,
30.7031250000,3,0.5166016221,,,
30.7187500000,3,1.0252690315,,,
30.7343750000,3,1.3909909725,,,
30.7500000000,3,1.5563960075,,,
30.7656250000,3,1.5446779728,,,
30.7812500000,3,1.4425050020,,,
30.7968750000,3,1.3483890295,,,
30.8125000000,3,1.3306879997,,,
30.8281250000,3,1.4101560116,,,
30.8437500000,3,1.5526119471,,,
30.8593750000,3,1.6968990564,,,
30.8750000000,3,1.7542719841,,,
30.8906250000,3,1.6597900391,,,
30.9062500000,3,1.3795169592,,,
30.9218750000,3,0.9304199219,,,
30.9375000000,3,0.3833008111,,,
30.9531250000,3,-0.1339111030,,,
30.9687500000,3,-0.4775390923,,,
30.9843750000,3,-0.5523682237,,,
31.0000000000,3,-0.3387450874,,,
31.0156250000,3,0.0676269531,,,
31.0312500000,3,0.4880371094,,,
31.0468750000,3,0.7384033203,,,
31.0625000000,3,0.7114257813,,,
31.0781250000,3,0.4171142876,,,
31.0937500000,3,-0.0324706994,,,
31.1093750000,3,-0.4931640923,,,
31.1250000000,3,-0.8526610732,,,
31.1406250000,3,-1.0633540154,,,
31.1562500000,3,-1.1286619902,,,
31.1718750000,3,-1.0583499670,,,
31.1875000000,3,-0.8721923828,,,
31.2031250000,3,-0.6088867188,,,
31.2187500000,3,-0.3461914063,,,
31.2343750000,3,-0.2030028999,,,
31.2500000000,3,-0.2880859077,,,
31.2656250000,3,-0.6479492188,,,
31.2812500000,3,-1.2153320313,,,
31.2968750000,3,-1.8310550451,,,
31.3125000000,3,-2.3032228947,,,
31.3281250000,3,-2.4877929688,,,
31.3437500000,3,-2.3439939022,,,
31.3593750000,3,-1.9340820313,,,
31.3750000000,3,-1.3879389763,,,
31.3906250000,3,-0.8477783203,,,
31.4062500000,3,-0.4241943061,,,
31.4218750000,3,-0.1661376953,,,
31.4375000000,3,-0.0780029297,,,
31.4531250000,3,-0.1081542969,,,
31.4687500000,3,-0.1882324070,,,
31.4843750000,3,-0.2480469048,,,
31.5000000000,3,-0.2337646037,,,
31.5156250000,3,-0.1134032980,,,
31.5312500000,3,0.1323242038,,,
31.5468750000,3,0.5093994141,,,
31.5625000000,3,1.0087889433,,,
31.5781250000,3,1.5902099609,,,
31.5937500000,3,2.2033689022,,,
31.6093750000,3,2.7641599178,,,
31.6250000000,3,3.1938478947,,,
31.6406250000,3,3.4384770393,,,
31.6562500000,3,3.4799799919,,,
31.6718750000,3,3.3535161018,,,
31.6875000000,3,3.0925290585,,,
31.7031250000,3,2.7185060978,,,
31.7187500000,3,2.2374269962,,,
31.7343750000,3,1.6622309685,,,
31.7500000000,3,1.0557860136,,,
31.7656250000,3,0.5080565810,,,
31.7812500000,3,0.0921630934,,,
31.7968750000,3,-0.1834716946,,,
31.8125000000,3,-0.4001465142,,,
31.8281250000,3,-0.6700438857,,,
31.8437500000,3,-1.0709229708,,,
31.8593750000,3,-1.5822750330,,,
31.8750000000,3,-2.1058349609,,,
31.8906250000,3,-2.5238039494,,,
31.9062500000,3,-2.7733149529,,,
31.9218750000,3,-2.8739008904,,,
31.9375000000,3,-2.8923339844,,,
31.9531250000,3,-2.8680419922,,,
31.9687500000,3,-2.7674560547,,,
31.9843750000,3,-2.5091550350,,,
32.0000000000,4,-2.0312500000,,,
32.0156250000,4,-1.3590090275,,,
32.0312500000,4,-0.6147460938,,,
32.0468750000,4,0.0457763709,,,
32.0625000000,4,0.5089110732,,,
32.0781250000,4,0.7397460938,,,
32.0937500000,4,0.7930908203,,,
32.1093750000,4,0.7447509766,,,
32.1250000000,4,0.6757813096,,,
32.1406250000,4,0.6386718750,,,
32.1562500000,4,0.6586914063,,,
32.1718750000,4,0.7526854873,,,
32.1875000000,4,0.9277343750,,,
32.2031250000,4,1.1739499569,,,
32.2187500000,4,1.4509279728,,,
32.2343750000,4,1.6824949980,,,
32.2500000000,4,1.7788089514,,,
32.2656250000,4,1.6496579647,,,
32.2812500000,4,1.2687989473,,,
32.2968750000,4,0.6835938096,,,
32.3125000000,4,0.0137939500,,,
32.3281250000,4,-0.5797119141,,,
32.3437500000,4,-0.9783936143,,,
32.3593750000,4,-1.1319580078,,,
32.3750000000,4,-1.1030269861,,,
32.3906250000,4,-1.0042719841,,,
32.4062500000,4,-0.9454345703,,,
32.4218750000,4,-0.9628906250,,,
32.4375000000,4,-1.0023189783,,,
32.4531250000,4,-0.9522705078,,,
32.4687500000,4,-0.7352294922,,,
32.4843750000,4,-0.3624267876,,,
32.5000000000,4,0.0405273400,,,
32.5156250000,4,0.3017578125,,,
32.5312500000,4,0.2852782905,,,
32.5468750000,4,-0.0174560491,,,
32.5625000000,4,-0.4980469048,,,
32.5781250000,4,-0.9841309190,,,
32.5937500000,4,-1.3128659725,,,
32.6093750000,4,-1.4211430550,,,
32.6250000000,4,-1.3463129997,,,
32.6406250000,4,-1.1696779728,,,
32.6562500000,4,-0.9589843750,,,
32.6718750000,4,-0.7287598252,,,
32.6875000000,4,-0.4600830078,,,
32.7031250000,4,-0.1546631008,,,
32.7187500000,4,0.1427001953,,,
32.7343750000,4,0.3673096001,,,
32.7500000000,4,0.4758301079,,,
32.7656250000,4,0.4964599907,,,
32.7812500000,4,0.5294188857,,,
32.7968750000,4,0.6695557237,,,
32.8125000000,4,0.9619141221,,,
32.8281250000,4,1.3668210506,,,
32.8437500000,4,1.7856450081,,,
32.8593750000,4,2.1356201172,,,
32.8750000000,4,2.3492429256,,,
32.8906250000,4,2.3947749138,,,
32.9062500000,4,2.2606201172,,,
32.9218750000,4,1.9296879768,,,
32.9375000000,4,1.4241939783,,,
32.9531250000,4,0.8135985732,,,
32.9687500000,4,0.2174071968,,,
32.9843750000,4,-0.2352295071,,,
33.0000000000,4,-0.4630126953,,,
33.0156250000,4,-0.4716796875,,,
33.0312500000,4,-0.3475342095,,,
33.0468750000,4,-0.1745605022,,,
33.0625000000,4,-0.0117187500,,,
33.0781250000,4,0.1219481975,,,
33.0937500000,4,0.2320556939,,,
33.1093750000,4,0.3133544922,,,
33.1250000000,4,0.3333739936,,,
33.1406250000,4,0.2625732124,,,
33.1562500000,4,0.0876464769,,,
33.1718750000,4,-0.1748047024,,,
33.1875000000,4,-0.4924316108,,,
33.2031250000,4,-0.8411865234,,,
33.2187500000,4,-1.1961669922,,,
33.2343750000,4,-1.5231930017,,,
33.2500000000,4,-1.7899169922,,,
33.2656250000,4,-1.9620360136,,,
33.2812500000,4,-2.0228269100,,,
33.2968750000,4,-2.0079350471,,,
33.3125000000,4,-1.9536130428,,,
33.3281250000,4,-1.8791500330,,,
33.3437500000,4,-1.7689210176,,,
33.3593750000,4,-1.5638430119,,,
33.3750000000,4,-1.2178959846,,,
33.3906250000,4,-0.7303466797,,,
33.4062500000,4,-0.1762695014,,,
33.4218750000,4,0.3280028999,,,
33.4375000000,4,0.6994628906,,,
33.4531250000,4,0.9038085938,,,
33.4687500000,4,0.9812011719,,,
33.4843750000,4,0.9753417969,,,
33.5000000000,4,0.8990479112,,,
33.5156250000,4,0.7005615234,,,
33.5312500000,4,0.3061523139,,,
33.5468750000,4,-0.3123778999,,,
33.5625000000,4,-1.0712889433,,,
33.5781250000,4,-1.7849119902,,,
33.5937500000,4,-2.2482910156,,,
33.6093750000,4,-2.3292241096,,,
33.6250000000,4,-2.0306398869,,,
33.6406250000,4,-1.4890140295,,,
33.6562500000,4,-0.9134520888,,,
33.6718750000,4,-0.4599609077,,,
33.6875000000,4,-0.1871338040,,,
33.7031250000,4,-0.0310058594,,,
33.7187500000,4,0.1386719048,,,
33.7343750000,4,0.4072265923,,,
33.7500000000,4,0.7698975205,,,
33.7656250000,4,1.1246340275,,,
33.7812500000,4,1.3437500000,,,
33.7968750000,4,1.3586430550,,,
33.8125000000,4,1.2082519531,,,
33.8281250000,4,1.0172120333,,,
33.8437500000,4,0.9367675781,,,
33.8593750000,4,1.0429689884,,,
33.8750000000,4,1.2955319881,,,
33.8906250000,4,1.5772709846,,,
33.9062500000,4,1.7456049919,,,
33.9218750000,4,1.7102049589,,,
33.9375000000,4,1.4614260197,,,
33.9531250000,4,1.0584720373,,,
33.9687500000,4,0.5589600205,,,
33.9843750000,4,-0.0057373052,,,
34.0000000000,4,-0.6082764268,,,
34.0156250000,4,-1.2086180449,,,
34.0312500000,4,-1.6759029627,,,
34.0468750000,4,-1.8590090275,,,
34.0625000000,4,-1.6446529627,,,
34.0781250000,4,-1.0406490564,,,
34.0937500000,4,-0.2119141072,,,
34.1093750000,4,0.5781250000,,,
34.1250000000,4,1.0964360237,,,
34.1406250000,4,1.2397459745,,,
34.1562500000,4,1.0603029728,,,
34.1718750000,4,0.7137451172,,,
34.1875000000,4,0.3387450874,,,
34.2031250000,4,-0.0175781306,,,
34.2187500000,4,-0.3704833984,,,
34.2343750000,4,-0.7526854873,,,
34.2500000000,4,-1.1181639433,,,
34.2656250000,4,-1.3381350040,,,
34.2812500000,4,-1.2742919922,,,
34.2968750000,4,-0.8660889268,,,
34.3125000000,4,-0.1986083984,,,
34.3281250000,4,0.5336914063,,,
34.3437500000,4,1.1237790585,,,
34.3593750000,4,1.4512939453,,,
34.3750000000,4,1.4974370003,,,
34.3906250000,4,1.3509520292,,,
34.4062500000,4,1.1369630098,,,
34.4218750000,4,0.9721680284,,,
34.4375000000,4,0.9154052734,,,
34.4531250000,4,0.9605712891,,,
34.4687500000,4,1.0324709415,,,
34.4843750000,4,1.0242919922,,,
34.5000000000,4,0.8499755859,,,
34.5156250000,4,0.4844971001,,,
34.5312500000,4,0.0057373052,,,
34.5468750000,4,-0.4438476861,,,
34.5625000000,4,-0.7307128906,,,
34.5781250000,4,-0.7951660156,,,
34.5937500000,4,-0.6949462891,,,
34.6093750000,4,-0.5631104112,,,
34.6250000000,4,-0.5245360732,,,
34.6406250000,4,-0.6218261719,,,
34.6562500000,4,-0.8073729873,,,
34.6718750000,4,-0.9733886719,,,
34.6875000000,4,-1.0395510197,,,
34.7031250000,4,-0.9808350205,,,
34.7187500000,4,-0.8138427734,,,
34.7343750000,4,-0.5626220703,,,
34.7500000000,4,-0.2286376953,,,
34.7656250000,4,0.1828612983,,,
34.7812500000,4,0.6479492188,,,
34.7968750000,4,1.0689699650,,,
34.8125000000,4,1.3231199980,,,
34.8281250000,4,1.3104250431,,,
34.8437500000,4,1.0146479607,,,
34.8593750000,4,0.5266113281,,,
34.8750000000,4,0.0045166020,,,
34.8906250000,4,-0.3911133111,,,
34.9062500000,4,-0.5778809190,,,
34.9218750000,4,-0.5644531250,,,
34.9375000000,4,-0.4353027046,,,
34.9531250000,4,-0.2695313096,,,
34.9687500000,4,-0.1234131008,,,
34.9843750000,4,0.0056152339,,,
35.0000000000,4,0.1424560994,,,
35.0156250000,4,0.2968750000,,,
35.0312500000,4,0.4373778999,,,
35.0468750000,4,0.5042725205,,,
35.0625000000,4,0.4473876953,,,
35.0781250000,4,0.2615967095,,,
35.0937500000,4,0.0087890634,,,
35.1093750000,4,-0.2137451023,,,
35.1250000000,4,-0.3212890923,,,
35.1406250000,4,-0.2861328125,,,
35.1562500000,4,-0.1733397990,,,
35.1718750000,4,-0.0816650391,,,
35.1875000000,4,-0.0878906325,,,
35.2031250000,4,-0.1950684041,,,
35.2187500000,4,-0.3281250000,,,
35.2343750000,4,-0.3792724907,,,
35.2500000000,4,-0.2778320014,,,
35.2656250000,4,-0.0408935510,,,
35.2812500000,4,0.2486571968,,,
35.2968750000,4,0.4572753906,,,
35.3125000000,4,0.4918212891,,,
35.3281250000,4,0.3145751953,,,
35.3437500000,4,-0.0318603516,,,
35.3593750000,4,-0.4582520127,,,
35.3750000000,4,-0.8591309190,,,
35.3906250000,4,-1.1479489803,,,
35.4062500000,4,-1.2895510197,,,
35.4218750000,4,-1.2862550020,,,
35.4375000000,4,-1.1823730469,,,
35.4531250000,4,-1.0330810547,,,
35.4687500000,4,-0.8708496094,,,
35.4843750000,4,-0.6925048828,,,
35.5000000000,4,-0.4738770127,,,
35.5156250000,4,-0.1705321968,,,
35.5312500000,4,0.2264403999,,,
35.5468750000,4,0.6781005859,,,
35.5625000000,4,1.1214599609,,,
35.5781250000,4,1.4741209745,,,
35.5937500000,4,1.6824949980,,,
35.6093750000,4,1.7294919491,,,
35.6250000000,4,1.6290279627,,,
35.6406250000,4,1.4364010096,,,
35.6562500000,4,1.2030030489,,,
35.6718750000,4,0.9700927734,,,
35.6875000000,4,0.7791748047,,,
35.7031250000,4,0.6368408203,,,
35.7187500000,4,0.5131835938,,,
35.7343750000,4,0.3641357124,,,
35.7500000000,4,0.1549071968,,,
35.7656250000,4,-0.1191406026,,,
35.7812500000,4,-0.4064941108,,,
35.7968750000,4,-0.6291503906,,,
35.8125000000,4,-0.7122802734,,,
35.8281250000,4,-0.6491699219,,,
35.8437500000,4,-0.4932861030,,,
35.8593750000,4,-0.3366698921,,,
35.8750000000,4,-0.2625732124,,,
35.8906250000,4,-0.2752686143,,,
35.9062500000,4,-0.3375244141,,,
35.9218750000,4,-0.3846436143,,,
35.9375000000,4,-0.3831787109,,,
35.9531250000,4,-0.3864746094,,,
35.9687500000,4,-0.4821777046,,,
35.9843750000,4,-0.7393798828,,,
36.0000000000,4,-1.1495360136,,,
36.0156250000,4,-1.6062010527,,,
36.0312500000,4,-1.9547120333,,,
36.0468750000,4,-2.0861821175,,,
36.0625000000,4,-1.9749759436,,,
36.0781250000,4,-1.7189940214,,,
36.0937500000,4,-1.4508060217,,,
36.1093750000,4,-1.2698969841,,,
36.1250000000,4,-1.1756589413,,,
36.1406250000,4,-1.0468750000,,,
36.1562500000,4,-0.7209473252,,,
36.1718750000,4,-0.1097412035,,,
36.1875000000,4,0.7382813096,,,
36.2031250000,4,1.6418459415,,,
36.2187500000,4,2.3530271053,,,
36.2343750000,4,2.6933588982,,,
36.2500000000,4,2.6186521053,,,
36.2656250000,4,2.2393798828,,,
36.2812500000,4,1.7274169922,,,
36.2968750000,4,1.2287600040,,,
36.3125000000,4,0.8046875000,,,
36.3281250000,4,0.4403075874,,,
36.3437500000,4,0.0971679688,,,
36.3593750000,4,-0.2437743992,,,
36.3750000000,4,-0.5485839844,,,
36.3906250000,4,-0.7470703125,,,
36.4062500000,4,-0.7995604873,,,
36.4218750000,4,-0.7182617188,,,
36.4375000000,4,-0.5710449219,,,
36.4531250000,4,-0.4572753906,,,
36.4687500000,4,-0.4394530952,,,
36.4843750000,4,-0.5195313096,,,
36.5000000000,4,-0.6284180284,,,
36.5156250000,4,-0.6533203125,,,
36.5312500000,4,-0.5152587891,,,
36.5468750000,4,-0.2077637017,,,
36.5625000000,4,0.1929931939,,,
36.5781250000,4,0.5468750000,,,
36.5937500000,4,0.7397460938,,,
36.6093750000,4,0.7285156250,,,
36.6250000000,4,0.5560302734,,,
36.6406250000,4,0.3007813096,,,
36.6562500000,4,0.0275878906,,,
36.6718750000,4,-0.2539063096,,,
36.6875000000,4,-0.5771483779,,,
36.7031250000,4,-0.9639893174,,,
36.7187500000,4,-1.3985600471,,,
36.7343750000,4,-1.8065190315,,,
36.7500000000,4,-2.1016850471,,,
36.7656250000,4,-2.2282710075,,,
36.7812500000,4,-2.1654050350,,,
36.7968750000,4,-1.9323730469,,,
36.8125000000,4,-1.5670169592,,,
36.8281250000,4,-1.1020510197,,,
36.8437500000,4,-0.5821533203,,,
36.8593750000,4,-0.0599365197,,,
36.8750000000,4,0.4031982124,,,
36.8906250000,4,0.7642822266,,,
36.9062500000,4,1.0021970272,,,
36.9218750000,4,1.1381839514,,,
36.9375000000,4,1.1918950081,,,
36.9531250000,4,1.1695560217,,,
36.9687500000,4,1.0662839413,,,
36.9843750000,4,0.8583983779,,,
37.0000000000,4,0.5412598252,,,
37.0156250000,4,0.1448975056,,,
37.0312500000,4,-0.2657471001,,,
37.0468750000,4,-0.6175537109,,,
37.0625000000,4,-0.8395996094,,,
37.0781250000,4,-0.8933104873,,,
37.0937500000,4,-0.7624511719,,,
37.1093750000,4,-0.4620361030,,,
37.1250000000,4,-0.0592041016,,,
37.1406250000,4,0.3463135064,,,
37.1562500000,4,0.6329345703,,,
37.1718750000,4,0.7155761719,,,
37.1875000000,4,0.5969238281,,,
37.2031250000,4,0.3797607124,,,
37.2187500000,4,0.2115478963,,,
37.2343750000,4,0.2036132962,,,
37.2500000000,4,0.3846436143,,,
37.2656250000,4,0.6774901748,,,
37.2812500000,4,0.9547119141,,,
37.2968750000,4,1.1202390194,,,
37.3125000000,4,1.1582030058,,,
37.3281250000,4,1.1379389763,,,
37.3437500000,4,1.1513669491,,,
37.3593750000,4,1.2415770292,,,
37.3750000000,4,1.3802490234,,,
37.3906250000,4,1.4769289494,,,
37.4062500000,4,1.4388430119,,,
37.4218750000,4,1.2380369902,,,
37.4375000000,4,0.9045410156,,,
37.4531250000,4,0.5102539063,,,
37.4687500000,4,0.1264647990,,,
37.4843750000,4,-0.2055664063,,,
37.5000000000,4,-0.4644775093,,,
37.5156250000,4,-0.6386718750,,,
37.5312500000,4,-0.7034912109,,,
37.5468750000,4,-0.6326904297,,,
37.5625000000,4,-0.4195556939,,,
37.5781250000,4,-0.1131592020,,,
37.5937500000,4,0.2015381008,,,
37.6093750000,4,0.4189453125,,,
37.6250000000,4,0.4549561143,,,
37.6406250000,4,0.2952880859,,,
37.6562500000,4,-0.0046386719,,,
37.6718750000,4,-0.3576659858,,,
37.6875000000,4,-0.6699218750,,,
37.7031250000,4,-0.8750000000,,,
37.7187500000,4,-0.9569091797,,,
37.7343750000,4,-0.9505615234,,,
37.7500000000,4,-0.9077147841,,,
37.7656250000,4,-0.8688964844,,,
37.7812500000,4,-0.8520507813,,,
37.7968750000,4,-0.8403319716,,,
37.8125000000,4,-0.8050537109,,,
37.8281250000,4,-0.7298583984,,,
37.8437500000,4,-0.6215819716,,,
37.8593750000,4,-0.5278319716,,,
37.8750000000,4,-0.4918212891,,,
37.8906250000,4,-0.5244141221,,,
37.9062500000,4,-0.5899658203,,,
37.9218750000,4,-0.6152343750,,,
37.9375000000,4,-0.5316162109,,,
37.9531250000,4,-0.3149414063,,,
37.9687500000,4,-0.0064697270,,,
37.9843750000,4,0.3107909858,,,
38.0000000000,4,0.5429688096,,,
38.0156250000,4,0.6403809190,,,
38.0312500000,4,0.6043701172,,,
38.0468750000,4,0.4958496094,,,
38.0625000000,4,0.3597412109,,,
38.0781250000,4,0.2022704929,,,
38.0937500000,4,-0.0093994141,,,
38.1093750000,4,-0.3148193061,,,
38.1250000000,4,-0.7043457031,,,
38.1406250000,4,-1.1120610237,,,
38.1562500000,4,-1.4019780159,,,
38.1718750000,4,-1.4644780159,,,
38.1875000000,4,-1.2559809685,,,
38.2031250000,4,-0.8378906250,,,
38.2187500000,4,-0.3356933892,,,
38.2343750000,4,0.1162109002,,,
38.2500000000,4,0.4346924126,,,
38.2656250000,4,0.6164550781,,,
38.2812500000,4,0.7199707031,,,
38.2968750000,4,0.8078613281,,,
38.3125000000,4,0.9105225205,,,
38.3281250000,4,1.0137939453,,,
38.3437500000,4,1.0728759766,,,
38.3593750000,4,1.0278320313,,,
38.3750000000,4,0.8620604873,,,
38.3906250000,4,0.5910645127,,,
38.4062500000,4,0.2822265923,,,
38.4218750000,4,0.0432128906,,,
38.4375000000,4,-0.0109863300,,,
38.4531250000,4,0.1840820014,,,
38.4687500000,4,0.6065673828,,,
38.4843750000,4,1.1572270393,,,
38.5000000000,4,1.6685789824,,,
38.5156250000,4,2.0098879337,,,
38.5312500000,4,2.1120610237,,,
38.5468750000,4,2.0081789494,,,
38.5625000000,4,1.7717289925,,,
38.5781250000,4,1.4542239904,,,
38.5937500000,4,1.0565190315,,,
38.6093750000,4,0.5462645888,,,
38.6250000000,4,-0.0811767578,,,
38.6406250000,4,-0.7729492188,,,
38.6562500000,4,-1.4041750431,,,
38.6718750000,4,-1.8483890295,,,
38.6875000000,4,-2.0327150822,,,
38.7031250000,4,-1.9813230038,,,
38.7187500000,4,-1.8205569983,,,
38.7343750000,4,-1.7081300020,,,
38.7500000000,4,-1.7622070313,,,
38.7656250000,4,-2.0037839413,,,
38.7812500000,4,-2.3369140625,,,
38.7968750000,4,-2.5881350040,,,
38.8125000000,4,-2.5915529728,,,
38.8281250000,4,-2.2373049259,,,
38.8437500000,4,-1.5330810547,,,
38.8593750000,4,-0.6187744141,,,
38.8750000000,4,0.3244628906,,,
38.8906250000,4,1.0982669592,,,
38.9062500000,4,1.5906980038,,,
38.9218750000,4,1.7746579647,,,
38.9375000000,4,1.7189940214,,,
38.9531250000,4,1.5190429688,,,
38.9687500000,4,1.2657469511,,,
38.9843750000,4,1.0332030058,,,
39.0000000000,4,0.8641356826,,,
39.0156250000,4,0.7844238281,,,
39.0312500000,4,0.7813720703,,,
39.0468750000,4,0.8190917969,,,
39.0625000000,4,0.8458251953,,,
39.0781250000,4,0.8151854873,,,
39.0937500000,4,0.7274169922,,,
39.1093750000,4,0.6273192763,,,
39.1250000000,4,0.5654296875,,,
39.1406250000,4,0.5618895888,,,
39.1562500000,4,0.5904541016,,,
39.1718750000,4,0.5742188096,,,
39.1875000000,4,0.4370116889,,,
39.2031250000,4,0.1636963040,,,
39.2187500000,4,-0.1896972954,,,
39.2343750000,4,-0.5021973252,,,
39.2500000000,4,-0.6657714844,,,
39.2656250000,4,-0.6292725205,,,
39.2812500000,4,-0.4591063857,,,
39.2968750000,4,-0.2875976861,,,
39.3125000000,4,-0.2697753906,,,
39.3281250000,4,-0.4802246094,,,
39.3437500000,4,-0.8679199219,,,
39.3593750000,4,-1.2912600040,,,
39.3750000000,4,-1.5847170353,,,
39.3906250000,4,-1.6651610136,,,
39.4062500000,4,-1.5742189884,,,
39.4218750000,4,-1.4461669922,,,
39.4375000000,4,-1.3983149529,,,
39.4531250000,4,-1.4389649630,,,
39.4687500000,4,-1.4550780058,,,
39.4843750000,4,-1.2849119902,,,
39.5000000000,4,-0.8310546875,,,
39.5156250000,4,-0.1435547024,,,
39.5312500000,4,0.6011962891,,,
39.5468750000,4,1.1972659826,,,
39.5625000000,4,1.5252690315,,,
39.5781250000,4,1.5979000330,,,
39.5937500000,4,1.5201419592,,,
39.6093750000,4,1.4033199549,,,
39.6250000000,4,1.2955319881,,,
39.6406250000,4,1.1530760527,,,
39.6562500000,4,0.9121093750,,,
39.6718750000,4,0.5454102159,,,
39.6875000000,4,0.1072997972,,,
39.7031250000,4,-0.2689208984,,,
39.7187500000,4,-0.4581299126,,,
39.7343750000,4,-0.3864746094,,,
39.7500000000,4,-0.0955810472,,,
39.7656250000,4,0.2949219048,,,
39.7812500000,4,0.6159667969,,,
39.7968750000,4,0.7320557237,,,
39.8125000000,4,0.5964354873,,,
39.8281250000,4,0.2531737983,,,
39.8437500000,4,-0.1561278999,,,
39.8593750000,4,-0.4758301079,,,
39.8750000000,4,-0.5966796875,,,
39.8906250000,4,-0.4881592095,,,
39.9062500000,4,-0.2221679986,,,
39.9218750000,4,0.0660400391,,,
39.9375000000,4,0.2246094048,,,
39.9531250000,4,0.1610106975,,,
39.9687500000,4,-0.1274414063,,,
39.9843750000,4,-0.5473632813,,,
40.0000000000,5,-0.9672852159,,,
40.0156250000,5,-1.2429200411,,,
40.0312500000,5,-1.3009029627,,,
40.0468750000,5,-1.1297609806,,,
40.0625000000,5,-0.7949218750,,,
40.0781250000,5,-0.3837890923,,,
40.0937500000,5,0.0037841799,,,
40.1093750000,5,0.2745361030,,,
40.1250000000,5,0.3695068061,,,
40.1406250000,5,0.2745361030,,,
40.1562500000,5,0.0520019494,,,
40.1718750000,5,-0.1905518025,,,
40.1875000000,5,-0.3258056939,,,
40.2031250000,5,-0.2691650093,,,
40.2187500000,5,-0.0009765625,,,
40.2343750000,5,0.4085693061,,,
40.2500000000,5,0.8509520888,,,
40.2656250000,5,1.2264399529,,,
40.2812500000,5,1.4787600040,,,
40.2968750000,5,1.6145019531,,,
40.3125000000,5,1.6446529627,,,
40.3281250000,5,1.5678709745,,,
40.3437500000,5,1.3525389433,,,
40.3593750000,5,0.9710692763,,,
40.3750000000,5,0.4337157905,,,
40.3906250000,5,-0.1828612983,,,
40.4062500000,5,-0.7554932237,,,
40.4218750000,5,-1.1584470272,,,
40.4375000000,5,-1.3022459745,,,
40.4531250000,5,-1.1833499670,,,
40.4687500000,5,-0.8781738281,,,
40.4843750000,5,-0.4996337891,,,
40.5000000000,5,-0.1569824070,,,
40.5156250000,5,0.0930175781,,,
40.5312500000,5,0.2376708984,,,
40.5468750000,5,0.3079833984,,,
40.5625000000,5,0.3101806939,,,
40.5781250000,5,0.2355957031,,,
40.5937500000,5,0.0686035231,,,
40.6093750000,5,-0.1756591946,,,
40.6250000000,5,-0.4370116889,,,
40.6406250000,5,-0.6214600205,,,
40.6562500000,5,-0.6577147841,,,
40.6718750000,5,-0.5283203125,,,
40.6875000000,5,-0.2780762017,,,
40.7031250000,5,-0.0075683589,,,
40.7187500000,5,0.2004394978,,,
40.7343750000,5,0.2830811143,,,
40.7500000000,5,0.2257079929,,,
40.7656250000,5,0.0412597694,,,
40.7812500000,5,-0.2396239936,,,
40.7968750000,5,-0.5461425781,,,
40.8125000000,5,-0.7747802734,,,
40.8281250000,5,-0.7891845703,,,
40.8437500000,5,-0.4892578125,,,
40.8593750000,5,0.1212157980,,,
40.8750000000,5,0.9140625000,,,
40.8906250000,5,1.6657710075,,,
40.9062500000,5,2.1546630859,,,
40.9218750000,5,2.2570800781,,,
40.9375000000,5,2.0034179688,,,
40.9531250000,5,1.5495610237,,,
40.9687500000,5,1.0708010197,,,
40.9843750000,5,0.6683350205,,,
41.0000000000,5,0.3594971001,,,
41.0156250000,5,0.1102294996,,,
41.0312500000,5,-0.1119384989,,,
41.0468750000,5,-0.2639159858,,,
41.0625000000,5,-0.2828369141,,,
41.0781250000,5,-0.1370850056,,,
41.0937500000,5,0.1252440959,,,
41.1093750000,5,0.3875732124,,,
41.1250000000,5,0.5405272841,,,
41.1406250000,5,0.5543212891,,,
41.1562500000,5,0.4737549126,,,
41.1718750000,5,0.3864746094,,,
41.1875000000,5,0.3543700874,,,
41.2031250000,5,0.3610840142,,,
41.2187500000,5,0.3406982124,,,
41.2343750000,5,0.2220458984,,,
41.2500000000,5,-0.0181884803,,,
41.2656250000,5,-0.3474121094,,,
41.2812500000,5,-0.7148438096,,,
41.2968750000,5,-1.0817869902,,,
41.3125000000,5,-1.4136960506,,,
41.3281250000,5,-1.6652829647,,,
41.3437500000,5,-1.7753909826,,,
41.3593750000,5,-1.6856689453,,,
41.3750000000,5,-1.4169919491,,,
41.3906250000,5,-1.0728759766,,,
41.4062500000,5,-0.8056641221,,,
41.4218750000,5,-0.7249755859,,,
41.4375000000,5,-0.8372802734,,,
41.4531250000,5,-1.0383299589,,,
41.4687500000,5,-1.1781009436,,,
41.4843750000,5,-1.1729739904,,,
41.5000000000,5,-1.0249019861,,,
41.5156250000,5,-0.7966309190,,,
41.5312500000,5,-0.5563964844,,,
41.5468750000,5,-0.3322753906,,,
41.5625000000,5,-0.1031493992,,,
41.5781250000,5,0.1259766072,,,
41.5937500000,5,0.3085938096,,,
41.6093750000,5,0.3607178032,,,
41.6250000000,5,0.2319335938,,,
41.6406250000,5,-0.0340576209,,,
41.6562500000,5,-0.3125000000,,,
41.6718750000,5,-0.4541015923,,,
41.6875000000,5,-0.3897705078,,,
41.7031250000,5,-0.1501464993,,,
41.7187500000,5,0.1625977010,,,
41.7343750000,5,0.4626465142,,,
41.7500000000,5,0.7279052734,,,
41.7656250000,5,0.9901123047,,,
41.7812500000,5,1.2766109705,,,
41.7968750000,5,1.5341800451,,,
41.8125000000,5,1.6520999670,,,
41.8281250000,5,1.5063480139,,,
41.8437500000,5,1.0546879768,,,
41.8593750000,5,0.3906250000,,,
41.8750000000,5,-0.2972412109,,,
41.8906250000,5,-0.8062744141,,,
41.9062500000,5,-1.0240479708,,,
41.9218750000,5,-0.9525145888,,,
41.9375000000,5,-0.6961669922,,,
41.9531250000,5,-0.3887938857,,,
41.9687500000,5,-0.1302489936,,,
41.9843750000,5,0.0338134803,,,
42.0000000000,5,0.0797119066,,,
42.0156250000,5,0.0050048828,,,
42.0312500000,5,-0.1866454929,,,
42.0468750000,5,-0.4852294922,,,
42.0625000000,5,-0.8166503906,,,
42.0781250000,5,-1.0942380428,,,
42.0937500000,5,-1.2171629667,,,
42.1093750000,5,-1.1281739473,,,
42.1250000000,5,-0.8292235732,,,
42.1406250000,5,-0.4005126953,,,
42.1562500000,5,0.0444335900,,,
42.1718750000,5,0.3945313096,,,
42.1875000000,5,0.5716552734,,,
42.2031250000,5,0.5756835938,,,
42.2187500000,5,0.4530028999,,,
42.2343750000,5,0.2897948921,,,
42.2500000000,5,0.1605225056,,,
42.2656250000,5,0.1115723029,,,
42.2812500000,5,0.1308594048,,,
42.2968750000,5,0.1763916016,,,
42.3125000000,5,0.1909179986,,,
42.3281250000,5,0.1336670071,,,
42.3437500000,5,0.0050048828,,,
42.3593750000,5,-0.1663818061,,,
42.3750000000,5,-0.3338623047,,,
42.3906250000,5,-0.4547119141,,,
42.4062500000,5,-0.5048828125,,,
42.4218750000,5,-0.4859619141,,,
42.4375000000,5,-0.4177246094,,,
42.4531250000,5,-0.3048096001,,,
42.4687500000,5,-0.1568603963,,,
42.4843750000,5,0.0369873010,,,
42.5000000000,5,0.2545166016,,,
42.5156250000,5,0.4733887017,,,
42.5312500000,5,0.6385498047,,,
42.5468750000,5,0.7033690810,,,
42.5625000000,5,0.6588134766,,,
42.5781250000,5,0.5296630859,,,
42.5937500000,5,0.3719482124,,,
42.6093750000,5,0.2437743992,,,
42.6250000000,5,0.1918945014,,,
42.6406250000,5,0.2092285007,,,
42.6562500000,5,0.2648926079,,,
42.6718750000,5,0.3128662109,,,
42.6875000000,5,0.3114013970,,,
42.7031250000,5,0.2246094048,,,
42.7187500000,5,0.0375976600,,,
42.7343750000,5,-0.2548828125,,,
42.7500000000,5,-0.6374511719,,,
42.7656250000,5,-1.0506589413,,,
42.7812500000,5,-1.4224849939,,,
42.7968750000,5,-1.6491700411,,,
42.8125000000,5,-1.6728520393,,,
42.8281250000,5,-1.4820560217,,,
42.8437500000,5,-1.1218260527,,,
42.8593750000,5,-0.6582031250,,,
42.8750000000,5,-0.1669922024,,,
42.8906250000,5,0.3004150093,,,
42.9062500000,5,0.7159423828,,,
42.9218750000,5,1.0548100471,,,
42.9375000000,5,1.2868649960,,,
42.9531250000,5,1.3868410587,,,
42.9687500000,5,1.3587650061,,,
42.9843750000,5,1.2504880428,,,
43.0000000000,5,1.1356199980,,,
43.0156250000,5,1.0898439884,,,
43.0312500000,5,1.1364749670,,,
43.0468750000,5,1.2368160486,,,
43.0625000000,5,1.3029789925,,,
43.0781250000,5,1.2630620003,,,
43.0937500000,5,1.0961910486,,,
43.1093750000,5,0.8524169922,,,
43.1250000000,5,0.6225585938,,,
43.1406250000,5,0.4895020127,,,
43.1562500000,5,0.4779053032,,,
43.1718750000,5,0.5529785156,,,
43.1875000000,5,0.6470947266,,,
43.2031250000,5,0.6822509766,,,
43.2187500000,5,0.6330565810,,,
43.2343750000,5,0.5043944716,,,
43.2500000000,5,0.3326416016,,,
43.2656250000,5,0.1503905952,,,
43.2812500000,5,-0.0360107385,,,
43.2968750000,5,-0.2358397990,,,
43.3125000000,5,-0.4775390923,,,
43.3281250000,5,-0.7801514268,,,
43.3437500000,5,-1.1324460506,,,
43.3593750000,5,-1.4854739904,,,
43.3750000000,5,-1.7790529728,,,
43.3906250000,5,-1.9753420353,,,
43.4062500000,5,-2.0698239803,,,
43.4218750000,5,-2.1119379997,,,
43.4375000000,5,-2.1489260197,,,
43.4531250000,5,-2.2051999569,,,
43.4687500000,5,-2.2298579216,,,
43.4843750000,5,-2.1346440315,,,
43.5000000000,5,-1.8408199549,,,
43.5156250000,5,-1.3195799589,,,
43.5312500000,5,-0.6185302734,,,
43.5468750000,5,0.1674804986,,,
43.5625000000,5,0.9207764268,,,
43.5781250000,5,1.5523680449,,,
43.5937500000,5,1.9978029728,,,
43.6093750000,5,2.2167971134,,,
43.6250000000,5,2.1763920784,,,
43.6406250000,5,1.8800050020,,,
43.6562500000,5,1.3631589413,,,
43.6718750000,5,0.7172852159,,,
43.6875000000,5,0.0676269531,,,
43.7031250000,5,-0.4638671875,,,
43.7187500000,5,-0.8006591797,,,
43.7343750000,5,-0.9155272841,,,
43.7500000000,5,-0.8056641221,,,
43.7656250000,5,-0.4929198921,,,
43.7812500000,5,-0.0030517580,,,
43.7968750000,5,0.6090087891,,,
43.8125000000,5,1.2509770393,,,
43.8281250000,5,1.8082280159,,,
43.8437500000,5,2.1663820744,,,
43.8593750000,5,2.2601320744,,,
43.8750000000,5,2.1010739803,,,
43.8906250000,5,1.7529300451,,,
43.9062500000,5,1.3134770393,,,
43.9218750000,5,0.8502197266,,,
43.9375000000,5,0.3839111030,,,
43.9531250000,5,-0.1121826023,,,
43.9687500000,5,-0.6547852159,,,
43.9843750000,5,-1.2038569450,,,
44.0000000000,5,-1.6748050451,,,
44.0156250000,5,-1.9724119902,,,
44.0312500000,5,-2.0311279297,,,
44.0468750000,5,-1.8804930449,,,
44.0625000000,5,-1.6101069450,,,
44.0781250000,5,-1.3272709846,,,
44.0937500000,5,-1.0936280489,,,
44.1093750000,5,-0.8924561143,,,
44.1250000000,5,-0.6810302734,,,
44.1406250000,5,-0.4176025093,,,
44.1562500000,5,-0.1203612983,,,
44.1718750000,5,0.1535644978,,,
44.1875000000,5,0.3367919922,,,
44.2031250000,5,0.4332275093,,,
44.2187500000,5,0.5107421875,,,
44.2343750000,5,0.6467285156,,,
44.2500000000,5,0.8894042969,,,
44.2656250000,5,1.1956789494,,,
44.2812500000,5,1.4639890194,,,
44.2968750000,5,1.5772709846,,,
44.3125000000,5,1.4830319881,,,
44.3281250000,5,1.2017819881,,,
44.3437500000,5,0.8248291016,,,
44.3593750000,5,0.4586181939,,,
44.3750000000,5,0.2015381008,,,
44.3906250000,5,0.0939941406,,,
44.4062500000,5,0.1182861030,,,
44.4218750000,5,0.2135010064,,,
44.4375000000,5,0.3052979112,,,
44.4531250000,5,0.3258056939,,,
44.4687500000,5,0.2430420071,,,
44.4843750000,5,0.0891113281,,,
44.5000000000,5,-0.0590820313,,,
44.5156250000,5,-0.1263428032,,,
44.5312500000,5,-0.0593261681,,,
44.5468750000,5,0.1009520963,,,
44.5625000000,5,0.2478027046,,,
44.5781250000,5,0.2481689006,,,
44.5937500000,5,0.0268554706,,,
44.6093750000,5,-0.3704833984,,,
44.6250000000,5,-0.8085938096,,,
44.6406250000,5,-1.1153559685,,,
44.6562500000,5,-1.2044680119,,,
44.6718750000,5,-1.0974119902,,,
44.6875000000,5,-0.9315186143,,,
44.7031250000,5,-0.8530272841,,,
44.7187500000,5,-0.9315186143,,,
44.7343750000,5,-1.1287839413,,,
44.7500000000,5,-1.3446040154,,,
44.7656250000,5,-1.5107419491,,,
44.7812500000,5,-1.6395260096,,,
44.7968750000,5,-1.8226319551,,,
44.8125000000,5,-2.1325678825,,,
44.8281250000,5,-2.5400390625,,,
44.8437500000,5,-2.9105219841,,,
44.8593750000,5,-3.0709230900,,,
44.8750000000,5,-2.9127199650,,,
44.8906250000,5,-2.4726560116,,,
44.9062500000,5,-1.8925780058,,,
44.9218750000,5,-1.3377690315,,,
44.9375000000,5,-0.8901367188,,,
44.9531250000,5,-0.5378417969,,,
44.9687500000,5,-0.2083739936,,,
44.9843750000,5,0.1575928032,,,
45.0000000000,5,0.5521240234,,,
45.0156250000,5,0.9211425781,,,
45.0312500000,5,1.2094730139,,,
45.0468750000,5,1.3983149529,,,
45.0625000000,5,1.5101319551,,,
45.0781250000,5,1.5809329748,,,
45.0937500000,5,1.6215820313,,,
45.1093750000,5,1.6274410486,,,
45.1250000000,5,1.5858149529,,,
45.1406250000,5,1.5183110237,,,
45.1562500000,5,1.4630130529,,,
45.1718750000,5,1.4360350370,,,
45.1875000000,5,1.4091800451,,,
45.2031250000,5,1.3052979708,,,
45.2187500000,5,1.0633540154,,,
45.2343750000,5,0.7071533203,,,
45.2500000000,5,0.3708496094,,,
45.2656250000,5,0.2333983928,,,
45.2812500000,5,0.4136962891,,,
45.2968750000,5,0.8927001953,,,
45.3125000000,5,1.4902340174,,,
45.3281250000,5,1.9614260197,,,
45.3437500000,5,2.1168210506,,,
45.3593750000,5,1.9173580408,,,
45.3750000000,5,1.4707030058,,,
45.3906250000,5,0.9484863281,,,
45.4062500000,5,0.4755859077,,,
45.4218750000,5,0.0651855469,,,
45.4375000000,5,-0.3468017876,,,
45.4531250000,5,-0.8375244141,,,
45.4687500000,5,-1.4169919491,,,
45.4843750000,5,-1.9940190315,,,
45.5000000000,5,-2.4393310547,,,
45.5156250000,5,-2.6531980038,,,
45.5312500000,5,-2.6029050350,,,
45.5468750000,5,-2.3273930550,,,
45.5625000000,5,-1.8964840174,,,
45.5781250000,5,-1.3674319983,,,
45.5937500000,5,-0.7847899795,,,
45.6093750000,5,-0.1848144978,,,
45.6250000000,5,0.3701171875,,,
45.6406250000,5,0.7885742188,,,
45.6562500000,5,0.9970703125,,,
45.6718750000,5,0.9626464844,,,
45.6875000000,5,0.7288817763,,,
45.7031250000,5,0.3829346001,,,
45.7187500000,5,0.0378418006,,,
45.7343750000,5,-0.2176513970,,,
45.7500000000,5,-0.3265380859,,,
45.7656250000,5,-0.2738037109,,,
45.7812500000,5,-0.0864257813,,,
45.7968750000,5,0.1644286960,,,
45.8125000000,5,0.3951416016,,,
45.8281250000,5,0.5478516221,,,
45.8437500000,5,0.6177979112,,,
45.8593750000,5,0.6708983779,,,
45.8750000000,5,0.7897949219,,,
45.8906250000,5,1.0208740234,,,
45.9062500000,5,1.3266600370,,,
45.9218750000,5,1.5803220272,,,
45.9375000000,5,1.6359859705,,,
45.9531250000,5,1.4198000431,,,
45.9687500000,5,0.9669188857,,,
45.9843750000,5,0.4265137017,,,
46.0000000000,5,-0.0261230506,,,
46.0156250000,5,-0.2758789063,,,
46.0312500000,5,-0.3044433892,,,
46.0468750000,5,-0.1872559041,,,
46.0625000000,5,-0.0178222694,,,
46.0781250000,5,0.1483153999,,,
46.0937500000,5,0.3046875000,,,
46.1093750000,5,0.4753417969,,,
46.1250000000,5,0.6583251953,,,
46.1406250000,5,0.8013916016,,,
46.1562500000,5,0.8261718750,,,
46.1718750000,5,0.6817626953,,,
46.1875000000,5,0.3853760064,,,
46.2031250000,5,0.0218505897,,,
46.2187500000,5,-0.3044433892,,,
46.2343750000,5,-0.5128173828,,,
46.2500000000,5,-0.6092529297,,,
46.2656250000,5,-0.6721190810,,,
46.2812500000,5,-0.7957764268,,,
46.2968750000,5,-1.0357669592,,,
46.3125000000,5,-1.3742680550,,,
46.3281250000,5,-1.7242430449,,,
46.3437500000,5,-1.9895019531,,,
46.3593750000,5,-2.1215820313,,,
46.3750000000,5,-2.1433110237,,,
46.3906250000,5,-2.1151120663,,,
46.4062500000,5,-2.0788569450,,,
46.4218750000,5,-2.0043950081,,,
46.4375000000,5,-1.7902829647,,,
46.4531250000,5,-1.3140870333,,,
46.4687500000,5,-0.5128173828,,,
46.4843750000,5,0.5623779297,,,
46.5000000000,5,1.7291259766,,,
46.5156250000,5,2.7326660156,,,
46.5312500000,5,3.3618159294,,,
46.5468750000,5,3.5128169060,,,
46.5625000000,5,3.2319340706,,,
46.5781250000,5,2.6561279297,,,
46.5937500000,5,1.9390870333,,,
46.6093750000,5,1.1950680017,,,
46.6250000000,5,0.4852294922,,,
46.6406250000,5,-0.1512451023,,,
46.6562500000,5,-0.6641845703,,,
46.6718750000,5,-0.9997559190,,,
46.6875000000,5,-1.1254880428,,,
46.7031250000,5,-1.0711669922,,,
46.7187500000,5,-0.9405518174,,,
46.7343750000,5,-0.8594970703,,,
46.7500000000,5,-0.9007567763,,,
46.7656250000,5,-1.0415040255,,,
46.7812500000,5,-1.1614990234,,,
46.7968750000,5,-1.0979000330,,,
46.8125000000,5,-0.7424315810,,,
46.8281250000,5,-0.1085205004,,,
46.8437500000,5,0.6695557237,,,
46.8593750000,5,1.3885500431,,,
46.8750000000,5,1.8533940315,,,
46.8906250000,5,1.9727779627,,,
46.9062500000,5,1.7733149529,,,
46.9218750000,5,1.3736569881,,,
46.9375000000,5,0.9321289063,,,
46.9531250000,5,0.5687255859,,,
46.9687500000,5,0.3441162109,,,
46.9843750000,5,0.2567138970,,,
47.0000000000,5,0.2633056939,,,
47.0156250000,5,0.3110351861,,,
47.0312500000,5,0.3459472954,,,
47.0468750000,5,0.3046875000,,,
47.0625000000,5,0.1401367038,,,
47.0781250000,5,-0.1810303032,,,
47.0937500000,5,-0.6499022841,,,
47.1093750000,5,-1.2038569450,,,
47.1250000000,5,-1.7343750000,,,
47.1406250000,5,-2.1237790585,,,
47.1562500000,5,-2.2996830940,,,
47.1718750000,5,-2.2552490234,,,
47.1875000000,5,-2.0305180550,,,
47.2031250000,5,-1.6857910156,,,
47.2187500000,5,-1.2718509436,,,
47.2343750000,5,-0.8385009766,,,
47.2500000000,5,-0.4323729873,,,
47.2656250000,5,-0.1087645963,,,
47.2812500000,5,0.0782470703,,,
47.2968750000,5,0.1190185994,,,
47.3125000000,5,0.0706787109,,,
47.3281250000,5,0.0267334003,,,
47.3437500000,5,0.0823974609,,,
47.3593750000,5,0.2769775093,,,
47.3750000000,5,0.5695800781,,,
47.3906250000,5,0.8583983779,,,
47.4062500000,5,1.0269780159,,,
47.4218750000,5,0.9945067763,,,
47.4375000000,5,0.7406005859,,,
47.4531250000,5,0.3073729873,,,
47.4687500000,5,-0.2249756008,,,
47.4843750000,5,-0.7416992188,,,
47.5000000000,5,-1.1242680550,,,
47.5156250000,5,-1.2785639763,,,
47.5312500000,5,-1.1544189453,,,
47.5468750000,5,-0.7797852159,,,
47.5625000000,5,-0.2670898139,,,
47.5781250000,5,0.2409667969,,,
47.5937500000,5,0.6187744141,,,
47.6093750000,5,0.8094481826,,,
47.6250000000,5,0.8218994141,,,
47.6406250000,5,0.7153319716,,,
47.6562500000,5,0.5644531250,,,
47.6718750000,5,0.4266357124,,,
47.6875000000,5,0.3389892876,,,
47.7031250000,5,0.3146972954,,,
47.7187500000,5,0.3367919922,,,
47.7343750000,5,0.3520508111,,,
47.7500000000,5,0.2872313857,,,
47.7656250000,5,0.0917968825,,,
47.7812500000,5,-0.2500000000,,,
47.7968750000,5,-0.6999511719,,,
47.8125000000,5,-1.1536870003,,,
47.8281250000,5,-1.4965820313,,,
47.8437500000,5,-1.6204830408,,,
47.8593750000,5,-1.4780269861,,,
47.8750000000,5,-1.0891109705,,,
47.8906250000,5,-0.5366210938,,,
47.9062500000,5,0.0623779297,,,
47.9218750000,5,0.6005858779,,,
47.9375000000,5,0.9949951172,,,
47.9531250000,5,1.2246090174,,,
47.9687500000,5,1.3024899960,,,
47.9843750000,5,1.2686769962,,,
48.0000000000,6,1.1610109806,,,
48.0156250000,6,1.0010989904,,,
48.0312500000,6,0.7858886719,,,
48.0468750000,6,0.5133057237,,,
48.0625000000,6,0.1772460938,,,
48.0781250000,6,-0.2064208984,,,
48.0937500000,6,-0.6055908203,,,
48.1093750000,6,-0.9611815810,,,
48.1250000000,6,-1.2082519531,,,
48.1406250000,6,-1.2893069983,,,
48.1562500000,6,-1.1717530489,,,
48.1718750000,6,-0.8854979873,,,
48.1875000000,6,-0.5084229112,,,
48.2031250000,6,-0.1477050930,,,
48.2187500000,6,0.1099854037,,,
48.2343750000,6,0.2131347954,,,
48.2500000000,6,0.1666260064,,,
48.2656250000,6,0.0142822303,,,
48.2812500000,6,-0.2025146037,,,
48.2968750000,6,-0.4642333984,,,
48.3125000000,6,-0.7900391221,,,
48.3281250000,6,-1.1987299919,,,
48.3437500000,6,-1.6763919592,,,
48.3593750000,6,-2.1387939453,,,
48.3750000000,6,-2.4473879337,,,
48.3906250000,6,-2.4558110237,,,
48.4062500000,6,-2.0991210938,,,
48.4218750000,6,-1.4366459846,,,
48.4375000000,6,-0.6433104873,,,
48.4531250000,6,0.0395507813,,,
48.4687500000,6,0.4525145888,,,
48.4843750000,6,0.5531005859,,,
48.5000000000,6,0.4448241889,,,
48.5156250000,6,0.3095703125,,,
48.5312500000,6,0.3092041016,,,
48.5468750000,6,0.5041503906,,,
48.5625000000,6,0.8348389268,,,
48.5781250000,6,1.1787110567,,,
48.5937500000,6,1.4116209745,,,
48.6093750000,6,1.4842530489,,,
48.6250000000,6,1.4378659725,,,
48.6406250000,6,1.3685300350,,,
48.6562500000,6,1.3690190315,,,
48.6718750000,6,1.4678959846,,,
48.6875000000,6,1.6369630098,,,
48.7031250000,6,1.7945560217,,,
48.7187500000,6,1.8735350370,,,
48.7343750000,6,1.8326419592,,,
48.7500000000,6,1.6799319983,,,
48.7656250000,6,1.4572750330,,,
48.7812500000,6,1.2039790154,,,
48.7968750000,6,0.9385985732,,,
48.8125000000,6,0.6492919922,,,
48.8281250000,6,0.3298340142,,,
48.8437500000,6,-0.0255127009,,,
48.8593750000,6,-0.3831787109,,,
48.8750000000,6,-0.7059326172,,,
48.8906250000,6,-0.9401854873,,,
48.9062500000,6,-1.0594480038,,,
48.9218750000,6,-1.0614010096,,,
48.9375000000,6,-0.9663085938,,,
48.9531250000,6,-0.8452147841,,,
48.9687500000,6,-0.7639160156,,,
48.9843750000,6,-0.7850341797,,,
49.0000000000,6,-0.9129639268,,,
49.0156250000,6,-1.1107180119,,,
49.0312500000,6,-1.2817380428,,,
49.0468750000,6,-1.3383790255,,,
49.0625000000,6,-1.2114260197,,,
49.0781250000,6,-0.8846436143,,,
49.0937500000,6,-0.3957520127,,,
49.1093750000,6,0.1456298977,,,
49.1250000000,6,0.6052246094,,,
49.1406250000,6,0.8598632813,,,
49.1562500000,6,0.8563231826,,,
49.1718750000,6,0.6293944716,,,
49.1875000000,6,0.3033446968,,,
49.2031250000,6,0.0446777306,,,
49.2187500000,6,-0.0140380897,,,
49.2343750000,6,0.1834716946,,,
49.2500000000,6,0.6153563857,,,
49.2656250000,6,1.1947020292,,,
49.2812500000,6,1.8289790154,,,
49.2968750000,6,2.4180910587,,,
49.3125000000,6,2.8603520393,,,
49.3281250000,6,3.0607910156,,,
49.3437500000,6,2.9294428825,,,
49.3593750000,6,2.4384770393,,,
49.3750000000,6,1.6303709745,,,
49.3906250000,6,0.6342772841,,,
49.4062500000,6,-0.3870849907,,,
49.4218750000,6,-1.2661130428,,,
49.4375000000,6,-1.8907469511,,,
49.4531250000,6,-2.2138669491,,,
49.4687500000,6,-2.2613530159,,,
49.4843750000,6,-2.1387939453,,,
49.5000000000,6,-1.9896240234,,,
49.5156250000,6,-1.9578859806,,,
49.5312500000,6,-2.1040039063,,,
49.5468750000,6,-2.3985600471,,,
49.5625000000,6,-2.7064208984,,,
49.5781250000,6,-2.8747560978,,,
49.5937500000,6,-2.7852780819,,,
49.6093750000,6,-2.4050290585,,,
49.6250000000,6,-1.7780760527,,,
49.6406250000,6,-0.9831542969,,,
49.6562500000,6,-0.0943603516,,,
49.6718750000,6,0.8068848252,,,
49.6875000000,6,1.6188960075,,,
49.7031250000,6,2.2185060978,,,
49.7187500000,6,2.4832758904,,,
49.7343750000,6,2.3415529728,,,
49.7500000000,6,1.8323969841,,,
49.7656250000,6,1.0887449980,,,
49.7812500000,6,0.3132323921,,,
49.7968750000,6,-0.2955321968,,,
49.8125000000,6,-0.5982666016,,,
49.8281250000,6,-0.5388184190,,,
49.8437500000,6,-0.1484375000,,,
49.8593750000,6,0.4578857124,,,
49.8750000000,6,1.1195069551,,,
49.8906250000,6,1.6666259766,,,
49.9062500000,6,1.9663089514,,,
49.9218750000,6,1.9884029627,,,
49.9375000000,6,1.7926030159,,,
49.9531250000,6,1.5007319450,,,
49.9687500000,6,1.2177729607,,,
49.9843750000,6,1.0008540154,,,
50.0000000000,6,0.8242188096,,,
50.0156250000,6,0.6341552734,,,
50.0312500000,6,0.3931885064,,,
50.0468750000,6,0.1068115011,,,
50.0625000000,6,-0.1690673977,,,
50.0781250000,6,-0.3703612983,,,
50.0937500000,6,-0.4547119141,,,
50.1093750000,6,-0.4318847954,,,
50.1250000000,6,-0.3608398139,,,
50.1406250000,6,-0.3298340142,,,
50.1562500000,6,-0.4107666016,,,
50.1718750000,6,-0.6239014268,,,
50.1875000000,6,-0.9224854112,,,
50.2031250000,6,-1.2012939453,,,
50.2187500000,6,-1.3526610136,,,
50.2343750000,6,-1.3195799589,,,
50.2500000000,6,-1.1319580078,,,
50.2656250000,6,-0.8902587891,,,
50.2812500000,6,-0.7229003906,,,
50.2968750000,6,-0.7059326172,,,
50.3125000000,6,-0.8198242188,,,
50.3281250000,6,-0.9715576172,,,
50.3437500000,6,-1.0548100471,,,
50.3593750000,6,-1.0113530159,,,
50.3750000000,6,-0.8549805284,,,
50.3906250000,6,-0.6564940810,,,
50.4062500000,6,-0.5000000000,,,
50.4218750000,6,-0.4438476861,,,
50.4375000000,6,-0.4824219048,,,
50.4531250000,6,-0.5610352159,,,
50.4687500000,6,-0.6125488281,,,
50.4843750000,6,-0.5576171875,,,
50.5000000000,6,-0.3493652046,,,
50.5156250000,6,0.0209960900,,,
50.5312500000,6,0.5092772841,,,
50.5468750000,6,1.0467530489,,,
50.5625000000,6,1.5620119572,,,
50.5781250000,6,1.9914549589,,,
50.5937500000,6,2.2802729607,,,
50.6093750000,6,2.3714599609,,,
50.6250000000,6,2.2036130428,,,
50.6406250000,6,1.7379150391,,,
50.6562500000,6,1.0189210176,,,
50.6718750000,6,0.2001952976,,,
50.6875000000,6,-0.4770508111,,,
50.7031250000,6,-0.7974854112,,,
50.7187500000,6,-0.6918944716,,,
50.7343750000,6,-0.2740479112,,,
50.7500000000,6,0.1984862983,,,
50.7656250000,6,0.4810791016,,,
50.7812500000,6,0.4692383111,,,
50.7968750000,6,0.2304687947,,,
50.8125000000,6,-0.0516357385,,,
50.8281250000,6,-0.2136230022,,,
50.8437500000,6,-0.2188721001,,,
50.8593750000,6,-0.1459960938,,,
50.8750000000,6,-0.1158446968,,,
50.8906250000,6,-0.1824951023,,,
50.9062500000,6,-0.2989501953,,,
50.9218750000,6,-0.3802489936,,,
50.9375000000,6,-0.3671875000,,,
50.9531250000,6,-0.2963866889,,,
50.9687500000,6,-0.2764892876,,,
50.9843750000,6,-0.4080811143,,,
51.0000000000,6,-0.7021483779,,,
51.0156250000,6,-1.0633540154,,,
51.0312500000,6,-1.3602290154,,,
51.0468750000,6,-1.4951169491,,,
51.0625000000,6,-1.4738769531,,,
51.0781250000,6,-1.3675539494,,,
51.0937500000,6,-1.2668459415,,,
51.1093750000,6,-1.1813960075,,,
51.1250000000,6,-1.0314940214,,,
51.1406250000,6,-0.7198485732,,,
51.1562500000,6,-0.2128905952,,,
51.1718750000,6,0.3955078125,,,
51.1875000000,6,0.9367675781,,,
51.2031250000,6,1.2541500330,,,
51.2187500000,6,1.2954100370,,,
51.2343750000,6,1.1437989473,,,
51.2500000000,6,0.9514160156,,,
51.2656250000,6,0.8376464844,,,
51.2812500000,6,0.8292235732,,,
51.2968750000,6,0.8432617188,,,
51.3125000000,6,0.7568358779,,,
51.3281250000,6,0.4974364936,,,
51.3437500000,6,0.0837402269,,,
51.3593750000,6,-0.3588866889,,,
51.3750000000,6,-0.6831055284,,,
51.3906250000,6,-0.7871093750,,,
51.4062500000,6,-0.6722412109,,,
51.4218750000,6,-0.4523926079,,,
51.4375000000,6,-0.2731933892,,,
51.4531250000,6,-0.2620849907,,,
51.4687500000,6,-0.4387207031,,,
51.4843750000,6,-0.7291259766,,,
51.5000000000,6,-0.9858397841,,,
51.5156250000,6,-1.0903320313,,,
51.5312500000,6,-0.9891356826,,,
51.5468750000,6,-0.7247313857,,,
51.5625000000,6,-0.3967284858,,,
51.5781250000,6,-0.0867919922,,,
51.5937500000,6,0.1596679986,,,
51.6093750000,6,0.3433837891,,,
51.6250000000,6,0.4726563096,,,
51.6406250000,6,0.5123291016,,,
51.6562500000,6,0.4057616889,,,
51.6718750000,6,0.1180419996,,,
51.6875000000,6,-0.3079833984,,,
51.7031250000,6,-0.7230225205,,,
51.7187500000,6,-0.9346923828,,,
51.7343750000,6,-0.8186035156,,,
51.7500000000,6,-0.3692626953,,,
51.7656250000,6,0.2536621094,,,
51.7812500000,6,0.8253173828,,,
51.7968750000,6,1.1760250330,,,
51.8125000000,6,1.2728270292,,,
51.8281250000,6,1.2293699980,,,
51.8437500000,6,1.1951899529,,,
51.8593750000,6,1.2719730139,,,
51.8750000000,6,1.4250489473,,,
51.8906250000,6,1.5151369572,,,
51.9062500000,6,1.3826899529,,,
51.9218750000,6,0.9759520888,,,
51.9375000000,6,0.3763428032,,,
51.9531250000,6,-0.2401123047,,,
51.9687500000,6,-0.6989746094,,,
51.9843750000,6,-0.9395751953,,,
52.0000000000,6,-1.0063480139,,,
52.0156250000,6,-1.0120849609,,,
52.0312500000,6,-1.0362550020,,,
52.0468750000,6,-1.0812989473,,,
52.0625000000,6,-1.0727540255,,,
52.0781250000,6,-0.9445800781,,,
52.0937500000,6,-0.6989746094,,,
52.1093750000,6,-0.4307861030,,,
52.1250000000,6,-0.2486571968,,,
52.1406250000,6,-0.1942138970,,,
52.1562500000,6,-0.2077637017,,,
52.1718750000,6,-0.1514893025,,,
52.1875000000,6,0.0694580078,,,
52.2031250000,6,0.4350585938,,,
52.2187500000,6,0.8088378906,,,
52.2343750000,6,0.9875488281,,,
52.2500000000,6,0.8627930284,,,
52.2656250000,6,0.4738770127,,,
52.2812500000,6,-0.0109863300,,,
52.2968750000,6,-0.4025878906,,,
52.3125000000,6,-0.5854492188,,,
52.3281250000,6,-0.5653076172,,,
52.3437500000,6,-0.4328612983,,,
52.3593750000,6,-0.2830811143,,,
52.3750000000,6,-0.1369629055,,,
52.3906250000,6,0.0644531325,,,
52.4062500000,6,0.3831787109,,,
52.4218750000,6,0.8422852159,,,
52.4375000000,6,1.3708499670,,,
52.4531250000,6,1.8504639864,,,
52.4687500000,6,2.1529541016,,,
52.4843750000,6,2.2231450081,,,
52.5000000000,6,2.0725100040,,,
52.5156250000,6,1.7828370333,,,
52.5312500000,6,1.4390870333,,,
52.5468750000,6,1.1069339514,,,
52.5625000000,6,0.8034667969,,,
52.5781250000,6,0.5081787109,,,
52.5937500000,6,0.2026367038,,,
52.6093750000,6,-0.1292725056,,,
52.6250000000,6,-0.4686278999,,,
52.6406250000,6,-0.7886962891,,,
52.6562500000,6,-1.0614010096,,,
52.6718750000,6,-1.2858890295,,,
52.6875000000,6,-1.4675290585,,,
52.7031250000,6,-1.6325680017,,,
52.7187500000,6,-1.7789310217,,,
52.7343750000,6,-1.8870849609,,,
52.7500000000,6,-1.9315190315,,,
52.7656250000,6,-1.8926999569,,,
52.7812500000,6,-1.7738039494,,,
52.7968750000,6,-1.6099849939,,,
52.8125000000,6,-1.4433590174,,,
52.8281250000,6,-1.2950439453,,,
52.8437500000,6,-1.1657710075,,,
52.8593750000,6,-1.0362550020,,,
52.8750000000,6,-0.8984375000,,,
52.8906250000,6,-0.7668457031,,,
52.9062500000,6,-0.6827393174,,,
52.9218750000,6,-0.6804199219,,,
52.9375000000,6,-0.7613524795,,,
52.9531250000,6,-0.8693848252,,,
52.9687500000,6,-0.9248046875,,,
52.9843750000,6,-0.8410645127,,,
53.0000000000,6,-0.5933837891,,,
53.0156250000,6,-0.2215576023,,,
53.0312500000,6,0.1722411960,,,
53.0468750000,6,0.4909667969,,,
53.0625000000,6,0.6944580078,,,
53.0781250000,6,0.8345947266,,,
53.0937500000,6,0.9997559190,,,
53.1093750000,6,1.2733149529,,,
53.1250000000,6,1.6743160486,,,
53.1406250000,6,2.1162109375,,,
53.1562500000,6,2.4556879997,,,
53.1718750000,6,2.5654299259,,,
53.1875000000,6,2.4256589413,,,
53.2031250000,6,2.1065669060,,,
53.2187500000,6,1.7579350471,,,
53.2343750000,6,1.5119630098,,,
53.2500000000,6,1.3997800350,,,
53.2656250000,6,1.3609620333,,,
53.2812500000,6,1.3061519861,,,
53.2968750000,6,1.1676030159,,,
53.3125000000,6,0.9545897841,,,
53.3281250000,6,0.7293701172,,,
53.3437500000,6,0.5485839844,,,
53.3593750000,6,0.4149169922,,,
53.3750000000,6,0.2888183892,,,
53.3906250000,6,0.1246337965,,,
53.4062500000,6,-0.0980224609,,,
53.4218750000,6,-0.3624267876,,,
53.4375000000,6,-0.6315308213,,,
53.4531250000,6,-0.8679199219,,,
53.4687500000,6,-1.0689699650,,,
53.4843750000,6,-1.2337650061,,,
53.5000000000,6,-1.3398439884,,,
53.5156250000,6,-1.3508299589,,,
53.5312500000,6,-1.2363280058,,,
53.5468750000,6,-1.0147089958,,,
53.5625000000,6,-0.7711182237,,,
53.5781250000,6,-0.6210938096,,,
53.5937500000,6,-0.6544799805,,,
53.6093750000,6,-0.8775634766,,,
53.6250000000,6,-1.2070310116,,,
53.6406250000,6,-1.4867550135,,,
53.6562500000,6,-1.5740360022,,,
53.6718750000,6,-1.3758540154,,,
53.6875000000,6,-0.8934326172,,,
53.7031250000,6,-0.2131347954,,,
53.7187500000,6,0.4924316108,,,
53.7343750000,6,1.0422970057,,,
53.7500000000,6,1.2879029512,,,
53.7656250000,6,1.1743769646,,,
53.7812500000,6,0.7814940810,,,
53.7968750000,6,0.2727661133,,,
53.8125000000,6,-0.1504517049,,,
53.8281250000,6,-0.3517456055,,,
53.8437500000,6,-0.2943725884,,,
53.8593750000,6,-0.0698852465,,,
53.8750000000,6,0.1646118015,,,
53.8906250000,6,0.2690429986,,,
53.9062500000,6,0.1787108928,,,
53.9218750000,6,-0.0958252028,,,
53.9375000000,6,-0.4734497070,,,
53.9531250000,6,-0.8510131836,,,
53.9687500000,6,-1.1688230038,,,
53.9843750000,6,-1.3887330294,,,
54.0000000000,6,-1.5008540154,,,
54.0156250000,6,-1.4971309900,,,
54.0312500000,6,-1.3727420568,,,
54.0468750000,6,-1.1303709745,,,
54.0625000000,6,-0.7972412109,,,
54.0781250000,6,-0.4417724907,,,
54.0937500000,6,-0.1499633938,,,
54.1093750000,6,0.0045776372,,,
54.1250000000,6,-0.0150146503,,,
54.1406250000,6,-0.1980590969,,,
54.1562500000,6,-0.4957886040,,,
54.1718750000,6,-0.8397216797,,,
54.1875000000,6,-1.1762700081,,,
54.2031250000,6,-1.4664310217,,,
54.2187500000,6,-1.7133790255,,,
54.2343750000,6,-1.9118039608,,,
54.2500000000,6,-2.0538940430,,,
54.2656250000,6,-2.1080930233,,,
54.2812500000,6,-2.0335080624,,,
54.2968750000,6,-1.8168950081,,,
54.3125000000,6,-1.4837650061,,,
54.3281250000,6,-1.1033940315,,,
54.3437500000,6,-0.7431641221,,,
54.3593750000,6,-0.4322510064,,,
54.3750000000,6,-0.1548462063,,,
54.3906250000,6,0.1402588040,,,
54.4062500000,6,0.5031738281,,,
54.4218750000,6,0.9378662109,,,
54.4375000000,6,1.4003299475,,,
54.4531250000,6,1.8477170467,,,
54.4687500000,6,2.2412109375,,,
54.4843750000,6,2.5656130314,,,
54.5000000000,6,2.8097529411,,,
54.5156250000,6,2.9357910156,,,
54.5312500000,6,2.8916630745,,,
54.5468750000,6,2.6386110783,,,
54.5625000000,6,2.1945800781,,,
54.5781250000,6,1.6717530489,,,
54.5937500000,6,1.2376710176,,,
54.6093750000,6,1.0363769531,,,
54.6250000000,6,1.1145629883,,,
54.6406250000,6,1.3875730038,,,
54.6562500000,6,1.6810300350,,,
54.6718750000,6,1.8250730038,,,
54.6875000000,6,1.7443239689,,,
54.7031250000,6,1.4766850471,,,
54.7187500000,6,1.1234740019,,,
54.7343750000,6,0.8081055284,,,
54.7500000000,6,0.5824584961,,,
54.7656250000,6,0.4332886040,,,
54.7812500000,6,0.3095703125,,,
54.7968750000,6,0.1535034031,,,
54.8125000000,6,-0.0523071289,,,
54.8281250000,6,-0.2804565132,,,
54.8437500000,6,-0.4857788086,,,
54.8593750000,6,-0.6444702148,,,
54.8750000000,6,-0.7744750977,,,
54.8906250000,6,-0.9133911133,,,
54.9062500000,6,-1.0482790470,,,
54.9218750000,6,-1.1062619686,,,
54.9375000000,6,-0.9727172852,,,
54.9531250000,6,-0.5717772841,,,
54.9687500000,6,0.0681152269,,,
54.9843750000,6,0.7880858779,,,
55.0000000000,6,1.3739010096,,,
55.0156250000,6,1.6480710506,,,
55.0312500000,6,1.5597529411,,,
55.0468750000,6,1.2138669491,,,
55.0625000000,6,0.7971801758,,,
55.0781250000,6,0.4771729112,,,
55.0937500000,6,0.3139648139,,,
55.1093750000,6,0.2584838867,,,
55.1250000000,6,0.2124022990,,,
55.1406250000,6,0.1116333008,,,
55.1562500000,6,-0.0361328088,,,
55.1718750000,6,-0.1914673001,,,
55.1875000000,6,-0.3243407905,,,
55.2031250000,6,-0.4541015923,,,
55.2187500000,6,-0.6253051758,,,
55.2343750000,6,-0.8530272841,,,
55.2500000000,6,-1.0932619572,,,
55.2656250000,6,-1.2407840490,,,
55.2812500000,6,-1.1959840059,,,
55.2968750000,6,-0.9194335938,,,
55.3125000000,6,-0.4719848931,,,
55.3281250000,6,-0.0124511700,,,
55.3437500000,6,0.2921142876,,,
55.3593750000,6,0.3272705078,,,
55.3750000000,6,0.0994262695,,,
55.3906250000,6,-0.2742919922,,,
55.4062500000,6,-0.6377562881,,,
55.4218750000,6,-0.8773803711,,,
55.4375000000,6,-0.9583740234,,,
55.4531250000,6,-0.9473267198,,,
55.4687500000,6,-0.9492188096,,,
55.4843750000,6,-1.0451049805,,,
55.5000000000,6,-1.2458499670,,,
55.5156250000,6,-1.4845579863,,,
55.5312500000,6,-1.6278079748,,,
55.5468750000,6,-1.5594480038,,,
55.5625000000,6,-1.2304689884,,,
55.5781250000,6,-0.6810302734,,,
55.5937500000,6,-0.0292358398,,,
55.6093750000,6,0.5930786133,,,
55.6250000000,6,1.0915529728,,,
55.6406250000,6,1.4478759766,,,
55.6562500000,6,1.6957399845,,,
55.6718750000,6,1.8689579964,,,
55.6875000000,6,1.9719849825,,,
55.7031250000,6,1.9501949549,,,
55.7187500000,6,1.7500000000,,,
55.7343750000,6,1.3551640511,,,
55.7500000000,6,0.8248291016,,,
55.7656250000,6,0.2758179009,,,
55.7812500000,6,-0.2012328953,,,
55.7968750000,6,-0.5930786133,,,
55.8125000000,6,-0.9541016221,,,
55.8281250000,6,-1.3402099609,,,
55.8437500000,6,-1.7155760527,,,
55.8593750000,6,-1.9530639648,,,
55.8750000000,6,-1.9099119902,,,
55.8906250000,6,-1.5339360237,,,
55.9062500000,6,-0.9295043945,,,
55.9218750000,6,-0.3302001953,,,
55.9375000000,6,0.0360107385,,,
55.9531250000,6,0.0610351600,,,
55.9687500000,6,-0.1785278022,,,
55.9843750000,6,-0.4749146104,,,
56.0000000000,7,-0.6208496094,,,
56.0156250000,7,-0.5330200195,,,
56.0312500000,7,-0.2735596001,,,
56.0468750000,7,0.0110473596,,,
56.0625000000,7,0.1864624023,,,
56.0781250000,7,0.2094116062,,,
56.0937500000,7,0.1370850056,,,
56.1093750000,7,0.0606689490,,,
56.1250000000,7,0.0427856408,,,
56.1406250000,7,0.0853271484,,,
56.1562500000,7,0.1411132962,,,
56.1718750000,7,0.1627196968,,,
56.1875000000,7,0.1414795071,,,
