Time:64Hz,Epoch,Channel 1,Event Id,Event Date,Event Duration
0.0000000000,0,-0.6533203125,,,
0.0156250000,0,-0.4239807129,,,
0.0312500000,0,-0.1643981934,,,
0.0468750000,0,0.1303710938,,,
0.0625000000,0,0.4581908882,,,
0.0781250000,0,0.8084716797,,,
0.0937500000,0,1.1809079647,,,
0.1093750000,0,1.5491329432,,,
0.1250000000,0,1.8670959473,,,
0.1406250000,0,2.0970458984,,,
0.1562500000,0,2.2096860409,,,
0.1718750000,0,2.2070310116,,,
0.1875000000,0,2.1253659725,,,
0.2031250000,0,2.0186769962,,,
0.2187500000,0,1.9235229492,,,
0.2343750000,0,1.8359990120,,,
0.2500000000,0,1.7016910315,,,
0.2656250000,0,1.4703060389,,,
0.2812500000,0,1.1228940487,,,
0.2968750000,0,0.7219238281,,,
0.3125000000,0,0.3883971870,,,
0.3281250000,0,0.2129821926,,,
0.3437500000,0,0.2106322944,,,
0.3593750000,0,0.2778624892,,,
0.3750000000,0,0.2643432915,,,
0.3906250000,0,0.0722351074,,,
0.4062500000,0,-0.2639465034,,,
0.4218750000,0,-0.6141356826,,,
0.4375000000,0,-0.8023071289,,,
0.4531250000,0,-0.7471619248,,,
0.4687500000,0,-0.5055847168,,,
0.4843750000,0,-0.2271118015,,,
0.5000000000,0,-0.0693359375,,,
0.5156250000,0,-0.0924072266,,,
0.5312500000,0,-0.2256775051,,,
0.5468750000,0,-0.3338623047,,,
0.5625000000,0,-0.3026123047,,,
0.5781250000,0,-0.1435852051,,,
0.5937500000,0,0.0458373986,,,
0.6093750000,0,0.1371459961,,,
0.6250000000,0,0.0475769006,,,
0.6406250000,0,-0.1982727051,,,
0.6562500000,0,-0.4870299995,,,
0.6718750000,0,-0.6897583008,,,
0.6875000000,0,-0.7223206162,,,
0.7031250000,0,-0.5881041884,,,
0.7187500000,0,-0.3655090034,,,
0.7343750000,0,-0.1410827935,,,
0.7500000000,0,0.0293579102,,,
0.7656250000,0,0.1611633003,,,
0.7812500000,0,0.2980957031,,,
0.7968750000,0,0.4630126953,,,
0.8125000000,0,0.6283875108,,,
0.8281250000,0,0.7008057237,,,
0.8437500000,0,0.6123046875,,,
0.8593750000,0,0.3690795898,,,
0.8750000000,0,0.0543518104,,,
0.8906250000,0,-0.1975708008,,,
0.9062500000,0,-0.2661742866,,,
0.9218750000,0,-0.1240234002,,,
0.9375000000,0,0.1664123982,,,
0.9531250000,0,0.4734497070,,,
0.9687500000,0,0.6562805176,,,
0.9843750000,0,0.6265563965,,,
1.0000000000,0,0.3833617866,,,
1.0156250000,0,0.0083312988,,,
1.0312500000,0,-0.3719787896,,,
1.0468750000,0,-0.6524962783,,,
1.0625000000,0,-0.7806395888,,,
1.0781250000,0,-0.7904663086,,,
1.0937500000,0,-0.7662963867,,,
1.1093750000,0,-0.7890930176,,,
1.1250000000,0,-0.8826904297,,,
1.1406250000,0,-1.0152280331,,,
1.1562500000,0,-1.1141970158,,,
1.1718750000,0,-1.1292109489,,,
1.1875000000,0,-1.0603330135,,,
1.2031250000,0,-0.9500122070,,,
1.2187500000,0,-0.8357238770,,,
1.2343750000,0,-0.7196044922,,,
1.2500000000,0,-0.5712584853,,,
1.2656250000,0,-0.3579407036,,,
1.2812500000,0,-0.0935363770,,,
1.2968750000,0,0.1497191936,,,
1.3125000000,0,0.2911376953,,,
1.3281250000,0,0.2930907905,,,
1.3437500000,0,0.1953735054,,,
1.3593750000,0,0.1083374023,,,
1.3750000000,0,0.1356201023,,,
1.3906250000,0,0.3124695122,,,
1.4062500000,0,0.5966492295,,,
1.4218750000,0,0.8959351182,,,
1.4375000000,0,1.1439820528,,,
1.4531250000,0,1.3224489689,,,
1.4687500000,0,1.4560849667,,,
1.4843750000,0,1.5567929745,,,
1.5000000000,0,1.5855710506,,,
1.5156250000,0,1.4610600471,,,
1.5312500000,0,1.1257020235,,,
1.5468750000,0,0.5969542861,,,
1.5625000000,0,-0.0207214393,,,
1.5781250000,0,-0.5746154785,,,
1.5937500000,0,-0.9447020888,,,
1.6093750000,0,-1.0940250158,,,
1.6250000000,0,-1.0635069609,,,
1.6406250000,0,-0.9385681152,,,
1.6562500000,0,-0.8037719727,,,
1.6718750000,0,-0.7096558213,,,
1.6875000000,0,-0.6734619141,,,
1.7031250000,0,-0.6842041016,,,
1.7187500000,0,-0.7081298828,,,
1.7343750000,0,-0.7052001953,,,
1.7500000000,0,-0.6281738281,,,
1.7656250000,0,-0.4374695122,,,
1.7812500000,0,-0.1237182990,,,
1.7968750000,0,0.2664184868,,,
1.8125000000,0,0.6355286241,,,
1.8281250000,0,0.8851624131,,,
1.8437500000,0,0.9551392198,,,
1.8593750000,0,0.8534851074,,,
1.8750000000,0,0.6484984756,,,
1.8906250000,0,0.4434508979,,,
1.9062500000,0,0.3037415147,,,
1.9218750000,0,0.2393798977,,,
1.9375000000,0,0.2033997029,,,
1.9531250000,0,0.1355590969,,,
1.9687500000,0,0.0032958980,,,
1.9843750000,0,-0.1589965969,,,
2.0000000000,0,-0.2673034966,,,
2.0156250000,0,-0.2314452976,,,
2.0312500000,0,-0.0043640141,,,
2.0468750000,0,0.3695068061,,,
2.0625000000,0,0.7706604004,,,
2.0781250000,0,1.0753480196,,,
2.0937500000,0,1.2084959745,,,
2.1093750000,0,1.1677249670,,,
2.1250000000,0,1.0119320154,,,
2.1406250000,0,0.8004149795,,,
2.1562500000,0,0.5528259277,,,
2.1718750000,0,0.2657166123,,,
2.1875000000,0,-0.0556640588,,,
2.2031250000,0,-0.3583678901,,,
2.2187500000,0,-0.5325927734,,,
2.2343750000,0,-0.4825133979,,,
2.2500000000,0,-0.1940917969,,,
2.2656250000,0,0.2446593940,,,
2.2812500000,0,0.6741942763,,,
2.2968750000,0,0.9652709961,,,
2.3125000000,0,1.0810849667,,,
2.3281250000,0,1.0989069939,,,
2.3437500000,0,1.1598819494,,,
2.3593750000,0,1.3756710291,,,
2.3750000000,0,1.7705379725,,,
2.3906250000,0,2.2946779728,,,
2.4062500000,0,2.8609011173,,,
2.4218750000,0,3.4056398869,,,
2.4375000000,0,3.8942871094,,,
2.4531250000,0,4.3074040413,,,
2.4687500000,0,4.6094360352,,,
2.4843750000,0,4.7633972168,,,
2.5000000000,0,4.7381291389,,,
2.5156250000,0,4.5428471565,,,
2.5312500000,0,4.2217411995,,,
2.5468750000,0,3.8306879997,,,
2.5625000000,0,3.3893740177,,,
2.5781250000,0,2.9043579102,,,
2.5937500000,0,2.4278869629,,,
2.6093750000,0,2.1277160645,,,
2.6250000000,0,2.3117680550,,,
2.6406250000,0,3.3157649040,,,
2.6562500000,0,5.3511958122,,,
2.6718750000,0,8.3376770020,,,
2.6875000000,0,11.8814401627,,,
2.7031250000,0,15.3725299835,,,
2.7187500000,0,18.2208900452,,,
2.7343750000,0,20.0688800812,,,
2.7500000000,0,20.8910808563,,,
2.7656250000,0,20.9665794373,,,
2.7812500000,0,20.7099609375,,,
2.7968750000,0,20.5131492615,,,
2.8125000000,0,20.6269207001,,,
2.8281250000,0,21.1604309082,,,
2.8437500000,0,22.1027507782,,,
2.8593750000,0,23.3789997101,,,
2.8750000000,0,24.8512897491,,,
2.8906250000,0,26.3644695282,,,
2.9062500000,0,27.7615699768,,,
2.9218750000,0,28.9731807709,,,
2.9375000000,0,30.1155395508,,,
2.9531250000,0,31.4857196808,,,
2.9687500000,0,33.4417991638,,,
2.9843750000,0,36.1654701233,,,
3.0000000000,0,39.4343299866,,,
3.0156250000,0,42.5463600159,,,
3.0312500000,0,44.4870605469,,,
3.0468750000,0,44.2823486328,,,
3.0625000000,0,41.3160400391,,,
3.0781250000,0,35.4715003967,,,
3.0937500000,0,27.0916404724,,,
3.1093750000,0,16.7934608459,,,
3.1250000000,0,5.3470149040,,,
3.1406250000,0,-6.3959350586,,,
3.1562500000,0,-17.4921894073,,,
3.1718750000,0,-26.9947204590,,,
3.1875000000,0,-34.1878509521,,,
3.2031250000,0,-38.8768501282,,,
3.2187500000,0,-41.5409889221,,,
3.2343750000,0,-43.1614112854,,,
3.2500000000,0,-44.8092689514,,,
3.2656250000,0,-47.1075096130,,,
3.2812500000,0,-49.9709014893,,,
3.2968750000,0,-52.6930999756,,,
3.3125000000,0,-54.3840484619,,,
3.3281250000,0,-54.4347114563,,,
3.3437500000,0,-52.8170890808,,,
3.3593750000,0,-50.0020904541,,,
3.3750000000,0,-46.6985206604,,,
3.3906250000,0,-43.4996299744,,,
3.4062500000,0,-40.7066307068,,,
3.4218750000,0,-38.3366394043,,,
3.4375000000,0,-36.2907905579,,,
3.4531250000,0,-34.5083885193,,,
3.4687500000,0,-33.0359306335,,,
3.4843750000,0,-31.9612102509,,,
3.5000000000,0,-31.2548999786,,,
3.5156250000,0,-30.6744194031,,,
3.5312500000,0,-29.8146705627,,,
3.5468750000,0,-28.2638206482,,,
3.5625000000,0,-25.7926597595,,,
3.5781250000,0,-22.5356006622,,,
3.5937500000,0,-18.9430809021,,,
3.6093750000,0,-15.6132497787,,,
3.6250000000,0,-13.0589895248,,,
3.6406250000,0,-11.5087099075,,,
3.6562500000,0,-10.8580303192,,,
3.6718750000,0,-10.7139596939,,,
3.6875000000,0,-10.5472602844,,,
3.7031250000,0,-9.8653717041,,,
3.7187500000,0,-8.3730773926,,,
3.7343750000,0,-6.0447688103,,,
3.7500000000,0,-3.1517488956,,,
3.7656250000,0,-0.1736298054,,,
3.7812500000,0,2.3188319206,,,
3.7968750000,0,3.8311309814,,,
3.8125000000,0,4.0881958008,,,
3.8281250000,0,3.1363680363,,,
3.8437500000,0,1.2906490564,,,
3.8593750000,0,-0.9978179932,,,
3.8750000000,0,-3.2869870663,,,
3.8906250000,0,-5.2831730843,,,
3.9062500000,0,-6.8670201302,,,
3.9218750000,0,-8.0131683350,,,
3.9375000000,0,-8.7090148926,,,
3.9531250000,0,-8.8671417236,,,
3.9687500000,0,-8.3657989502,,,
3.9843750000,0,-7.1357421875,,,
4.0000000000,0,-5.3036041260,,,
4.0156250000,0,-3.2123410702,,,
4.0312500000,0,-1.3778690100,,,
4.0468750000,0,-0.2988739014,,,
4.0625000000,0,-0.2305603027,,,
4.0781250000,0,-1.0712889433,,,
4.0937500000,0,-2.4496920109,,,
4.1093750000,0,-3.9144289494,,,
4.1250000000,0,-5.1929779053,,,
4.1406250000,0,-6.2760620117,,,
4.1562500000,0,-7.3399348259,,,
4.1718750000,0,-8.5496520996,,,
4.1875000000,0,-9.8863525391,,,
4.2031250000,0,-11.1408700943,,,
4.2187500000,0,-12.0689401627,,,
4.2343750000,0,-12.5959796906,,,
4.2500000000,0,-12.8856801987,,,
4.2656250000,0,-13.2288198471,,,
4.2812500000,0,-13.8066701889,,,
4.2968750000,0,-14.5086402893,,,
4.3125000000,0,-15.0026597977,,,
4.3281250000,0,-14.9841299057,,,
4.3437500000,0,-14.4974403381,,,
4.3593750000,0,-13.9931001663,,,
4.3750000000,0,-13.9993896484,,,
4.3906250000,0,-14.6206703186,,,
4.4062500000,0,-15.1883897781,,,
4.4218750000,0,-14.3556203842,,,
4.4375000000,0,-10.7049303055,,,
4.4531250000,0,-3.5083920956,,,
4.4687500000,0,6.7399902344,,,
4.4843750000,0,18.4053306580,,,
4.5000000000,0,29.3100605011,,,
4.5156250000,0,37.6091308594,,,
4.5312500000,0,42.4259300232,,,
4.5468750000,0,43.9520301819,,,
4.5625000000,0,43.0394592285,,,
4.5781250000,0,40.6465492249,,,
4.5937500000,0,37.3988304138,,,
4.6093750000,0,33.5370483398,,,
4.6250000000,0,29.1182308197,,,
4.6406250000,0,24.3000793457,,,
4.6562500000,0,19.4123497009,,,
4.6718750000,0,14.8592796326,,,
4.6875000000,0,10.9196500778,,,
4.7031250000,0,7.6105651855,,,
4.7187500000,0,4.6992192268,,,
4.7343750000,0,1.8421939611,,,
4.7500000000,0,-1.2171629667,,,
4.7656250000,0,-4.5310058594,,,
4.7812500000,0,-7.9306640625,,,
4.7968750000,0,-11.0945396423,,,
4.8125000000,0,-13.6972999573,,,
4.8281250000,0,-15.5585298538,,,
4.8437500000,0,-16.7581806183,,,
4.8593750000,0,-17.6772804260,,,
4.8750000000,0,-18.8651409149,,,
4.8906250000,0,-20.8450603485,,,
4.9062500000,0,-23.9157390594,,,
4.9218750000,0,-27.9957599640,,,
4.9375000000,0,-32.6761512756,,,
4.9531250000,0,-37.3659400940,,,
4.9687500000,0,-41.4902610779,,,
4.9843750000,0,-44.6849708557,,,
5.0000000000,0,-46.9234886169,,,
5.0156250000,0,-48.5283508301,,,
5.0312500000,0,-50.0632286072,,,
5.0468750000,0,-52.1364402771,,,
5.0625000000,0,-55.1868896484,,,
5.0781250000,0,-59.2771301270,,,
5.0937500000,0,-63.9834899902,,,
5.1093750000,0,-68.4961471558,,,
5.1250000000,0,-71.8117065430,,,
5.1406250000,0,-73.0992736816,,,
5.1562500000,0,-72.0392837524,,,
5.1718750000,0,-69.0266418457,,,
5.1875000000,0,-65.2313232422,,,
5.2031250000,0,-62.4048194885,,,
5.2187500000,0,-62.4522094727,,,
5.2343750000,0,-66.8388977051,,,
5.2500000000,0,-75.7766418457,,,
5.2656250000,0,-87.6296386719,,,
5.2812500000,0,-98.9374084473,,,
5.2968750000,0,-105.1201019287,,,
5.3125000000,0,-101.7129974365,,,
5.3281250000,0,-85.6765365601,,,
5.3437500000,0,-56.3471412659,,,
5.3593750000,0,-15.8026399612,,,
5.3750000000,0,31.4797992706,,,
5.3906250000,0,79.5075073242,,,
5.4062500000,0,121.9791030884,,,
5.4218750000,0,153.6475067139,,,
5.4375000000,0,171.4763031006,,,
5.4531250000,0,175.2378997803,,,
5.4687500000,0,167.3571929932,,,
5.4843750000,0,151.9909057617,,,
5.5000000000,0,133.6580047607,,,
5.5156250000,0,115.9683990479,,,
5.5312500000,0,100.9671020508,,,
5.5468750000,0,89.1677932739,,,
5.5625000000,0,80.1472778320,,,
5.5781250000,0,73.2334594727,,,
5.5937500000,0,67.8916015625,,,
5.6093750000,0,63.6859703064,,,
5.6250000000,0,60.1592407227,,,
5.6406250000,0,56.7355308533,,,
5.6562500000,0,52.8553504944,,,
5.6718750000,0,48.2547607422,,,
5.6875000000,0,43.0543212891,,,
5.7031250000,0,37.7393798828,,,
5.7187500000,0,32.9886512756,,,
5.7343750000,0,29.2944297791,,,
5.7500000000,0,26.7530498505,,,
5.7656250000,0,25.0194702148,,,
5.7812500000,0,23.4794902802,,,
5.7968750000,0,21.5261802673,,,
5.8125000000,0,18.8593807220,,,
5.8281250000,0,15.6127300262,,,
5.8437500000,0,12.2813701630,,,
5.8593750000,0,9.4864501953,,,
5.8750000000,0,7.6553959846,,,
5.8906250000,0,6.8398442268,,,
5.9062500000,0,6.6947021484,,,
5.9218750000,0,6.6475830078,,,
5.9375000000,0,6.1551508904,,,
5.9531250000,0,4.9283452034,,,
5.9687500000,0,3.0430300236,,,
5.9843750000,0,0.8767700195,,,
6.0000000000,0,-1.0751949549,,,
6.0156250000,0,-2.4531250000,,,
6.0312500000,0,-3.1414179802,,,
6.0468750000,0,-3.2706909180,,,
6.0625000000,0,-3.1164550781,,,
6.0781250000,0,-2.9190669060,,,
6.0937500000,0,-2.8207399845,,,
6.1093750000,0,-2.8292241096,,,
6.1250000000,0,-2.8726809025,,,
6.1406250000,0,-2.8670649529,,,
6.1562500000,0,-2.7770390511,,,
6.1718750000,0,-2.5864870548,,,
6.1875000000,0,-2.3181149960,,,
6.2031250000,0,-2.0014650822,,,
6.2187500000,0,-1.6806639433,,,
6.2343750000,0,-1.4241329432,,,
6.2500000000,0,-1.2931519747,,,
6.2656250000,0,-1.3130489588,,,
6.2812500000,0,-1.4260859489,,,
6.2968750000,0,-1.5361330509,,,
6.3125000000,0,-1.5354000330,,,
6.3281250000,0,-1.3725589514,,,
6.3437500000,0,-1.0953979492,,,
6.3593750000,0,-0.8067017198,,,
6.3750000000,0,-0.6038208008,,,
6.3906250000,0,-0.5061646104,,,
6.4062500000,0,-0.4640502930,,,
6.4218750000,0,-0.3663940132,,,
6.4375000000,0,-0.1262207031,,,
6.4531250000,0,0.2644653022,,,
6.4687500000,0,0.7304077148,,,
6.4843750000,0,1.1289670467,,,
6.5000000000,0,1.3253779411,,,
6.5156250000,0,1.2432249784,,,
6.5312500000,0,0.8969727159,,,
6.5468750000,0,0.3969726861,,,
6.5625000000,0,-0.0911865234,,,
6.5781250000,0,-0.3912963867,,,
6.5937500000,0,-0.3959960938,,,
6.6093750000,0,-0.0992431566,,,
6.6250000000,0,0.3785400093,,,
6.6406250000,0,0.8639525771,,,
6.6562500000,0,1.1882929802,,,
6.6718750000,0,1.2835689783,,,
6.6875000000,0,1.1768189669,,,
6.7031250000,0,0.9700927734,,,
6.7187500000,0,0.7803955078,,,
6.7343750000,0,0.6741942763,,,
6.7500000000,0,0.6535645127,,,
6.7656250000,0,0.6614379883,,,
6.7812500000,0,0.6345825195,,,
6.7968750000,0,0.5115966797,,,
6.8125000000,0,0.2751465142,,,
6.8281250000,0,-0.0449218787,,,
6.8437500000,0,-0.3881835938,,,
6.8593750000,0,-0.6986693740,,,
6.8750000000,0,-0.9583129883,,,
6.8906250000,0,-1.1803590059,,,
6.9062500000,0,-1.4088749886,,,
6.9218750000,0,-1.6284790039,,,
6.9375000000,0,-1.7703249454,,,
6.9531250000,0,-1.7172240019,,,
6.9687500000,0,-1.3803100586,,,
6.9843750000,0,-0.7882689834,,,
7.0000000000,0,-0.1035156026,,,
7.0156250000,0,0.4309082031,,,
7.0312500000,0,0.6204224229,,,
7.0468750000,0,0.4065552056,,,
7.0625000000,0,-0.0917358398,,,
7.0781250000,0,-0.6519774795,,,
7.0937500000,0,-1.0491329432,,,
7.1093750000,0,-1.1475219727,,,
7.1250000000,0,-0.9337158203,,,
7.1406250000,0,-0.5006713867,,,
7.1562500000,0,0.0032348630,,,
7.1718750000,0,0.4331665039,,,
7.1875000000,0,0.7000122070,,,
7.2031250000,0,0.7700806260,,,
7.2187500000,0,0.6828613281,,,
7.2343750000,0,0.5218505859,,,
7.2500000000,0,0.3802489936,,,
7.2656250000,0,0.3087157905,,,
7.2812500000,0,0.3228760064,,,
7.2968750000,0,0.4038695991,,,
7.3125000000,0,0.5180053711,,,
7.3281250000,0,0.6418457031,,,
7.3437500000,0,0.7441406250,,,
7.3593750000,0,0.7951049805,,,
7.3750000000,0,0.7478026748,,,
7.3906250000,0,0.5629882813,,,
7.4062500000,0,0.2574462891,,,
7.4218750000,0,-0.0739135668,,,
7.4375000000,0,-0.3212890923,,,
7.4531250000,0,-0.3901978135,,,
7.4687500000,0,-0.2691040039,,,
7.4843750000,0,-0.0393676795,,,
7.5000000000,0,0.1884766072,,,
7.5156250000,0,0.3054198921,,,
7.5312500000,0,0.2515259087,,,
7.5468750000,0,0.0339355506,,,
7.5625000000,0,-0.2951050103,,,
7.5781250000,0,-0.6597290039,,,
7.5937500000,0,-0.9672241211,,,
7.6093750000,0,-1.1145629883,,,
7.6250000000,0,-1.0000610352,,,
7.6406250000,0,-0.5750731826,,,
7.6562500000,0,0.1251831055,,,
7.6718750000,0,0.9653931260,,,
7.6875000000,0,1.7750240564,,,
7.7031250000,0,2.4210820198,,,
7.7187500000,0,2.8538820744,,,
7.7343750000,0,3.1203000546,,,
7.7500000000,0,3.3118290901,,,
7.7656250000,0,3.5084838867,,,
7.7812500000,0,3.7241818905,,,
7.7968750000,0,3.9486689568,,,
7.8125000000,0,4.1701049805,,,
7.8281250000,0,4.4141850471,,,
7.8437500000,0,4.7333369255,,,
7.8593750000,0,5.2001338005,,,
7.8750000000,0,5.8629150391,,,
7.8906250000,0,6.6992797852,,,
7.9062500000,0,7.6202998161,,,
7.9218750000,0,8.5007324219,,,
7.9375000000,0,9.2081298828,,,
7.9531250000,0,9.6856079102,,,
7.9687500000,0,9.9990234375,,,
7.9843750000,0,10.3358201981,,,
8.0000000000,1,10.9891996384,,,
8.0156250000,1,12.2305898666,,,
8.0312500000,1,14.1630897522,,,
8.0468750000,1,16.6336097717,,,
8.0625000000,1,19.2420005798,,,
8.0781250000,1,21.5049400330,,,
8.0937500000,1,23.0970497131,,,
8.1093750000,1,24.0589599609,,,
8.1250000000,1,24.8482093811,,,
8.1406250000,1,26.1788291931,,,
8.1562500000,1,28.6920795441,,,
8.1718750000,1,32.6278114319,,,
8.1875000000,1,37.6846313477,,,
8.2031250000,1,43.1292686462,,,
8.2187500000,1,48.1404418945,,,
8.2343750000,1,52.2018394470,,,
8.2500000000,1,55.3750000000,,,
8.2656250000,1,58.2946205139,,,
8.2812500000,1,61.8576698303,,,
8.2968750000,1,66.7982177734,,,
8.3125000000,1,73.3222732544,,,
8.3281250000,1,80.9508132935,,,
8.3437500000,1,88.6572265625,,,
8.3593750000,1,95.2353515625,,,
8.3750000000,1,99.6926879883,,,
8.3906250000,1,101.6356964111,,,
8.4062500000,1,101.4158020020,,,
8.4218750000,1,100.0360031128,,,
8.4375000000,1,98.9362182617,,,
8.4531250000,1,99.6870727539,,,
8.4687500000,1,103.7619018555,,,
8.4843750000,1,112.1268997192,,,
8.5000000000,1,124.7444000244,,,
8.5156250000,1,140.1242065430,,,
8.5312500000,1,155.2675018311,,,
8.5468750000,1,166.1880035400,,,
8.5625000000,1,169.1109924316,,,
8.5781250000,1,161.7371978760,,,
8.5937500000,1,144.0534973145,,,
8.6093750000,1,118.2218017578,,,
8.6250000000,1,87.4917602539,,,
8.6406250000,1,54.7033691406,,,
8.6562500000,1,21.1709308624,,,
8.6718750000,1,-13.4363403320,,,
8.6875000000,1,-50.0600013733,,,
8.7031250000,1,-88.7958984375,,,
8.7187500000,1,-127.8720016479,,,
8.7343750000,1,-163.7888946533,,,
8.7500000000,1,-192.5410003662,,,
8.7656250000,1,-211.2653045654,,,
8.7812500000,1,-219.4201049805,,,
8.7968750000,1,-218.8791046143,,,
8.8125000000,1,-212.9328002930,,,
8.8281250000,1,-204.8191986084,,,
8.8437500000,1,-196.5200958252,,,
8.8593750000,1,-188.3681030273,,,
8.8750000000,1,-179.6782989502,,,
8.8906250000,1,-169.7548065186,,,
8.9062500000,1,-158.7321929932,,,
8.9218750000,1,-147.8085937500,,,
8.9375000000,1,-138.6708068848,,,
8.9531250000,1,-132.7147064209,,,
8.9687500000,1,-130.3316955566,,,
8.9843750000,1,-130.7463073730,,,
9.0000000000,1,-132.3735046387,,,
9.0156250000,1,-133.5433959961,,,
9.0312500000,1,-133.1620941162,,,
9.0468750000,1,-131.1430969238,,,
9.0625000000,1,-128.3442993164,,,
9.0781250000,1,-126.0470962524,,,
9.0937500000,1,-125.3374023438,,,
9.1093750000,1,-126.6555023193,,,
9.1250000000,1,-129.7498016357,,,
9.1406250000,1,-134.0030975342,,,
9.1562500000,1,-138.8392944336,,,
9.1718750000,1,-143.9026947021,,,
9.1875000000,1,-148.7035064697,,,
9.2031250000,1,-152.1298065186,,,
9.2187500000,1,-152.3748931885,,,
9.2343750000,1,-147.5180969238,,,
9.2500000000,1,-136.6168060303,,,
9.2656250000,1,-120.5997009277,,,
9.2812500000,1,-102.2858963013,,,
9.2968750000,1,-85.2937011719,,,
9.3125000000,1,-72.3782730103,,,
9.3281250000,1,-64.3049926758,,,
9.3437500000,1,-60.0203895569,,,
9.3593750000,1,-57.8031005859,,,
9.3750000000,1,-56.6921997070,,,
9.3906250000,1,-56.9257507324,,,
9.4062500000,1,-59.1550598145,,,
9.4218750000,1,-62.9825706482,,,
9.4375000000,1,-66.0795898438,,,
9.4531250000,1,-64.6890869141,,,
9.4687500000,1,-55.1637916565,,,
9.4843750000,1,-35.6339988708,,,
9.5000000000,1,-6.7152709961,,,
9.5156250000,1,28.9241008759,,,
9.5312500000,1,67.6402893066,,,
9.5468750000,1,105.8200988770,,,
9.5625000000,1,140.2279968262,,,
9.5781250000,1,168.1053009033,,,
9.5937500000,1,187.3159942627,,,
9.6093750000,1,196.8014984131,,,
9.6250000000,1,197.0711975098,,,
9.6406250000,1,190.2534027100,,,
9.6562500000,1,179.4358978271,,,
9.6718750000,1,167.4819030762,,,
9.6875000000,1,156.1425018311,,,
9.7031250000,1,145.8690948486,,,
9.7187500000,1,136.3287963867,,,
9.7343750000,1,127.1271972656,,,
9.7500000000,1,118.2501983643,,,
9.7656250000,1,109.9777984619,,,
9.7812500000,1,102.4982986450,,,
9.7968750000,1,95.5902099609,,,
9.8125000000,1,88.7195434570,,,
9.8281250000,1,81.4663696289,,,
9.8437500000,1,73.7968063354,,,
9.8593750000,1,66.1793212891,,,
9.8750000000,1,59.3544883728,,,
9.8906250000,1,53.9696693420,,,
9.9062500000,1,50.2017784119,,,
9.9218750000,1,47.7023315430,,,
9.9375000000,1,45.7654991150,,,
9.9531250000,1,43.6256713867,,,
9.9687500000,1,40.7893104553,,,
9.9843750000,1,37.1518592834,,,
10.0000000000,1,32.9978599548,,,
10.0156250000,1,28.8063392639,,,
10.0312500000,1,25.0154399872,,,
10.0468750000,1,21.8474102020,,,
10.0625000000,1,19.2435302734,,,
10.0781250000,1,16.9575805664,,,
10.0937500000,1,14.6971998215,,,
10.1093750000,1,12.3134803772,,,
10.1250000000,1,9.8434448242,,,
10.1406250000,1,7.4881591797,,,
10.1562500000,1,5.4711909294,,,
10.1718750000,1,3.9119870663,,,
10.1875000000,1,2.7681879997,,,
10.2031250000,1,1.8657230139,,,
10.2187500000,1,0.9860839844,,,
10.2343750000,1,-0.0319824181,,,
10.2500000000,1,-1.2598880529,,,
10.2656250000,1,-2.7041020393,,,
10.2812500000,1,-4.2741088867,,,
10.2968750000,1,-5.8491821289,,,
10.3125000000,1,-7.2737431526,,,
10.3281250000,1,-8.3626708984,,,
10.3437500000,1,-8.9552001953,,,
10.3593750000,1,-8.9947509766,,,
10.3750000000,1,-8.5504760742,,,
10.3906250000,1,-7.8086547852,,,
10.4062500000,1,-7.0164790154,,,
10.4218750000,1,-6.3639531136,,,
10.4375000000,1,-5.9266362190,,,
10.4531250000,1,-5.6791992188,,,
10.4687500000,1,-5.5314941406,,,
10.4843750000,1,-5.3937988281,,,
10.5000000000,1,-5.2084350586,,,
10.5156250000,1,-4.9530639648,,,
10.5312500000,1,-4.6235961914,,,
10.5468750000,1,-4.2164921761,,,
10.5625000000,1,-3.7083740234,,,
10.5781250000,1,-3.0673220158,,,
10.5937500000,1,-2.2864379883,,,
10.6093750000,1,-1.3940429688,,,
10.6250000000,1,-0.5014038086,,,
10.6406250000,1,0.2327270955,,,
10.6562500000,1,0.6445313096,,,
10.6718750000,1,0.6594849229,,,
10.6875000000,1,0.3464966118,,,
10.7031250000,1,-0.1040038988,,,
10.7187500000,1,-0.4790039063,,,
10.7343750000,1,-0.6417235732,,,
10.7500000000,1,-0.6006469727,,,
10.7656250000,1,-0.5095214844,,,
10.7812500000,1,-0.5373535156,,,
10.7968750000,1,-0.7700194716,,,
10.8125000000,1,-1.1766359806,,,
10.8281250000,1,-1.6216429472,,,
10.8437500000,1,-1.9589229822,,,
10.8593750000,1,-2.1173100471,,,
10.8750000000,1,-2.1092529297,,,
10.8906250000,1,-1.9949949980,,,
10.9062500000,1,-1.8192750216,,,
10.9218750000,1,-1.5947879553,,,
10.9375000000,1,-1.2993769646,,,
10.9531250000,1,-0.9204102159,,,
10.9687500000,1,-0.4808959961,,,
10.9843750000,1,-0.0258178692,,,
11.0000000000,1,0.3851929009,,,
11.0156250000,1,0.7013549805,,,
11.0312500000,1,0.9007567763,,,
11.0468750000,1,0.9667968750,,,
11.0625000000,1,0.8977661133,,,
11.0781250000,1,0.6948853135,,,
11.0937500000,1,0.3673096001,,,
11.1093750000,1,-0.0449218787,,,
11.1250000000,1,-0.4879150093,,,
11.1406250000,1,-0.8910521865,,,
11.1562500000,1,-1.1790159941,,,
11.1718750000,1,-1.3308720589,,,
11.1875000000,1,-1.3571170568,,,
11.2031250000,1,-1.3168330193,,,
11.2187500000,1,-1.2775269747,,,
11.2343750000,1,-1.2839970589,,,
11.2500000000,1,-1.3543699980,,,
11.2656250000,1,-1.4674680233,,,
11.2812500000,1,-1.5831300020,,,
11.2968750000,1,-1.6425780058,,,
11.3125000000,1,-1.6066889763,,,
11.3281250000,1,-1.4476319551,,,
11.3437500000,1,-1.2007449865,,,
11.3593750000,1,-0.9430541992,,,
11.3750000000,1,-0.7738037109,,,
11.3906250000,1,-0.7664185166,,,
11.4062500000,1,-0.9182739258,,,
11.4218750000,1,-1.1401369572,,,
11.4375000000,1,-1.2737430334,,,
11.4531250000,1,-1.1806030273,,,
11.4687500000,1,-0.7830811143,,,
11.4843750000,1,-0.1048583984,,,
11.5000000000,1,0.7495728135,,,
11.5156250000,1,1.6306149960,,,
11.5312500000,1,2.4193730354,,,
11.5468750000,1,3.0443730354,,,
11.5625000000,1,3.4627690315,,,
11.5781250000,1,3.6680300236,,,
11.5937500000,1,3.6616210938,,,
11.6093750000,1,3.4904789925,,,
11.6250000000,1,3.2459719181,,,
11.6406250000,1,3.0537719727,,,
11.6562500000,1,3.0459589958,,,
11.6718750000,1,3.2845458984,,,
11.6875000000,1,3.7343139648,,,
11.7031250000,1,4.2750239372,,,
11.7187500000,1,4.7694091797,,,
11.7343750000,1,5.1260380745,,,
11.7500000000,1,5.3394780159,,,
11.7656250000,1,5.4792480469,,,
11.7812500000,1,5.6396479607,,,
11.7968750000,1,5.8945307732,,,
11.8125000000,1,6.2730708122,,,
11.8281250000,1,6.8012700081,,,
11.8437500000,1,7.5042109489,,,
11.8593750000,1,8.4159545898,,,
11.8750000000,1,9.5273437500,,,
11.8906250000,1,10.7572603226,,,
11.9062500000,1,11.9572801590,,,
11.9218750000,1,13.0139198303,,,
11.9375000000,1,13.9367103577,,,
11.9531250000,1,14.9047899246,,,
11.9687500000,1,16.1993999481,,,
11.9843750000,1,18.0632896423,,,
12.0000000000,1,20.5844707489,,,
12.0156250000,1,23.6268901825,,,
12.0312500000,1,26.8946495056,,,
12.0468750000,1,30.0759906769,,,
12.0625000000,1,32.9681396484,,,
12.0781250000,1,35.5826988220,,,
12.0937500000,1,38.1318397522,,,
12.1093750000,1,40.9359703064,,,
12.1250000000,1,44.2722816467,,,
12.1406250000,1,48.2747802734,,,
12.1562500000,1,52.8757896423,,,
12.1718750000,1,57.9056396484,,,
12.1875000000,1,63.0706214905,,,
12.2031250000,1,68.0770874023,,,
12.2187500000,1,72.6757812500,,,
12.2343750000,1,76.6731033325,,,
12.2500000000,1,80.1044311523,,,
12.2656250000,1,83.4179077148,,,
12.2812500000,1,87.6605834961,,,
12.2968750000,1,94.3135375977,,,
12.3125000000,1,104.5587997437,,,
12.3281250000,1,118.3399963379,,,
12.3437500000,1,133.5800933838,,,
12.3593750000,1,146.3009948730,,,
12.3750000000,1,151.7463989258,,,
12.3906250000,1,146.0377044678,,,
12.4062500000,1,127.4913024902,,,
12.4218750000,1,96.9907226563,,,
12.4375000000,1,57.3680381775,,,
12.4531250000,1,12.3925199509,,,
12.4687500000,1,-33.9977416992,,,
12.4843750000,1,-77.9290466309,,,
12.5000000000,1,-115.6082000732,,,
12.5156250000,1,-143.5800018311,,,
12.5312500000,1,-159.5081024170,,,
12.5468750000,1,-163.0588073730,,,
12.5625000000,1,-156.3267974854,,,
12.5781250000,1,-143.2794952393,,,
12.5937500000,1,-128.3596038818,,,
12.6093750000,1,-114.9537963867,,,
12.6250000000,1,-104.5559005737,,,
12.6406250000,1,-96.9376525879,,,
12.6562500000,1,-91.0503234863,,,
12.6718750000,1,-85.8628234863,,,
12.6875000000,1,-80.9231033325,,,
12.7031250000,1,-76.2298583984,,,
12.7187500000,1,-71.8689575195,,,
12.7343750000,1,-67.7861022949,,,
12.7500000000,1,-63.7438392639,,,
12.7656250000,1,-59.4927711487,,,
12.7812500000,1,-54.9857788086,,,
12.7968750000,1,-50.4004211426,,,
12.8125000000,1,-46.1005210876,,,
12.8281250000,1,-42.3687400818,,,
12.8437500000,1,-39.2587013245,,,
12.8593750000,1,-36.5537414551,,,
12.8750000000,1,-33.8677711487,,,
12.8906250000,1,-30.8640708923,,,
12.9062500000,1,-27.4272499084,,,
12.9218750000,1,-23.7596397400,,,
12.9375000000,1,-20.2613792419,,,
12.9531250000,1,-17.3323402405,,,
12.9687500000,1,-15.1855802536,,,
12.9843750000,1,-13.7393198013,,,
13.0000000000,1,-12.6753501892,,,
13.0156250000,1,-11.5716199875,,,
13.0312500000,1,-10.0991802216,,,
13.0468750000,1,-8.1568298340,,,
13.0625000000,1,-5.8818359375,,,
13.0781250000,1,-3.5685420036,,,
13.0937500000,1,-1.5308840275,,,
13.1093750000,1,0.0606384315,,,
13.1250000000,1,1.2458499670,,,
13.1406250000,1,2.2466740608,,,
13.1562500000,1,3.3435060978,,,
13.1718750000,1,4.7463378906,,,
13.1875000000,1,6.4671330452,,,
13.2031250000,1,8.3153076172,,,
13.2187500000,1,9.9998779297,,,
13.2343750000,1,11.2298603058,,,
13.2500000000,1,11.8244600296,,,
13.2656250000,1,11.7266502380,,,
13.2812500000,1,10.9775695801,,,
13.2968750000,1,9.6625671387,,,
13.3125000000,1,7.8937678337,,,
13.3281250000,1,5.8089289665,,,
13.3437500000,1,3.6092219353,,,
13.3593750000,1,1.5332950354,,,
13.3750000000,1,-0.1918639988,,,
13.3906250000,1,-1.4209589958,,,
13.4062500000,1,-2.1254270077,,,
13.4218750000,1,-2.3762209415,,,
13.4375000000,1,-2.3025510311,,,
13.4531250000,1,-2.0198359489,,,
13.4687500000,1,-1.6162110567,,,
13.4843750000,1,-1.1758420467,,,
13.5000000000,1,-0.7879639268,,,
13.5156250000,1,-0.5619812012,,,
13.5312500000,1,-0.5823364258,,,
13.5468750000,1,-0.8676146865,,,
13.5625000000,1,-1.3379820585,,,
13.5781250000,1,-1.8398129940,,,
13.5937500000,1,-2.2173769474,,,
13.6093750000,1,-2.3616640568,,,
13.6250000000,1,-2.2831120491,,,
13.6406250000,1,-2.0788569450,,,
13.6562500000,1,-1.9031679630,,,
13.6718750000,1,-1.8720090389,,,
13.6875000000,1,-2.0290830135,,,
13.7031250000,1,-2.3279418945,,,
13.7187500000,1,-2.6524350643,,,
13.7343750000,1,-2.8935239315,,,
13.7500000000,1,-2.9922790527,,,
13.7656250000,1,-2.9891970158,,,
13.7812500000,1,-2.9868769646,,,
13.7968750000,1,-3.0952150822,,,
13.8125000000,1,-3.3444519043,,,
13.8281250000,1,-3.6638789177,,,
13.8437500000,1,-3.8946230412,,,
13.8593750000,1,-3.8721919060,,,
13.8750000000,1,-3.5289609432,,,
13.8906250000,1,-2.9230349064,,,
13.9062500000,1,-2.2252199650,,,
13.9218750000,1,-1.6051939726,,,
13.9375000000,1,-1.1687929630,,,
13.9531250000,1,-0.9210205078,,,
13.9687500000,1,-0.7813720703,,,
13.9843750000,1,-0.6839600205,,,
14.0000000000,1,-0.6035460830,,,
14.0156250000,1,-0.5767822266,,,
14.0312500000,1,-0.6352844238,,,
14.0468750000,1,-0.7902222276,,,
14.0625000000,1,-1.0025019646,,,
14.0781250000,1,-1.1999210119,,,
14.0937500000,1,-1.3257750273,,,
14.1093750000,1,-1.3412480354,,,
14.1250000000,1,-1.2385859489,,,
14.1406250000,1,-1.0206300020,,,
14.1562500000,1,-0.7141417861,,,
14.1718750000,1,-0.3514403999,,,
14.1875000000,1,0.0118408203,,,
14.2031250000,1,0.3198853135,,,
14.2187500000,1,0.5457152724,,,
14.2343750000,1,0.6964722276,,,
14.2500000000,1,0.8237305284,,,
14.2656250000,1,0.9699097276,,,
14.2812500000,1,1.1315920353,,,
14.2968750000,1,1.2415770292,,,
14.3125000000,1,1.2285460234,,,
14.3281250000,1,1.0703740120,,,
14.3437500000,1,0.8363646865,,,
14.3593750000,1,0.6671447754,,,
14.3750000000,1,0.6649169922,,,
14.3906250000,1,0.8319396973,,,
14.4062500000,1,1.0376280546,,,
14.4218750000,1,1.1071779728,,,
14.4375000000,1,0.9308167100,,,
14.4531250000,1,0.5278624892,,,
14.4687500000,1,0.0532836914,,,
14.4843750000,1,-0.3052062988,,,
14.5000000000,1,-0.4295043945,,,
14.5156250000,1,-0.3266907036,,,
14.5312500000,1,-0.0924682617,,,
14.5468750000,1,0.1581726074,,,
14.5625000000,1,0.3629761040,,,
14.5781250000,1,0.5175476074,,,
14.5937500000,1,0.6432800293,,,
14.6093750000,1,0.7413635254,,,
14.6250000000,1,0.7771605849,,,
14.6406250000,1,0.7181395888,,,
14.6562500000,1,0.5759583116,,,
14.6718750000,1,0.3887633979,,,
14.6875000000,1,0.2188721001,,,
14.7031250000,1,0.1094359979,,,
14.7187500000,1,0.0611572303,,,
14.7343750000,1,0.0374450684,,,
14.7500000000,1,0.0027465820,,,
14.7656250000,1,-0.0606689490,,,
14.7812500000,1,-0.1365966946,,,
14.7968750000,1,-0.1896056980,,,
14.8125000000,1,-0.1950989068,,,
14.8281250000,1,-0.1489868015,,,
14.8437500000,1,-0.0640563965,,,
14.8593750000,1,0.0542297401,,,
14.8750000000,1,0.1849669963,,,
14.8906250000,1,0.3369140923,,,
14.9062500000,1,0.5236206055,,,
14.9218750000,1,0.7518311143,,,
14.9375000000,1,1.0200200081,,,
14.9531250000,1,1.2827450037,,,
14.9687500000,1,1.4796750546,,,
14.9843750000,1,1.5257569551,,,
15.0000000000,1,1.3548890352,,,
15.0156250000,1,0.9501038194,,,
15.0312500000,1,0.3733215034,,,
15.0468750000,1,-0.2586365044,,,
15.0625000000,1,-0.8046569824,,,
15.0781250000,1,-1.1483759880,,,
15.0937500000,1,-1.2481379509,,,
15.1093750000,1,-1.1482850313,,,
15.1250000000,1,-0.9447020888,,,
15.1406250000,1,-0.7496948242,,,
15.1562500000,1,-0.6253662109,,,
15.1718750000,1,-0.5763854980,,,
15.1875000000,1,-0.5559998155,,,
15.2031250000,1,-0.4984130859,,,
15.2187500000,1,-0.3672791123,,,
15.2343750000,1,-0.1905518025,,,
15.2500000000,1,-0.0427246094,,,
15.2656250000,1,-0.0118713398,,,
15.2812500000,1,-0.1571045071,,,
15.2968750000,1,-0.4530028999,,,
15.3125000000,1,-0.8056945801,,,
15.3281250000,1,-1.1061710119,,,
15.3437500000,1,-1.2880250216,,,
15.3593750000,1,-1.3364870548,,,
15.3750000000,1,-1.3085329533,,,
15.3906250000,1,-1.2707209587,,,
15.4062500000,1,-1.2396550179,,,
15.4218750000,1,-1.1704100370,,,
15.4375000000,1,-0.9763793945,,,
15.4531250000,1,-0.6021729112,,,
15.4687500000,1,-0.0765991211,,,
15.4843750000,1,0.4865416884,,,
15.5000000000,1,0.9320678711,,,
15.5156250000,1,1.1574399471,,,
15.5312500000,1,1.1658020020,,,
15.5468750000,1,1.0649410486,,,
15.5625000000,1,1.0059200525,,,
15.5781250000,1,1.0898740292,,,
15.5937500000,1,1.3221440315,,,
15.6093750000,1,1.5961300135,,,
15.6250000000,1,1.7748409510,,,
15.6406250000,1,1.7541199923,,,
15.6562500000,1,1.5533750057,,,
15.6718750000,1,1.2853699923,,,
15.6875000000,1,1.0823060274,,,
15.7031250000,1,1.0179749727,,,
15.7187500000,1,1.0543210506,,,
15.7343750000,1,1.0714110136,,,
15.7500000000,1,0.9324340820,,,
15.7656250000,1,0.5892639160,,,
15.7812500000,1,0.1002196968,,,
15.7968750000,1,-0.3927612007,,,
15.8125000000,1,-0.7383118272,,,
15.8281250000,1,-0.8734741211,,,
15.8437500000,1,-0.8388062119,,,
15.8593750000,1,-0.7508850098,,,
15.8750000000,1,-0.7061157227,,,
15.8906250000,1,-0.7503051758,,,
15.9062500000,1,-0.8370667100,,,
15.9218750000,1,-0.8882446289,,,
15.9375000000,1,-0.8439940810,,,
15.9531250000,1,-0.6947937012,,,
15.9687500000,1,-0.4923706055,,,
15.9843750000,1,-0.3033752143,,,
16.0000000000,2,-0.1821289063,,,
16.0156250000,2,-0.1251526028,,,
16.0312500000,2,-0.1214599982,,,
16.0468750000,2,-0.1432799995,,,
16.0625000000,2,-0.1799010932,,,
16.0781250000,2,-0.2465209961,,,
16.0937500000,2,-0.3610534966,,,
16.1093750000,2,-0.5238037109,,,
16.1250000000,2,-0.6925354004,,,
16.1406250000,2,-0.8257446289,,,
16.1562500000,2,-0.8574218750,,,
16.1718750000,2,-0.7539063096,,,
16.1875000000,2,-0.5235900879,,,
16.2031250000,2,-0.2373961955,,,
16.2187500000,2,-0.0021057129,,,
16.2343750000,2,0.0939941406,,,
16.2500000000,2,0.0114440899,,,
16.2656250000,2,-0.1946105957,,,
16.2812500000,2,-0.4044494927,,,
16.2968750000,2,-0.4851073921,,,
16.3125000000,2,-0.3508301079,,,
16.3281250000,2,-0.0089721680,,,
16.3437500000,2,0.4571532905,,,
16.3593750000,2,0.9148560166,,,
16.3750000000,2,1.2643740177,,,
16.3906250000,2,1.4360049963,,,
16.4062500000,2,1.4295040369,,,
16.4218750000,2,1.2801510096,,,
16.4375000000,2,1.0621030331,,,
16.4531250000,2,0.8410338759,,,
16.4687500000,2,0.6703491211,,,
16.4843750000,2,0.5661621094,,,
16.5000000000,2,0.5136107802,,,
16.5156250000,2,0.4980469048,,,
16.5312500000,2,0.4841003120,,,
16.5468750000,2,0.4537963867,,,
16.5625000000,2,0.3947449028,,,
16.5781250000,2,0.3074035943,,,
16.5937500000,2,0.1904297024,,,
16.6093750000,2,0.0567016602,,,
16.6250000000,2,-0.0650634766,,,
16.6406250000,2,-0.1419373006,,,
16.6562500000,2,-0.1465148926,,,
16.6718750000,2,-0.0692443773,,,
16.6875000000,2,0.0713500977,,,
16.7031250000,2,0.2571105957,,,
16.7187500000,2,0.4781799018,,,
16.7343750000,2,0.7604064941,,,
16.7500000000,2,1.1425780058,,,
16.7656250000,2,1.6286319494,,,
16.7812500000,2,2.1634221077,,,
16.7968750000,2,2.6211550236,,,
16.8125000000,2,2.8623659611,,,
16.8281250000,2,2.7824709415,,,
16.8437500000,2,2.3764040470,,,
16.8593750000,2,1.7274780273,,,
16.8750000000,2,0.9751586914,,,
16.8906250000,2,0.2445679009,,,
16.9062500000,2,-0.3958435059,,,
16.9218750000,2,-0.9351807237,,,
16.9375000000,2,-1.3943480253,,,
16.9531250000,2,-1.7789000273,,,
16.9687500000,2,-2.0801088810,,,
16.9843750000,2,-2.2812190056,,,
17.0000000000,2,-2.3821721077,,,
17.0156250000,2,-2.4005429745,,,
17.0312500000,2,-2.3591001034,,,
17.0468750000,2,-2.2766718864,,,
17.0625000000,2,-2.1580510139,,,
17.0781250000,2,-2.0179140568,,,
17.0937500000,2,-1.8780519962,,,
17.1093750000,2,-1.7579649687,,,
17.1250000000,2,-1.6770019531,,,
17.1406250000,2,-1.6387330294,,,
17.1562500000,2,-1.6433409452,,,
17.1718750000,2,-1.6952819824,,,
17.1875000000,2,-1.8058470488,,,
17.2031250000,2,-1.9424129725,,,
17.2187500000,2,-2.0332949162,,,
17.2343750000,2,-1.9557499886,,,
17.2500000000,2,-1.6067500114,,,
17.2656250000,2,-0.9798583984,,,
17.2812500000,2,-0.1925964057,,,
17.2968750000,2,0.5414733887,,,
17.3125000000,2,1.0268549919,,,
17.3281250000,2,1.1633299589,,,
17.3437500000,2,1.0122070313,,,
17.3593750000,2,0.7400817871,,,
17.3750000000,2,0.5312194824,,,
17.3906250000,2,0.4895325005,,,
17.4062500000,2,0.5913085938,,,
17.4218750000,2,0.7314453125,,,
17.4375000000,2,0.7818297744,,,
17.4531250000,2,0.6723937988,,,
17.4687500000,2,0.4186095893,,,
17.4843750000,2,0.1157532036,,,
17.5000000000,2,-0.1144409031,,,
17.5156250000,2,-0.1777953953,,,
17.5312500000,2,-0.0417175293,,,
17.5468750000,2,0.2315673977,,,
17.5625000000,2,0.5372924805,,,
17.5781250000,2,0.7535706162,,,
17.5937500000,2,0.8056030273,,,
17.6093750000,2,0.6879578233,,,
17.6250000000,2,0.4415893853,,,
17.6406250000,2,0.1366576999,,,
17.6562500000,2,-0.1399230957,,,
17.6718750000,2,-0.3135680854,,,
17.6875000000,2,-0.3272705078,,,
17.7031250000,2,-0.1597899944,,,
17.7187500000,2,0.1599120945,,,
17.7343750000,2,0.5516663194,,,
17.7500000000,2,0.9161682129,,,
17.7656250000,2,1.1614379883,,,
17.7812500000,2,1.2358399630,,,
17.7968750000,2,1.1232910156,,,
17.8125000000,2,0.8458557129,,,
17.8281250000,2,0.4432067871,,,
17.8437500000,2,-0.0148620596,,,
17.8593750000,2,-0.4320679009,,,
17.8750000000,2,-0.6913756728,,,
17.8906250000,2,-0.6920166016,,,
17.9062500000,2,-0.4223937988,,,
17.9218750000,2,0.0225830097,,,
17.9375000000,2,0.4676819146,,,
17.9531250000,2,0.7216796875,,,
17.9687500000,2,0.6677855849,,,
17.9843750000,2,0.3229064941,,,
18.0000000000,2,-0.1925964057,,,
18.0156250000,2,-0.7204285264,,,
18.0312500000,2,-1.1312869787,,,
18.0468750000,2,-1.3544009924,,,
18.0625000000,2,-1.3712769747,,,
18.0781250000,2,-1.1873170137,,,
18.0937500000,2,-0.8072814941,,,
18.1093750000,2,-0.2492371053,,,
18.1250000000,2,0.4115295112,,,
18.1406250000,2,1.0531619787,,,
18.1562500000,2,1.5320739746,,,
18.1718750000,2,1.7242130041,,,
18.1875000000,2,1.5909119844,,,
18.2031250000,2,1.1725460291,,,
18.2187500000,2,0.5988770127,,,
18.2343750000,2,0.0391845703,,,
18.2500000000,2,-0.3458862007,,,
18.2656250000,2,-0.4513550103,,,
18.2812500000,2,-0.2481994927,,,
18.2968750000,2,0.1819152981,,,
18.3125000000,2,0.6702880859,,,
18.3281250000,2,1.0312500000,,,
18.3437500000,2,1.1246639490,,,
18.3593750000,2,0.9127197266,,,
18.3750000000,2,0.4881896973,,,
18.3906250000,2,0.0199279804,,,
18.4062500000,2,-0.3070679009,,,
18.4218750000,2,-0.3961487114,,,
18.4375000000,2,-0.2587890923,,,
18.4531250000,2,-0.0075378418,,,
18.4687500000,2,0.2192993015,,,
18.4843750000,2,0.3424377143,,,
18.5000000000,2,0.3717041016,,,
18.5156250000,2,0.3830566108,,,
18.5312500000,2,0.4534606934,,,
18.5468750000,2,0.6087340713,,,
18.5625000000,2,0.7819519043,,,
18.5781250000,2,0.8645935059,,,
18.5937500000,2,0.7673950195,,,
18.6093750000,2,0.4734801948,,,
18.6250000000,2,0.0484924316,,,
18.6406250000,2,-0.3880920112,,,
18.6562500000,2,-0.7197875977,,,
18.6718750000,2,-0.8961486816,,,
18.6875000000,2,-0.9331359863,,,
18.7031250000,2,-0.8933104873,,,
18.7187500000,2,-0.8312683105,,,
18.7343750000,2,-0.7608643174,,,
18.7500000000,2,-0.6469420791,,,
18.7656250000,2,-0.4602051079,,,
18.7812500000,2,-0.1887512058,,,
18.7968750000,2,0.1352843940,,,
18.8125000000,2,0.4393920898,,,
18.8281250000,2,0.6433104873,,,
18.8437500000,2,0.6900330186,,,
18.8593750000,2,0.5624083877,,,
18.8750000000,2,0.3129271865,,,
18.8906250000,2,0.0276184101,,,
18.9062500000,2,-0.1986389011,,,
18.9218750000,2,-0.3157654107,,,
18.9375000000,2,-0.3299866021,,,
18.9531250000,2,-0.3073120117,,,
18.9687500000,2,-0.3224791884,,,
18.9843750000,2,-0.4064635932,,,
19.0000000000,2,-0.5253906250,,,
19.0156250000,2,-0.6054381728,,,
19.0312500000,2,-0.5621643066,,,
19.0468750000,2,-0.3613586128,,,
19.0625000000,2,-0.0347290002,,,
19.0781250000,2,0.3466796875,,,
19.0937500000,2,0.6929016113,,,
19.1093750000,2,0.9536132813,,,
19.1250000000,2,1.1140140295,,,
19.1406250000,2,1.1738590002,,,
19.1562500000,2,1.1358339787,,,
19.1718750000,2,0.9892882705,,,
19.1875000000,2,0.7172852159,,,
19.2031250000,2,0.3433837891,,,
19.2187500000,2,-0.0742492676,,,
19.2343750000,2,-0.4640502930,,,
19.2500000000,2,-0.7563781738,,,
19.2656250000,2,-0.9212952256,,,
19.2812500000,2,-0.9749146104,,,
19.2968750000,2,-0.9638367295,,,
19.3125000000,2,-0.9293518066,,,
19.3281250000,2,-0.8893737793,,,
19.3437500000,2,-0.8303833008,,,
19.3593750000,2,-0.7282103896,,,
19.3750000000,2,-0.5818787217,,,
19.3906250000,2,-0.4114989936,,,
19.4062500000,2,-0.2655639946,,,
19.4218750000,2,-0.2008666992,,,
19.4375000000,2,-0.2241820991,,,
19.4531250000,2,-0.2983092964,,,
19.4687500000,2,-0.3724060059,,,
19.4843750000,2,-0.4075011909,,,
19.5000000000,2,-0.4089354873,,,
19.5156250000,2,-0.4126892090,,,
19.5312500000,2,-0.4506225884,,,
19.5468750000,2,-0.5272216797,,,
19.5625000000,2,-0.6135253906,,,
19.5781250000,2,-0.6695861816,,,
19.5937500000,2,-0.6763610840,,,
19.6093750000,2,-0.6320189834,,,
19.6250000000,2,-0.5381165147,,,
19.6406250000,2,-0.3959350884,,,
19.6562500000,2,-0.2054443061,,,
19.6718750000,2,0.0257263202,,,
19.6875000000,2,0.2639771104,,,
19.7031250000,2,0.4664916992,,,
19.7187500000,2,0.6074523926,,,
19.7343750000,2,0.7016906738,,,
19.7500000000,2,0.7840576172,,,
19.7656250000,2,0.9003601074,,,
19.7812500000,2,1.0433349609,,,
19.7968750000,2,1.1500550508,,,
19.8125000000,2,1.1340329647,,,
19.8281250000,2,0.9479370117,,,
19.8437500000,2,0.6081848145,,,
19.8593750000,2,0.2159118950,,,
19.8750000000,2,-0.1083984002,,,
19.8906250000,2,-0.2630614936,,,
19.9062500000,2,-0.2151488960,,,
19.9218750000,2,-0.0174865704,,,
19.9375000000,2,0.2126770020,,,
19.9531250000,2,0.3429259956,,,
19.9687500000,2,0.2686767876,,,
19.9843750000,2,-0.0275268592,,,
20.0000000000,2,-0.4850158989,,,
20.0156250000,2,-0.9712830186,,,
20.0312500000,2,-1.3416750431,,,
20.0468750000,2,-1.5006409883,,,
20.0625000000,2,-1.4329220057,,,
20.0781250000,2,-1.2165830135,,,
20.0937500000,2,-0.9745789170,,,
20.1093750000,2,-0.8265076280,,,
20.1250000000,2,-0.8079528809,,,
20.1406250000,2,-0.8616638184,,,
20.1562500000,2,-0.8588562012,,,
20.1718750000,2,-0.7083435059,,,
20.1875000000,2,-0.4118346870,,,
20.2031250000,2,-0.0646057129,,,
20.2187500000,2,0.1825256050,,,
20.2343750000,2,0.2188721001,,,
20.2500000000,2,0.0211791992,,,
20.2656250000,2,-0.3093262017,,,
20.2812500000,2,-0.6230468750,,,
20.2968750000,2,-0.7897644043,,,
20.3125000000,2,-0.7634583116,,,
20.3281250000,2,-0.5782470703,,,
20.3437500000,2,-0.3141784966,,,
20.3593750000,2,-0.0288391095,,,
20.3750000000,2,0.2709656060,,,
20.3906250000,2,0.6069946289,,,
20.4062500000,2,0.9880371094,,,
20.4218750000,2,1.3848570585,,,
20.4375000000,2,1.7355959415,,,
20.4531250000,2,1.9838260412,,,
20.4687500000,2,2.1079099178,,,
20.4843750000,2,2.1194150448,,,
20.5000000000,2,2.0423579216,,,
20.5156250000,2,1.8772280216,,,
20.5312500000,2,1.6012270451,,,
20.5468750000,2,1.2120059729,,,
20.5625000000,2,0.7409362793,,,
20.5781250000,2,0.2930297852,,,
20.5937500000,2,-0.0129699698,,,
20.6093750000,2,-0.1121215969,,,
20.6250000000,2,-0.0344848596,,,
20.6406250000,2,0.0791320801,,,
20.6562500000,2,0.0923156664,,,
20.6718750000,2,-0.0643920898,,,
20.6875000000,2,-0.3336487114,,,
20.7031250000,2,-0.5837097168,,,
20.7187500000,2,-0.6844177246,,,
20.7343750000,2,-0.5811768174,,,
20.7500000000,2,-0.3296813965,,,
20.7656250000,2,-0.0516967811,,,
20.7812500000,2,0.1495056003,,,
20.7968750000,2,0.2387084961,,,
20.8125000000,2,0.2497252971,,,
20.8281250000,2,0.2603149116,,,
20.8437500000,2,0.3249512017,,,
20.8593750000,2,0.4399718940,,,
20.8750000000,2,0.5570374131,,,
20.8906250000,2,0.5973815918,,,
20.9062500000,2,0.5057678223,,,
20.9218750000,2,0.2726134956,,,
20.9375000000,2,-0.0496215783,,,
20.9531250000,2,-0.3580627143,,,
20.9687500000,2,-0.5178223252,,,
20.9843750000,2,-0.4482727051,,,
21.0000000000,2,-0.1519470066,,,
21.0156250000,2,0.2692871094,,,
21.0312500000,2,0.6418151855,,,
21.0468750000,2,0.8167418838,,,
21.0625000000,2,0.7167664170,,,
21.0781250000,2,0.3890380859,,,
21.0937500000,2,-0.0462646484,,,
21.1093750000,2,-0.4548340142,,,
21.1250000000,2,-0.7449645996,,,
21.1406250000,2,-0.8950806260,,,
21.1562500000,2,-0.9413756728,,,
21.1718750000,2,-0.9295043945,,,
21.1875000000,2,-0.8656311035,,,
21.2031250000,2,-0.7307128906,,,
21.2187500000,2,-0.4959717095,,,
21.2343750000,2,-0.1799315959,,,
21.2500000000,2,0.1464539021,,,
21.2656250000,2,0.3638611138,,,
21.2812500000,2,0.4111937881,,,
21.2968750000,2,0.3088378906,,,
21.3125000000,2,0.1642760932,,,
21.3281250000,2,0.1157227010,,,
21.3437500000,2,0.2430115044,,,
21.3593750000,2,0.5129088759,,,
21.3750000000,2,0.7829895020,,,
21.3906250000,2,0.8807982802,,,
21.4062500000,2,0.7076416016,,,
21.4218750000,2,0.2878417969,,,
21.4375000000,2,-0.2392577976,,,
21.4531250000,2,-0.6849976182,,,
21.4687500000,2,-0.9057921767,,,
21.4843750000,2,-0.8804016113,,,
21.5000000000,2,-0.6990051270,,,
21.5156250000,2,-0.4947204888,,,
21.5312500000,2,-0.3845520020,,,
21.5468750000,2,-0.4044494927,,,
21.5625000000,2,-0.5102539063,,,
21.5781250000,2,-0.6311646104,,,
21.5937500000,2,-0.7087401748,,,
21.6093750000,2,-0.7354735732,,,
21.6250000000,2,-0.7546082139,,,
21.6406250000,2,-0.8040465713,,,
21.6562500000,2,-0.8961486816,,,
21.6718750000,2,-1.0005799532,,,
21.6875000000,2,-1.0597529411,,,
21.7031250000,2,-1.0212099552,,,
21.7187500000,2,-0.8711243272,,,
21.7343750000,2,-0.6182556152,,,
21.7500000000,2,-0.2843323052,,,
21.7656250000,2,0.0903320313,,,
21.7812500000,2,0.4676513970,,,
21.7968750000,2,0.7852172852,,,
21.8125000000,2,0.9764708877,,,
21.8281250000,2,0.9901428223,,,
21.8437500000,2,0.8157349229,,,
21.8593750000,2,0.5023192763,,,
21.8750000000,2,0.1546631008,,,
21.8906250000,2,-0.1110534966,,,
21.9062500000,2,-0.2250977010,,,
21.9218750000,2,-0.1811829060,,,
21.9375000000,2,-0.0360107385,,,
21.9531250000,2,0.1312561035,,,
21.9687500000,2,0.2556762993,,,
21.9843750000,2,0.3029175103,,,
22.0000000000,2,0.2713927925,,,
22.0156250000,2,0.2019958049,,,
22.0312500000,2,0.1556701958,,,
22.0468750000,2,0.1910399944,,,
22.0625000000,2,0.3442383111,,,
22.0781250000,2,0.5950316787,,,
22.0937500000,2,0.8724365234,,,
22.1093750000,2,1.0802309513,,,
22.1250000000,2,1.1315000057,,,
22.1406250000,2,1.0018310547,,,
22.1562500000,2,0.7433472276,,,
22.1718750000,2,0.4747008979,,,
22.1875000000,2,0.3063965142,,,
22.2031250000,2,0.3089294136,,,
22.2187500000,2,0.4532166123,,,
22.2343750000,2,0.6453856826,,,
22.2500000000,2,0.7599486709,,,
22.2656250000,2,0.7274169922,,,
22.2812500000,2,0.5561218262,,,
22.2968750000,2,0.3330687881,,,
22.3125000000,2,0.1512756050,,,
22.3281250000,2,0.0753784180,,,
22.3437500000,2,0.1013794020,,,
22.3593750000,2,0.1397400051,,,
22.3750000000,2,0.0975036621,,,
22.3906250000,2,-0.0782775879,,,
22.4062500000,2,-0.3649596870,,,
22.4218750000,2,-0.6727905273,,,
22.4375000000,2,-0.9080504775,,,
22.4531250000,2,-1.0050959587,,,
22.4687500000,2,-0.9547728896,,,
22.4843750000,2,-0.8021240234,,,
22.5000000000,2,-0.6120300293,,,
22.5156250000,2,-0.4314574897,,,
22.5312500000,2,-0.2865295112,,,
22.5468750000,2,-0.1866759956,,,
22.5625000000,2,-0.1165160984,,,
22.5781250000,2,-0.0743408203,,,
22.5937500000,2,-0.0448608398,,,
22.6093750000,2,-0.0138244601,,,
22.6250000000,2,0.0203857403,,,
22.6406250000,2,0.0477294885,,,
22.6562500000,2,0.0462951697,,,
22.6718750000,2,-0.0066528320,,,
22.6875000000,2,-0.1335449070,,,
22.7031250000,2,-0.3383483887,,,
22.7187500000,2,-0.6141356826,,,
22.7343750000,2,-0.9337769151,,,
22.7500000000,2,-1.2663270235,,,
22.7656250000,2,-1.5541989803,,,
22.7812500000,2,-1.7617189884,,,
22.7968750000,2,-1.8448179960,,,
22.8125000000,2,-1.7879029512,,,
22.8281250000,2,-1.5919799805,,,
22.8437500000,2,-1.2671509981,,,
22.8593750000,2,-0.8686218262,,,
22.8750000000,2,-0.4586181939,,,
22.8906250000,2,-0.1143188030,,,
22.9062500000,2,0.1214905009,,,
22.9218750000,2,0.2410888970,,,
22.9375000000,2,0.2825317085,,,
22.9531250000,2,0.3242797852,,,
22.9687500000,2,0.4301452935,,,
22.9843750000,2,0.6228942871,,,
23.0000000000,2,0.8627930284,,,
23.0156250000,2,1.0767209530,,,
23.0312500000,2,1.1918330193,,,
23.0468750000,2,1.1898189783,,,
23.0625000000,2,1.1147160530,,,
23.0781250000,2,1.0283199549,,,
23.0937500000,2,0.9740601182,,,
23.1093750000,2,0.9463195801,,,
23.1250000000,2,0.9143065810,,,
23.1406250000,2,0.8388367295,,,
23.1562500000,2,0.7059326172,,,
23.1718750000,2,0.5379332900,,,
23.1875000000,2,0.3713074028,,,
23.2031250000,2,0.2264709026,,,
23.2187500000,2,0.1260070950,,,
23.2343750000,2,0.0689086914,,,
23.2500000000,2,0.0418090783,,,
23.2656250000,2,0.0360412598,,,
23.2812500000,2,0.0405883789,,,
23.2968750000,2,0.0534057617,,,
23.3125000000,2,0.0734252930,,,
23.3281250000,2,0.0955200195,,,
23.3437500000,2,0.1229552999,,,
23.3593750000,2,0.1470032036,,,
23.3750000000,2,0.1671448052,,,
23.3906250000,2,0.1834105998,,,
23.4062500000,2,0.2300720066,,,
23.4218750000,2,0.3303222954,,,
23.4375000000,2,0.5036010742,,,
23.4531250000,2,0.7355957031,,,
23.4687500000,2,0.9774169922,,,
23.4843750000,2,1.1718139648,,,
23.5000000000,2,1.2853699923,,,
23.5156250000,2,1.3275450468,,,
23.5312500000,2,1.3162540197,,,
23.5468750000,2,1.2728270292,,,
23.5625000000,2,1.1754759550,,,
23.5781250000,2,0.9774169922,,,
23.5937500000,2,0.6516724229,,,
23.6093750000,2,0.2163085938,,,
23.6250000000,2,-0.2525329888,,,
23.6406250000,2,-0.6449279785,,,
23.6562500000,2,-0.8705750108,,,
23.6718750000,2,-0.9015502930,,,
23.6875000000,2,-0.7815247178,,,
23.7031250000,2,-0.6190186143,,,
23.7187500000,2,-0.5340576172,,,
23.7343750000,2,-0.6208801270,,,
23.7500000000,2,-0.8924865723,,,
23.7656250000,2,-1.2835689783,,,
23.7812500000,2,-1.6615300179,,,
23.7968750000,2,-1.8840939999,,,
23.8125000000,2,-1.8639219999,,,
23.8281250000,2,-1.6174319983,,,
23.8437500000,2,-1.2490839958,,,
23.8593750000,2,-0.8982543945,,,
23.8750000000,2,-0.6688231826,,,
23.8906250000,2,-0.5790100098,,,
23.9062500000,2,-0.5806273818,,,
23.9218750000,2,-0.6123657227,,,
23.9375000000,2,-0.6364440918,,,
23.9531250000,2,-0.6641541123,,,
23.9687500000,2,-0.7296752930,,,
23.9843750000,2,-0.8448792100,,,
24.0000000000,3,-0.9918212891,,,
24.0156250000,3,-1.1222840548,,,
24.0312500000,3,-1.1932070255,,,
24.0468750000,3,-1.1788940430,,,
24.0625000000,3,-1.0843509436,,,
24.0781250000,3,-0.9411315918,,,
24.0937500000,3,-0.7909545898,,,
24.1093750000,3,-0.6540833116,,,
24.1250000000,3,-0.5253601074,,,
24.1406250000,3,-0.3610534966,,,
24.1562500000,3,-0.0968017578,,,
24.1718750000,3,0.3090820014,,,
24.1875000000,3,0.8160399795,,,
24.2031250000,3,1.3072509766,,,
24.2187500000,3,1.6114809513,,,
24.2343750000,3,1.5928039551,,,
24.2500000000,3,1.2383730412,,,
24.2656250000,3,0.6721497178,,,
24.2812500000,3,0.1154175028,,,
24.2968750000,3,-0.2207335979,,,
24.3125000000,3,-0.2261352986,,,
24.3281250000,3,0.0466918908,,,
24.3437500000,3,0.4261780083,,,
24.3593750000,3,0.7158812881,,,
24.3750000000,3,0.7858886719,,,
24.3906250000,3,0.6317139268,,,
24.4062500000,3,0.3637390137,,,
24.4218750000,3,0.1334228963,,,
24.4375000000,3,0.0447082482,,,
24.4531250000,3,0.1285706013,,,
24.4687500000,3,0.3189392090,,,
24.4843750000,3,0.5133361816,,,
24.5000000000,3,0.6120911241,,,
24.5156250000,3,0.5767211914,,,
24.5312500000,3,0.4281615913,,,
24.5468750000,3,0.2310485989,,,
24.5625000000,3,0.0523986816,,,
24.5781250000,3,-0.0659789965,,,
24.5937500000,3,-0.1152954027,,,
24.6093750000,3,-0.0972289965,,,
24.6250000000,3,-0.0258483905,,,
24.6406250000,3,0.0723877028,,,
24.6562500000,3,0.1586914063,,,
24.6718750000,3,0.1795959026,,,
24.6875000000,3,0.0965576172,,,
24.7031250000,3,-0.0907287598,,,
24.7187500000,3,-0.3372497857,,,
24.7343750000,3,-0.5678710938,,,
24.7500000000,3,-0.6955565810,,,
24.7656250000,3,-0.6720581055,,,
24.7812500000,3,-0.4894714057,,,
24.7968750000,3,-0.1954040974,,,
24.8125000000,3,0.1458435059,,,
24.8281250000,3,0.4627074897,,,
24.8437500000,3,0.7002562881,,,
24.8593750000,3,0.8291320801,,,
24.8750000000,3,0.8376770020,,,
24.8906250000,3,0.7186890244,,,
24.9062500000,3,0.4961547852,,,
24.9218750000,3,0.2199707031,,,
24.9375000000,3,-0.0350647010,,,
24.9531250000,3,-0.1906737983,,,
24.9687500000,3,-0.2064819038,,,
24.9843750000,3,-0.1047362983,,,
25.0000000000,3,0.0459289588,,,
25.0156250000,3,0.1601257026,,,
25.0312500000,3,0.1894530952,,,
25.0468750000,3,0.1560059041,,,
25.0625000000,3,0.1474304050,,,
25.0781250000,3,0.2448424995,,,
25.0937500000,3,0.4870910943,,,
25.1093750000,3,0.8301392198,,,
25.1250000000,3,1.1712340117,,,
25.1406250000,3,1.3912659883,,,
25.1562500000,3,1.4261469841,,,
25.1718750000,3,1.2659909725,,,
25.1875000000,3,0.9515991211,,,
25.2031250000,3,0.5353087783,,,
25.2187500000,3,0.0642089769,,,
25.2343750000,3,-0.4197083116,,,
25.2500000000,3,-0.8541870117,,,
25.2656250000,3,-1.1766359806,,,
25.2812500000,3,-1.3366700411,,,
25.2968750000,3,-1.3324279785,,,
25.3125000000,3,-1.2027590275,,,
25.3281250000,3,-1.0102230310,,,
25.3437500000,3,-0.8027954102,,,
25.3593750000,3,-0.6197509766,,,
25.3750000000,3,-0.4970703125,,,
25.3906250000,3,-0.4707641900,,,
25.4062500000,3,-0.5916138291,,,
25.4218750000,3,-0.8879395127,,,
25.4375000000,3,-1.3073430061,,,
25.4531250000,3,-1.7284849882,,,
25.4687500000,3,-1.9818730354,,,
25.4843750000,3,-1.9380799532,,,
25.5000000000,3,-1.5764770508,,,
25.5156250000,3,-0.9977722168,,,
25.5312500000,3,-0.3762207031,,,
25.5468750000,3,0.1343383938,,,
25.5625000000,3,0.4835205078,,,
25.5781250000,3,0.7076721191,,,
25.5937500000,3,0.8986815810,,,
25.6093750000,3,1.1149289608,,,
25.6250000000,3,1.3699339628,,,
25.6406250000,3,1.6120610237,,,
25.6562500000,3,1.7803039551,,,
25.6718750000,3,1.8534549475,,,
25.6875000000,3,1.8318790197,,,
25.7031250000,3,1.7480770350,,,
25.7187500000,3,1.6407170296,,,
25.7343750000,3,1.5204470158,,,
25.7500000000,3,1.3847049475,,,
25.7656250000,3,1.2187809944,,,
25.7812500000,3,1.0096440315,,,
25.7968750000,3,0.7301024795,,,
25.8125000000,3,0.3773499131,,,
25.8281250000,3,-0.0432434082,,,
25.8437500000,3,-0.4809874892,,,
25.8593750000,3,-0.8516541123,,,
25.8750000000,3,-1.0621949434,,,
25.8906250000,3,-1.0402220488,,,
25.9062500000,3,-0.7763977051,,,
25.9218750000,3,-0.3369446099,,,
25.9375000000,3,0.1571960002,,,
25.9531250000,3,0.5653687119,,,
25.9687500000,3,0.7796936035,,,
25.9843750000,3,0.7707520127,,,
26.0000000000,3,0.5765686035,,,
26.0156250000,3,0.3011474907,,,
26.0312500000,3,0.0500183105,,,
26.0468750000,3,-0.0933227465,,,
26.0625000000,3,-0.1224365011,,,
26.0781250000,3,-0.0833740234,,,
26.0937500000,3,-0.0394287109,,,
26.1093750000,3,-0.0490722694,,,
26.1250000000,3,-0.1075133979,,,
26.1406250000,3,-0.1652221978,,,
26.1562500000,3,-0.1680298001,,,
26.1718750000,3,-0.0938415527,,,
26.1875000000,3,0.0212707501,,,
26.2031250000,3,0.1001282036,,,
26.2187500000,3,0.0888366699,,,
26.2343750000,3,-0.0163269006,,,
26.2500000000,3,-0.1432189941,,,
26.2656250000,3,-0.2131347954,,,
26.2812500000,3,-0.1896056980,,,
26.2968750000,3,-0.1190185994,,,
26.3125000000,3,-0.0976562500,,,
26.3281250000,3,-0.2113341987,,,
26.3437500000,3,-0.4698792100,,,
26.3593750000,3,-0.7925415039,,,
26.3750000000,3,-1.0419919491,,,
26.3906250000,3,-1.1010440588,,,
26.4062500000,3,-0.9399108887,,,
26.4218750000,3,-0.6303405762,,,
26.4375000000,3,-0.3098145127,,,
26.4531250000,3,-0.1136780009,,,
26.4687500000,3,-0.1103210002,,,
26.4843750000,3,-0.2776184082,,,
26.5000000000,3,-0.5296021104,,,
26.5156250000,3,-0.7583007813,,,
26.5312500000,3,-0.8958129883,,,
26.5468750000,3,-0.9059448242,,,
26.5625000000,3,-0.8112487793,,,
26.5781250000,3,-0.6419066787,,,
26.5937500000,3,-0.4445495903,,,
26.6093750000,3,-0.2430724949,,,
26.6250000000,3,-0.0487670898,,,
26.6406250000,3,0.1351929009,,,
26.6562500000,3,0.2978209853,,,
26.6718750000,3,0.4154967964,,,
26.6875000000,3,0.4839478135,,,
26.7031250000,3,0.5138245225,,,
26.7187500000,3,0.5458679199,,,
26.7343750000,3,0.6181641221,,,
26.7500000000,3,0.7584838867,,,
26.7656250000,3,0.9593201280,,,
26.7812500000,3,1.1844179630,,,
26.7968750000,3,1.3662719727,,,
26.8125000000,3,1.4269410372,,,
26.8281250000,3,1.3018800020,,,
26.8437500000,3,0.9652100205,,,
26.8593750000,3,0.4648438096,,,
26.8750000000,3,-0.0946960375,,,
26.8906250000,3,-0.5769652724,,,
26.9062500000,3,-0.8962097168,,,
26.9218750000,3,-1.0401610136,,,
26.9375000000,3,-1.0564270020,,,
26.9531250000,3,-0.9952697754,,,
26.9687500000,3,-0.8574523926,,,
26.9843750000,3,-0.6152954102,,,
27.0000000000,3,-0.2481689006,,,
27.0156250000,3,0.1909179986,,,
27.0312500000,3,0.5703734756,,,
27.0468750000,3,0.7322388291,,,
27.0625000000,3,0.5855712891,,,
27.0781250000,3,0.1861266941,,,
27.0937500000,3,-0.2937622070,,,
27.1093750000,3,-0.6482849121,,,
27.1250000000,3,-0.7507324219,,,
27.1406250000,3,-0.5829163194,,,
27.1562500000,3,-0.2347716987,,,
27.1718750000,3,0.1663818061,,,
27.1875000000,3,0.5173035264,,,
27.2031250000,3,0.7343750000,,,
27.2187500000,3,0.7601317763,,,
27.2343750000,3,0.5655211806,,,
27.2500000000,3,0.1773986965,,,
27.2656250000,3,-0.3159484863,,,
27.2812500000,3,-0.7627869248,,,
27.2968750000,3,-1.0110780001,,,
27.3125000000,3,-0.9567565918,,,
27.3281250000,3,-0.5914000869,,,
27.3437500000,3,-0.0219421405,,,
27.3593750000,3,0.5833740234,,,
27.3750000000,3,1.0400700569,,,
27.3906250000,3,1.2272950411,,,
27.4062500000,3,1.1195369959,,,
27.4218750000,3,0.8131713867,,,
27.4375000000,3,0.4530639946,,,
27.4531250000,3,0.1575623006,,,
27.4687500000,3,-0.0247802697,,,
27.4843750000,3,-0.1505737007,,,
27.5000000000,3,-0.3207091987,,,
27.5156250000,3,-0.6062927246,,,
27.5312500000,3,-0.9819335938,,,
27.5468750000,3,-1.3425290585,,,
27.5625000000,3,-1.5577390194,,,
27.5781250000,3,-1.5649110079,,,
27.5937500000,3,-1.3930970430,,,
27.6093750000,3,-1.1267399788,,,
27.6250000000,3,-0.8456115723,,,
27.6406250000,3,-0.5753173828,,,
27.6562500000,3,-0.2984924018,,,
27.6718750000,3,-0.0127563505,,,
27.6875000000,3,0.2497864068,,,
27.7031250000,3,0.4187316895,,,
27.7187500000,3,0.4225463867,,,
27.7343750000,3,0.2315673977,,,
27.7500000000,3,-0.1152954027,,,
27.7656250000,3,-0.5349730849,,,
27.7812500000,3,-0.9212036133,,,
27.7968750000,3,-1.1724239588,,,
27.8125000000,3,-1.2040410042,,,
27.8281250000,3,-0.9679564834,,,
27.8437500000,3,-0.4805603027,,,
27.8593750000,3,0.1747436970,,,
27.8750000000,3,0.8452454209,,,
27.8906250000,3,1.3594670296,,,
27.9062500000,3,1.5753170252,,,
27.9218750000,3,1.4566650391,,,
27.9375000000,3,1.0658260584,,,
27.9531250000,3,0.5514525771,,,
27.9687500000,3,0.0687561035,,,
27.9843750000,3,-0.2780762017,,,
28.0000000000,3,-0.4668579102,,,
28.0156250000,3,-0.5252990723,,,
28.0312500000,3,-0.5267028809,,,
28.0468750000,3,-0.5316162109,,,
28.0625000000,3,-0.5578002930,,,
28.0781250000,3,-0.5871582031,,,
28.0937500000,3,-0.5733032227,,,
28.1093750000,3,-0.4687804878,,,
28.1250000000,3,-0.2656860054,,,
28.1406250000,3,-0.0123290997,,,
28.1562500000,3,0.2244873047,,,
28.1718750000,3,0.3711853027,,,
28.1875000000,3,0.4193114936,,,
28.2031250000,3,0.4197692871,,,
28.2187500000,3,0.4425658882,,,
28.2343750000,3,0.5357056260,,,
28.2500000000,3,0.6748657227,,,
28.2656250000,3,0.7734069824,,,
28.2812500000,3,0.7274169922,,,
28.2968750000,3,0.5046082139,,,
28.3125000000,3,0.1628417969,,,
28.3281250000,3,-0.1600037068,,,
28.3437500000,3,-0.3199768066,,,
28.3593750000,3,-0.2592163086,,,
28.3750000000,3,-0.0348510705,,,
28.3906250000,3,0.2232055962,,,
28.4062500000,3,0.3775329888,,,
28.4218750000,3,0.3829650879,,,
28.4375000000,3,0.2740783989,,,
28.4531250000,3,0.1657714993,,,
28.4687500000,3,0.1522521973,,,
28.4843750000,3,0.2790833116,,,
28.5000000000,3,0.5014647841,,,
28.5156250000,3,0.7334899902,,,
28.5312500000,3,0.8892211914,,,
28.5468750000,3,0.9177855849,,,
28.5625000000,3,0.8110045791,,,
28.5781250000,3,0.6047363281,,,
28.5937500000,3,0.3486328125,,,
28.6093750000,3,0.1044922024,,,
28.6250000000,3,-0.0755310133,,,
28.6406250000,3,-0.1886902004,,,
28.6562500000,3,-0.2647095025,,,
28.6718750000,3,-0.3639526069,,,
28.6875000000,3,-0.5166320801,,,
28.7031250000,3,-0.6889954209,,,
28.7187500000,3,-0.7827454209,,,
28.7343750000,3,-0.6841735840,,,
28.7500000000,3,-0.3376159966,,,
28.7656250000,3,0.2071837932,,,
28.7812500000,3,0.7933350205,,,
28.7968750000,3,1.2476500273,,,
28.8125000000,3,1.4517209530,,,
28.8281250000,3,1.3981930017,,,
28.8437500000,3,1.1753540039,,,
28.8593750000,3,0.8819580078,,,
28.8750000000,3,0.5792847276,,,
28.8906250000,3,0.2655333877,,,
28.9062500000,3,-0.1031799018,,,
28.9218750000,3,-0.5430603027,,,
28.9375000000,3,-1.0158389807,,,
28.9531250000,3,-1.4316099882,,,
28.9687500000,3,-1.7073060274,,,
28.9843750000,3,-1.8008120060,,,
29.0000000000,3,-1.7334589958,,,
29.0156250000,3,-1.5916140079,,,
29.0312500000,3,-1.4574890137,,,
29.0468750000,3,-1.3661190271,,,
29.0625000000,3,-1.2905579805,,,
29.0781250000,3,-1.1486209631,,,
29.0937500000,3,-0.8756104112,,,
29.1093750000,3,-0.4561767876,,,
29.1250000000,3,0.0661315918,,,
29.1406250000,3,0.5855712891,,,
29.1562500000,3,0.9860228896,,,
29.1718750000,3,1.1787409782,,,
29.1875000000,3,1.1331479549,,,
29.2031250000,3,0.8862915039,,,
29.2187500000,3,0.5232849121,,,
29.2343750000,3,0.1299438030,,,
29.2500000000,3,-0.2348937988,,,
29.2656250000,3,-0.5464171767,,,
29.2812500000,3,-0.7980651855,,,
29.2968750000,3,-0.9685974121,,,
29.3125000000,3,-1.0156559944,,,
29.3281250000,3,-0.8713378906,,,
29.3437500000,3,-0.4837645888,,,
29.3593750000,3,0.1278991997,,,
29.3750000000,3,0.8659973145,,,
29.3906250000,3,1.5729980469,,,
29.4062500000,3,2.0892028809,,,
29.4218750000,3,2.3313291073,,,
29.4375000000,3,2.3342590332,,,
29.4531250000,3,2.1938169003,,,
29.4687500000,3,2.0181879997,,,
29.4843750000,3,1.8441159725,,,
29.5000000000,3,1.6423950195,,,
29.5156250000,3,1.3435970545,,,
29.5312500000,3,0.9225463867,,,
29.5468750000,3,0.4190062881,,,
29.5625000000,3,-0.0769653320,,,
29.5781250000,3,-0.4625244141,,,
29.5937500000,3,-0.6897583008,,,
29.6093750000,3,-0.7814025879,,,
29.6250000000,3,-0.8053284287,,,
29.6406250000,3,-0.8341370225,,,
29.6562500000,3,-0.9046021104,,,
29.6718750000,3,-0.9952393174,,,
29.6875000000,3,-1.0666810274,,,
29.7031250000,3,-1.0848690271,,,
29.7187500000,3,-1.0408329964,,,
29.7343750000,3,-0.9253845215,,,
29.7500000000,3,-0.7220153809,,,
29.7656250000,3,-0.3931579888,,,
29.7812500000,3,0.0773315430,,,
29.7968750000,3,0.6694946289,,,
29.8125000000,3,1.2883909941,,,
29.8281250000,3,1.7955930233,,,
29.8437500000,3,2.0629270077,,,
29.8593750000,3,2.0265200138,,,
29.8750000000,3,1.7062679529,,,
29.8906250000,3,1.1923520565,,,
29.9062500000,3,0.5990601182,,,
29.9218750000,3,0.0460815392,,,
29.9375000000,3,-0.3848572075,,,
29.9531250000,3,-0.6392211914,,,
29.9687500000,3,-0.6903992295,,,
29.9843750000,3,-0.5607910156,,,
30.0000000000,3,-0.2982482910,,,
30.0156250000,3,0.0166015606,,,
30.0312500000,3,0.3067016900,,,
30.0468750000,3,0.5276793838,,,
30.0625000000,3,0.6518859863,,,
30.0781250000,3,0.6703186035,,,
30.0937500000,3,0.5678101182,,,
30.1093750000,3,0.3247070014,,,
30.1250000000,3,-0.0563964806,,,
30.1406250000,3,-0.5241394043,,,
30.1562500000,3,-0.9733886719,,,
30.1718750000,3,-1.2646479607,,,
30.1875000000,3,-1.3015439510,,,
30.2031250000,3,-1.0945429802,,,
30.2187500000,3,-0.7724915147,,,
30.2343750000,3,-0.5046386719,,,
30.2500000000,3,-0.4162903130,,,
30.2656250000,3,-0.5076904297,,,
30.2812500000,3,-0.6787415147,,,
30.2968750000,3,-0.7671813965,,,
30.3125000000,3,-0.6640015244,,,
30.3281250000,3,-0.3711853027,,,
30.3437500000,3,0.0013427730,,,
30.3593750000,3,0.3099364936,,,
30.3750000000,3,0.4707641900,,,
30.3906250000,3,0.4992370903,,,
30.4062500000,3,0.4744262993,,,
30.4218750000,3,0.4858398139,,,
30.4375000000,3,0.5277404785,,,
30.4531250000,3,0.5128784180,,,
30.4687500000,3,0.3239440918,,,
30.4843750000,3,-0.0933227465,,,
30.5000000000,3,-0.6563720703,,,
30.5156250000,3,-1.1754759550,,,
30.5312500000,3,-1.4548950195,,,
30.5468750000,3,-1.3770450354,,,
30.5625000000,3,-0.9891663194,,,
30.5781250000,3,-0.4689025879,,,
30.5937500000,3,-0.0362243690,,,
30.6093750000,3,0.1642760932,,,
30.6250000000,3,0.1355285943,,,
30.6406250000,3,-0.0079956045,,,
30.6562500000,3,-0.1206664965,,,
30.6718750000,3,-0.1490173042,,,
30.6875000000,3,-0.1473693997,,,
30.7031250000,3,-0.2383117974,,,
30.7187500000,3,-0.5018004775,,,
30.7343750000,3,-0.9021301270,,,
30.7500000000,3,-1.2946469784,,,
30.7656250000,3,-1.5118709803,,,
30.7812500000,3,-1.4972230196,,,
30.7968750000,3,-1.3196719885,,,
30.8125000000,3,-1.1608580351,,,
30.8281250000,3,-1.1793520451,,,
30.8437500000,3,-1.4310300350,,,
30.8593750000,3,-1.8215030432,,,
30.8750000000,3,-2.1481020451,,,
30.8906250000,3,-2.2065730095,,,
30.9062500000,3,-1.8801879883,,,
30.9218750000,3,-1.1983029842,,,
30.9375000000,3,-0.3101500869,,,
30.9531250000,3,0.5675963759,,,
30.9687500000,3,1.2400209904,,,
30.9843750000,3,1.5880130529,,,
31.0000000000,3,1.5979000330,,,
31.0156250000,3,1.3542180061,,,
31.0312500000,3,1.0031739473,,,
31.0468750000,3,0.6829224229,,,
31.0625000000,3,0.4913024902,,,
31.0781250000,3,0.4435119927,,,
31.0937500000,3,0.4861145020,,,
31.1093750000,3,0.5433043838,,,
31.1250000000,3,0.5407410264,,,
31.1406250000,3,0.4372253120,,,
31.1562500000,3,0.2271728963,,,
31.1718750000,3,-0.0771484375,,,
31.1875000000,3,-0.4387207031,,,
31.2031250000,3,-0.8085327148,,,
31.2187500000,3,-1.1257319450,,,
31.2343750000,3,-1.3322449923,,,
31.2500000000,3,-1.3836059570,,,
31.2656250000,3,-1.2582399845,,,
31.2812500000,3,-0.9655761719,,,
31.2968750000,3,-0.5383911133,,,
31.3125000000,3,-0.0363159217,,,
31.3281250000,3,0.4538573921,,,
31.3437500000,3,0.8244628906,,,
31.3593750000,3,0.9805908203,,,
31.3750000000,3,0.8746032715,,,
31.3906250000,3,0.5449218750,,,
31.4062500000,3,0.1144409031,,,
31.4218750000,3,-0.2490539998,,,
31.4375000000,3,-0.3718262017,,,
31.4531250000,3,-0.1811217964,,,
31.4687500000,3,0.2793579102,,,
31.4843750000,3,0.8600463867,,,
31.5000000000,3,1.3556519747,,,
31.5156250000,3,1.6060489416,,,
31.5312500000,3,1.5576479435,,,
31.5468750000,3,1.2666929960,,,
31.5625000000,3,0.8569030762,,,
31.5781250000,3,0.4515990913,,,
31.5937500000,3,0.1357422024,,,
31.6093750000,3,-0.0533752404,,,
31.6250000000,3,-0.1312256008,,,
31.6406250000,3,-0.1332397014,,,
31.6562500000,3,-0.1153564006,,,
31.6718750000,3,-0.1257019043,,,
31.6875000000,3,-0.2065429986,,,
31.7031250000,3,-0.3482055962,,,
31.7187500000,3,-0.5022888184,,,
31.7343750000,3,-0.5907897949,,,
31.7500000000,3,-0.5485535264,,,
31.7656250000,3,-0.3683776855,,,
31.7812500000,3,-0.1097412035,,,
31.7968750000,3,0.1256103963,,,
31.8125000000,3,0.2805176079,,,
31.8281250000,3,0.3657226861,,,
31.8437500000,3,0.4528197944,,,
31.8593750000,3,0.6099547744,,,
31.8750000000,3,0.8261718750,,,
31.8906250000,3,1.0215450525,,,
31.9062500000,3,1.0869450569,,,
31.9218750000,3,0.9832457900,,,
31.9375000000,3,0.7950745225,,,
31.9531250000,3,0.6596375108,,,
31.9687500000,3,0.6889647841,,,
31.9843750000,3,0.8861083984,,,
32.0000000000,4,1.1300660372,,,
32.0156250000,4,1.2552490234,,,
32.0312500000,4,1.1491390467,,,
32.0468750000,4,0.8197937012,,,
32.0625000000,4,0.3792419136,,,
32.0781250000,4,-0.0338439904,,,
32.0937500000,4,-0.3403015137,,,
32.1093750000,4,-0.5402526855,,,
32.1250000000,4,-0.6841431260,,,
32.1406250000,4,-0.8203430176,,,
32.1562500000,4,-0.9469910264,,,
32.1718750000,4,-1.0121459961,,,
32.1875000000,4,-0.9911193848,,,
32.2031250000,4,-0.8856201172,,,
32.2187500000,4,-0.7427368164,,,
32.2343750000,4,-0.6143798828,,,
32.2500000000,4,-0.5192871094,,,
32.2656250000,4,-0.4288330078,,,
32.2812500000,4,-0.2887572944,,,
32.2968750000,4,-0.0572814904,,,
32.3125000000,4,0.2672728896,,,
32.3281250000,4,0.6477965713,,,
32.3437500000,4,1.0110780001,,,
32.3593750000,4,1.2919620275,,,
32.3750000000,4,1.4300229549,,,
32.3906250000,4,1.3897089958,,,
32.4062500000,4,1.1563719511,,,
32.4218750000,4,0.7491149902,,,
32.4375000000,4,0.2355346978,,,
32.4531250000,4,-0.2747803032,,,
32.4687500000,4,-0.6639404297,,,
32.4843750000,4,-0.8385620117,,,
32.5000000000,4,-0.7672728896,,,
32.5156250000,4,-0.4929809868,,,
32.5312500000,4,-0.0925598070,,,
32.5468750000,4,0.3518677056,,,
32.5625000000,4,0.7735291123,,,
32.5781250000,4,1.1485600471,,,
32.5937500000,4,1.4613649845,,,
32.6093750000,4,1.6860049963,,,
32.6250000000,4,1.7833249569,,,
32.6406250000,4,1.7172240019,,,
32.6562500000,4,1.4646300077,,,
32.6718750000,4,1.0530400276,,,
32.6875000000,4,0.5499877930,,,
32.7031250000,4,0.0596008301,,,
32.7187500000,4,-0.2940674126,,,
32.7343750000,4,-0.4138183892,,,
32.7500000000,4,-0.2737121880,,,
32.7656250000,4,0.0669250488,,,
32.7812500000,4,0.4578247070,,,
32.7968750000,4,0.7268981934,,,
32.8125000000,4,0.7465515137,,,
32.8281250000,4,0.4925231934,,,
32.8437500000,4,0.0402221717,,,
32.8593750000,4,-0.4610291123,,,
32.8750000000,4,-0.8692017198,,,
32.8906250000,4,-1.0978089571,,,
32.9062500000,4,-1.1223449707,,,
32.9218750000,4,-0.9724426270,,,
32.9375000000,4,-0.6981505752,,,
32.9531250000,4,-0.3398132026,,,
32.9687500000,4,0.0459594689,,,
32.9843750000,4,0.4040221870,,,
33.0000000000,4,0.6429442763,,,
33.0156250000,4,0.6823120117,,,
33.0312500000,4,0.4800109863,,,
33.0468750000,4,0.0627746582,,,
33.0625000000,4,-0.4859009087,,,
33.0781250000,4,-1.0481259823,,,
33.0937500000,4,-1.5362240076,,,
33.1093750000,4,-1.9231569767,,,
33.1250000000,4,-2.2365109921,,,
33.1406250000,4,-2.5187070370,,,
33.1562500000,4,-2.7781069279,,,
33.1718750000,4,-2.9491879940,,,
33.1875000000,4,-2.9342648983,,,
33.2031250000,4,-2.6484990120,,,
33.2187500000,4,-2.0857241154,,,
33.2343750000,4,-1.3668210506,,,
33.2500000000,4,-0.6968994141,,,
33.2656250000,4,-0.2701416016,,,
33.2812500000,4,-0.1885681003,,,
33.2968750000,4,-0.3815002143,,,
33.3125000000,4,-0.6532592773,,,
33.3281250000,4,-0.7782592773,,,
33.3437500000,4,-0.6163939834,,,
33.3593750000,4,-0.1971741021,,,
33.3750000000,4,0.3042603135,,,
33.3906250000,4,0.6764221191,,,
33.4062500000,4,0.7906494141,,,
33.4218750000,4,0.6500853896,,,
33.4375000000,4,0.3956604004,,,
33.4531250000,4,0.1948547065,,,
33.4687500000,4,0.1401062012,,,
33.4843750000,4,0.2440491021,,,
33.5000000000,4,0.4269408882,,,
33.5156250000,4,0.6091002822,,,
33.5312500000,4,0.7552490234,,,
33.5468750000,4,0.8663939834,,,
33.5625000000,4,0.9555969238,,,
33.5781250000,4,1.0212099552,,,
33.5937500000,4,1.0500789881,,,
33.6093750000,4,1.0455629826,,,
33.6250000000,4,1.0637209415,,,
33.6406250000,4,1.1820069551,,,
33.6562500000,4,1.4463499784,,,
33.6718750000,4,1.8356319666,,,
33.6875000000,4,2.2228999138,,,
33.7031250000,4,2.4545900822,,,
33.7187500000,4,2.4231569767,,,
33.7343750000,4,2.1295170784,,,
33.7500000000,4,1.6869510412,,,
33.7656250000,4,1.2568049431,,,
33.7812500000,4,0.9657288194,,,
33.7968750000,4,0.8295288086,,,
33.8125000000,4,0.7716979980,,,
33.8281250000,4,0.6345214844,,,
33.8437500000,4,0.3107604980,,,
33.8593750000,4,-0.2163085938,,,
33.8750000000,4,-0.8398438096,,,
33.8906250000,4,-1.3786619902,,,
33.9062500000,4,-1.6832280159,,,
33.9218750000,4,-1.7124329805,,,
33.9375000000,4,-1.5432740450,,,
33.9531250000,4,-1.3092039824,,,
33.9687500000,4,-1.1321409941,,,
33.9843750000,4,-1.0267640352,,,
34.0000000000,4,-0.9370117188,,,
34.0156250000,4,-0.7695618272,,,
34.0312500000,4,-0.5068665147,,,
34.0468750000,4,-0.2212523967,,,
34.0625000000,4,-0.0300903302,,,
34.0781250000,4,-0.0162353497,,,
34.0937500000,4,-0.1679687947,,,
34.1093750000,4,-0.3878783882,,,
34.1250000000,4,-0.5467529297,,,
34.1406250000,4,-0.5743712783,,,
34.1562500000,4,-0.4708862007,,,
34.1718750000,4,-0.2862243950,,,
34.1875000000,4,-0.0929870605,,,
34.2031250000,4,0.0664978027,,,
34.2187500000,4,0.1610718071,,,
34.2343750000,4,0.1700133979,,,
34.2500000000,4,0.0870666504,,,
34.2656250000,4,-0.0530700684,,,
34.2812500000,4,-0.1577758938,,,
34.2968750000,4,-0.1247558966,,,
34.3125000000,4,0.1191101000,,,
34.3281250000,4,0.5354918838,,,
34.3437500000,4,0.9896851182,,,
34.3593750000,4,1.2841800451,,,
34.3750000000,4,1.2723389864,,,
34.3906250000,4,0.9230651855,,,
34.4062500000,4,0.3259277046,,,
34.4218750000,4,-0.3395080864,,,
34.4375000000,4,-0.9018250108,,,
34.4531250000,4,-1.2403260469,,,
34.4687500000,4,-1.3036500216,,,
34.4843750000,4,-1.1043089628,,,
34.5000000000,4,-0.7122498155,,,
34.5156250000,4,-0.2247619927,,,
34.5312500000,4,0.2578735054,,,
34.5468750000,4,0.6483458877,,,
34.5625000000,4,0.8905944824,,,
34.5781250000,4,0.9687194824,,,
34.5937500000,4,0.9085388184,,,
34.6093750000,4,0.7652282715,,,
34.6250000000,4,0.6293334961,,,
34.6406250000,4,0.5783386230,,,
34.6562500000,4,0.6454467773,,,
34.6718750000,4,0.8210753798,,,
34.6875000000,4,1.0184019804,,,
34.7031250000,4,1.1184079647,,,
34.7187500000,4,1.0303649902,,,
34.7343750000,4,0.7331542969,,,
34.7500000000,4,0.3041076958,,,
34.7656250000,4,-0.1228943020,,,
34.7812500000,4,-0.4324035943,,,
34.7968750000,4,-0.5904846191,,,
34.8125000000,4,-0.6459655762,,,
34.8281250000,4,-0.6922913194,,,
34.8437500000,4,-0.7857971191,,,
34.8593750000,4,-0.9127197266,,,
34.8750000000,4,-0.9927672744,,,
34.8906250000,4,-0.9470214844,,,
34.9062500000,4,-0.7390136719,,,
34.9218750000,4,-0.3967590034,,,
34.9375000000,4,-0.0072937012,,,
34.9531250000,4,0.3181762993,,,
34.9687500000,4,0.4862670898,,,
34.9843750000,4,0.4621276855,,,
35.0000000000,4,0.2762145996,,,
35.0156250000,4,0.0056152339,,,
35.0312500000,4,-0.2461242974,,,
35.0468750000,4,-0.4048157036,,,
35.0625000000,4,-0.4469299018,,,
35.0781250000,4,-0.4273375869,,,
35.0937500000,4,-0.4230957031,,,
35.1093750000,4,-0.4981383979,,,
35.1250000000,4,-0.6365662217,,,
35.1406250000,4,-0.7433167100,,,
35.1562500000,4,-0.7157592773,,,
35.1718750000,4,-0.5020446777,,,
35.1875000000,4,-0.1463928074,,,
35.2031250000,4,0.2217406929,,,
35.2187500000,4,0.4743041992,,,
35.2343750000,4,0.5534667969,,,
35.2500000000,4,0.4891051948,,,
35.2656250000,4,0.3617554009,,,
35.2812500000,4,0.2414550930,,,
35.2968750000,4,0.1287230998,,,
35.3125000000,4,-0.0188293494,,,
35.3281250000,4,-0.2449035943,,,
35.3437500000,4,-0.5346680284,,,
35.3593750000,4,-0.8277282715,,,
35.3750000000,4,-1.0438840389,,,
35.3906250000,4,-1.1433720589,,,
35.4062500000,4,-1.1283570528,,,
35.4218750000,4,-1.0353389978,,,
35.4375000000,4,-0.9061583877,,,
35.4531250000,4,-0.7568665147,,,
35.4687500000,4,-0.5898438096,,,
35.4843750000,4,-0.3983764946,,,
35.5000000000,4,-0.1866150051,,,
35.5156250000,4,0.0534057617,,,
35.5312500000,4,0.3318175972,,,
35.5468750000,4,0.6571655273,,,
35.5625000000,4,1.0225520134,,,
35.5781250000,4,1.3777470589,,,
35.5937500000,4,1.6387939453,,,
35.6093750000,4,1.7258299589,,,
35.6250000000,4,1.6153869629,,,
35.6406250000,4,1.3647160530,,,
35.6562500000,4,1.0969539881,,,
35.6718750000,4,0.9033812881,,,
35.6875000000,4,0.8065186143,,,
35.7031250000,4,0.7386779785,,,
35.7187500000,4,0.5874022841,,,
35.7343750000,4,0.2893371880,,,
35.7500000000,4,-0.1329956055,,,
35.7656250000,4,-0.5733336806,,,
35.7812500000,4,-0.9098815918,,,
35.7968750000,4,-1.0650629997,,,
35.8125000000,4,-1.0497740507,,,
35.8281250000,4,-0.9583435059,,,
35.8437500000,4,-0.8765258789,,,
35.8593750000,4,-0.8359375000,,,
35.8750000000,4,-0.7918090820,,,
35.8906250000,4,-0.6867675781,,,
35.9062500000,4,-0.4966736138,,,
35.9218750000,4,-0.2688598931,,,
35.9375000000,4,-0.0982971191,,,
35.9531250000,4,-0.0588378906,,,
35.9687500000,4,-0.1623840034,,,
35.9843750000,4,-0.3377991021,,,
36.0000000000,4,-0.4997558892,,,
36.0156250000,4,-0.5871582031,,,
36.0312500000,4,-0.5873107910,,,
36.0468750000,4,-0.5195006728,,,
36.0625000000,4,-0.4149169922,,,
36.0781250000,4,-0.2742919922,,,
36.0937500000,4,-0.0954895020,,,
36.1093750000,4,0.1259766072,,,
36.1250000000,4,0.3773499131,,,
36.1406250000,4,0.6239014268,,,
36.1562500000,4,0.8344420791,,,
36.1718750000,4,1.0042109489,,,
36.1875000000,4,1.1365970373,,,
36.2031250000,4,1.2276309729,,,
36.2187500000,4,1.2460019588,,,
36.2343750000,4,1.1379090548,,,
36.2500000000,4,0.8692321777,,,
36.2656250000,4,0.4586791992,,,
36.2812500000,4,-0.0016784670,,,
36.2968750000,4,-0.3923340142,,,
36.3125000000,4,-0.6001281738,,,
36.3281250000,4,-0.5940247178,,,
36.3437500000,4,-0.4168395996,,,
36.3593750000,4,-0.1795043945,,,
36.3750000000,4,-0.0016174320,,,
36.3906250000,4,0.0439758301,,,
36.4062500000,4,-0.0513610803,,,
36.4218750000,4,-0.2215881050,,,
36.4375000000,4,-0.3728637993,,,
36.4531250000,4,-0.4292297065,,,
36.4687500000,4,-0.3822020888,,,
36.4843750000,4,-0.2733153999,,,
36.5000000000,4,-0.1779174954,,,
36.5156250000,4,-0.1631164998,,,
36.5312500000,4,-0.2536621094,,,
36.5468750000,4,-0.4317016900,,,
36.5625000000,4,-0.6590880752,,,
36.5781250000,4,-0.8867493272,,,
36.5937500000,4,-1.0709840059,,,
36.6093750000,4,-1.1851810217,,,
36.6250000000,4,-1.1962590218,,,
36.6406250000,4,-1.0738530159,,,
36.6562500000,4,-0.8383483887,,,
36.6718750000,4,-0.5355834961,,,
36.6875000000,4,-0.2329102010,,,
36.7031250000,4,0.0039367680,,,
36.7187500000,4,0.1551208049,,,
36.7343750000,4,0.2473144978,,,
36.7500000000,4,0.3160094917,,,
36.7656250000,4,0.3616637886,,,
36.7812500000,4,0.3594666123,,,
36.7968750000,4,0.2835999131,,,
36.8125000000,4,0.1434326023,,,
36.8281250000,4,0.0037536621,,,
36.8437500000,4,-0.0366210900,,,
36.8593750000,4,0.0756530836,,,
36.8750000000,4,0.3102416992,,,
36.8906250000,4,0.5479125977,,,
36.9062500000,4,0.6501160264,,,
36.9218750000,4,0.5492858887,,,
36.9375000000,4,0.2972106934,,,
36.9531250000,4,0.0376281701,,,
36.9687500000,4,-0.0900268629,,,
36.9843750000,4,-0.0338134803,,,
37.0000000000,4,0.1221008003,,,
37.0156250000,4,0.2377319038,,,
37.0312500000,4,0.2079163045,,,
37.0468750000,4,0.0378418006,,,
37.0625000000,4,-0.1469420940,,,
37.0781250000,4,-0.2139281929,,,
37.0937500000,4,-0.1072997972,,,
37.1093750000,4,0.0832519531,,,
37.1250000000,4,0.1776732951,,,
37.1406250000,4,0.0278320294,,,
37.1562500000,4,-0.3668518066,,,
37.1718750000,4,-0.8547058105,,,
37.1875000000,4,-1.2037960291,,,
37.2031250000,4,-1.2470090389,,,
37.2187500000,4,-0.9776610732,,,
37.2343750000,4,-0.5406494141,,,
37.2500000000,4,-0.1422424018,,,
37.2656250000,4,0.0954284668,,,
37.2812500000,4,0.1739806980,,,
37.2968750000,4,0.2277527004,,,
37.3125000000,4,0.3753356934,,,
37.3281250000,4,0.6468811035,,,
37.3437500000,4,0.9400634766,,,
37.3593750000,4,1.0821529627,,,
37.3750000000,4,0.9575499892,,,
37.3906250000,4,0.5824279785,,,
37.4062500000,4,0.1146851033,,,
37.4218750000,4,-0.2269591987,,,
37.4375000000,4,-0.2805786133,,,
37.4531250000,4,-0.0473022498,,,
37.4687500000,4,0.3371276855,,,
37.4843750000,4,0.7008666992,,,
37.5000000000,4,0.9196166992,,,
37.5156250000,4,1.0070190430,,,
37.5312500000,4,1.0769040585,,,
37.5468750000,4,1.2319339514,,,
37.5625000000,4,1.4862370491,,,
37.5781250000,4,1.7435909510,,,
37.5937500000,4,1.8607790470,,,
37.6093750000,4,1.7384339571,,,
37.6250000000,4,1.3756409883,,,
37.6406250000,4,0.8664855957,,,
37.6562500000,4,0.3467406929,,,
37.6718750000,4,-0.0788268968,,,
37.6875000000,4,-0.3663330078,,,
37.7031250000,4,-0.5307617188,,,
37.7187500000,4,-0.6033020020,,,
37.7343750000,4,-0.6066284180,,,
37.7500000000,4,-0.5286865234,,,
37.7656250000,4,-0.3547058105,,,
37.7812500000,4,-0.0910339430,,,
37.7968750000,4,0.2174683064,,,
37.8125000000,4,0.4738770127,,,
37.8281250000,4,0.5700684190,,,
37.8437500000,4,0.4500732124,,,
37.8593750000,4,0.1521605998,,,
37.8750000000,4,-0.1905518025,,,
37.8906250000,4,-0.4005737007,,,
37.9062500000,4,-0.3720703125,,,
37.9218750000,4,-0.1359557956,,,
37.9375000000,4,0.1455077976,,,
37.9531250000,4,0.2702026069,,,
37.9687500000,4,0.1163635030,,,
37.9843750000,4,-0.2610167861,,,
38.0000000000,4,-0.6680908203,,,
38.0156250000,4,-0.9001160264,,,
38.0312500000,4,-0.8556823730,,,
38.0468750000,4,-0.5855712891,,,
38.0625000000,4,-0.2369994968,,,
38.0781250000,4,0.0490417518,,,
38.0937500000,4,0.2359618992,,,
38.1093750000,4,0.3712463081,,,
38.1250000000,4,0.5290833116,,,
38.1406250000,4,0.7167357802,,,
38.1562500000,4,0.8510131836,,,
38.1718750000,4,0.8257446289,,,
38.1875000000,4,0.5569458008,,,
38.2031250000,4,0.0797119066,,,
38.2187500000,4,-0.4869689941,,,
38.2343750000,4,-0.9810485840,,,
38.2500000000,4,-1.2777400017,,,
38.2656250000,4,-1.3417969942,,,
38.2812500000,4,-1.2150269747,,,
38.2968750000,4,-0.9842833877,,,
38.3125000000,4,-0.7079163194,,,
38.3281250000,4,-0.4134520888,,,
38.3437500000,4,-0.0789184570,,,
38.3593750000,4,0.3093566895,,,
38.3750000000,4,0.7174987793,,,
38.3906250000,4,1.0542600155,,,
38.4062500000,4,1.2005000114,,,
38.4218750000,4,1.0745539665,,,
38.4375000000,4,0.6812744141,,,
38.4531250000,4,0.1301575005,,,
38.4687500000,4,-0.4059753120,,,
38.4843750000,4,-0.7688903809,,,
38.5000000000,4,-0.8940125108,,,
38.5156250000,4,-0.8148803711,,,
38.5312500000,4,-0.6262207031,,,
38.5468750000,4,-0.4306029975,,,
38.5625000000,4,-0.2713317871,,,
38.5781250000,4,-0.1365966946,,,
38.5937500000,4,0.0156860407,,,
38.6093750000,4,0.1870117038,,,
38.6250000000,4,0.3536072075,,,
38.6406250000,4,0.4713135064,,,
38.6562500000,4,0.5000305176,,,
38.6718750000,4,0.4488525093,,,
38.6875000000,4,0.3295898139,,,
38.7031250000,4,0.1678162068,,,
38.7187500000,4,-0.0563049316,,,
38.7343750000,4,-0.3493652046,,,
38.7500000000,4,-0.7308654785,,,
38.7656250000,4,-1.1747130156,,,
38.7812500000,4,-1.6110229492,,,
38.7968750000,4,-1.9500119686,,,
38.8125000000,4,-2.1157228947,,,
38.8281250000,4,-2.0880429745,,,
38.8437500000,4,-1.9061280489,,,
38.8593750000,4,-1.6751710176,,,
38.8750000000,4,-1.4913020134,,,
38.8906250000,4,-1.4253540039,,,
38.9062500000,4,-1.4676510096,,,
38.9218750000,4,-1.5379639864,,,
38.9375000000,4,-1.5251159668,,,
38.9531250000,4,-1.3514709473,,,
38.9687500000,4,-1.0083309412,,,
38.9843750000,4,-0.5525208116,,,
39.0000000000,4,-0.0855102465,,,
39.0156250000,4,0.3269348145,,,
39.0312500000,4,0.6811829209,,,
39.0468750000,4,1.0224610567,,,
39.0625000000,4,1.3803100586,,,
39.0781250000,4,1.7145999670,,,
39.0937500000,4,1.9260560274,,,
39.1093750000,4,1.8888549805,,,
39.1250000000,4,1.5417180061,,,
39.1406250000,4,0.9295654297,,,
39.1562500000,4,0.2100220025,,,
39.1718750000,4,-0.4120483100,,,
39.1875000000,4,-0.7806090713,,,
39.2031250000,4,-0.8229370117,,,
39.2187500000,4,-0.5960083008,,,
39.2343750000,4,-0.2245482951,,,
39.2500000000,4,0.1308898926,,,
39.2656250000,4,0.3569641113,,,
39.2812500000,4,0.4137268066,,,
39.2968750000,4,0.3452453911,,,
39.3125000000,4,0.2193603963,,,
39.3281250000,4,0.1021422967,,,
39.3437500000,4,0.0099792480,,,
39.3593750000,4,-0.0711059570,,,
39.3750000000,4,-0.1299133003,,,
39.3906250000,4,-0.1191710979,,,
39.4062500000,4,0.0478820801,,,
39.4218750000,4,0.4156188965,,,
39.4375000000,4,0.9138184190,,,
39.4531250000,4,1.3527530432,,,
39.4687500000,4,1.5165710449,,,
39.4843750000,4,1.2784420252,,,
39.5000000000,4,0.7059326172,,,
39.5156250000,4,0.0444030799,,,
39.5312500000,4,-0.4246216118,,,
39.5468750000,4,-0.5290833116,,,
39.5625000000,4,-0.2899779975,,,
39.5781250000,4,0.1100158989,,,
39.5937500000,4,0.4656676948,,,
39.6093750000,4,0.6739807129,,,
39.6250000000,4,0.7822266221,,,
39.6406250000,4,0.9016724229,,,
39.6562500000,4,1.0957340002,,,
39.6718750000,4,1.3103029728,,,
39.6875000000,4,1.3644709587,,,
39.7031250000,4,1.0918270350,,,
39.7187500000,4,0.4460448921,,,
39.7343750000,4,-0.4077759087,,,
39.7500000000,4,-1.1794739962,,,
39.7656250000,4,-1.5759580135,,,
39.7812500000,4,-1.4704899788,,,
39.7968750000,4,-0.9531250000,,,
39.8125000000,4,-0.2950133979,,,
39.8281250000,4,0.2049866021,,,
39.8437500000,4,0.3650208116,,,
39.8593750000,4,0.1904602051,,,
39.8750000000,4,-0.1470337063,,,
39.8906250000,4,-0.4569396973,,,
39.9062500000,4,-0.5970764160,,,
39.9218750000,4,-0.5314025879,,,
39.9375000000,4,-0.3091736138,,,
39.9531250000,4,-0.0048828130,,,
39.9687500000,4,0.3244324028,,,
39.9843750000,4,0.6177672744,,,
40.0000000000,5,0.8060913086,,,
40.0156250000,5,0.8250427246,,,
40.0312500000,5,0.6355895996,,,
40.0468750000,5,0.2783203125,,,
40.0625000000,5,-0.1412964016,,,
40.0781250000,5,-0.4871520996,,,
40.0937500000,5,-0.6642761230,,,
40.1093750000,5,-0.6556702256,,,
40.1250000000,5,-0.5310668945,,,
40.1406250000,5,-0.3924561143,,,
40.1562500000,5,-0.3047791123,,,
40.1718750000,5,-0.2618407905,,,
40.1875000000,5,-0.2149962932,,,
40.2031250000,5,-0.1100768968,,,
40.2187500000,5,0.0618286096,,,
40.2343750000,5,0.2724609077,,,
40.2500000000,5,0.4503174126,,,
40.2656250000,5,0.5462340713,,,
40.2812500000,5,0.5231018066,,,
40.2968750000,5,0.3899230957,,,
40.3125000000,5,0.1753845066,,,
40.3281250000,5,-0.0717773363,,,
40.3437500000,5,-0.2874450982,,,
40.3593750000,5,-0.4174500108,,,
40.3750000000,5,-0.4051207900,,,
40.3906250000,5,-0.2468262017,,,
40.4062500000,5,0.0270385705,,,
40.4218750000,5,0.3485718071,,,
40.4375000000,5,0.6480712891,,,
40.4531250000,5,0.8762512207,,,
40.4687500000,5,1.0070799589,,,
40.4843750000,5,1.0502320528,,,
40.5000000000,5,1.0077509880,,,
40.5156250000,5,0.8905029297,,,
40.5312500000,5,0.6914978027,,,
40.5468750000,5,0.4174500108,,,
40.5625000000,5,0.1065979004,,,
40.5781250000,5,-0.1938170940,,,
40.5937500000,5,-0.4418945014,,,
40.6093750000,5,-0.5964661241,,,
40.6250000000,5,-0.6287841797,,,
40.6406250000,5,-0.5234680176,,,
40.6562500000,5,-0.2839660943,,,
40.6718750000,5,0.0560302697,,,
40.6875000000,5,0.4117125869,,,
40.7031250000,5,0.6732177734,,,
40.7187500000,5,0.7297667861,,,
40.7343750000,5,0.5410767198,,,
40.7500000000,5,0.1357727051,,,
40.7656250000,5,-0.3803100884,,,
40.7812500000,5,-0.8831176758,,,
40.7968750000,5,-1.2674870491,,,
40.8125000000,5,-1.4787900448,,,
40.8281250000,5,-1.4994200468,,,
40.8437500000,5,-1.3444210291,,,
40.8593750000,5,-1.0461729765,,,
40.8750000000,5,-0.6393737793,,,
40.8906250000,5,-0.2020263970,,,
40.9062500000,5,0.1980590969,,,
40.9218750000,5,0.4953308105,,,
40.9375000000,5,0.6581726074,,,
40.9531250000,5,0.7151184082,,,
40.9687500000,5,0.7085875869,,,
40.9843750000,5,0.6546021104,,,
41.0000000000,5,0.5276793838,,,
41.0156250000,5,0.3052367866,,,
41.0312500000,5,-0.0005798340,,,
41.0468750000,5,-0.3062438965,,,
41.0625000000,5,-0.4859619141,,,
41.0781250000,5,-0.4468078911,,,
41.0937500000,5,-0.1959533989,,,
41.1093750000,5,0.1584777981,,,
41.1250000000,5,0.4496765137,,,
41.1406250000,5,0.5636292100,,,
41.1562500000,5,0.5076904297,,,
41.1718750000,5,0.3877562881,,,
41.1875000000,5,0.3259277046,,,
41.2031250000,5,0.3857421875,,,
41.2187500000,5,0.5206298828,,,
41.2343750000,5,0.6226500869,,,
41.2500000000,5,0.5908812881,,,
41.2656250000,5,0.4025574028,,,
41.2812500000,5,0.1259460002,,,
41.2968750000,5,-0.1259154975,,,
41.3125000000,5,-0.2615661919,,,
41.3281250000,5,-0.2515563965,,,
41.3437500000,5,-0.1423339993,,,
41.3593750000,5,-0.0321044885,,,
41.3750000000,5,-0.0070800781,,,
41.3906250000,5,-0.1351623982,,,
41.4062500000,5,-0.4137572944,,,
41.4218750000,5,-0.7777100205,,,
41.4375000000,5,-1.1293029785,,,
41.4531250000,5,-1.3723449707,,,
41.4687500000,5,-1.4494320154,,,
41.4843750000,5,-1.3507080078,,,
41.5000000000,5,-1.1109919548,,,
41.5156250000,5,-0.7723693848,,,
41.5312500000,5,-0.4016417861,,,
41.5468750000,5,-0.0521545410,,,
41.5625000000,5,0.2280883938,,,
41.5781250000,5,0.3852843940,,,
41.5937500000,5,0.3910216987,,,
41.6093750000,5,0.2622986138,,,
41.6250000000,5,0.0531005897,,,
41.6406250000,5,-0.1517639011,,,
41.6562500000,5,-0.2556762993,,,
41.6718750000,5,-0.2025451958,,,
41.6875000000,5,0.0132141104,,,
41.7031250000,5,0.3490295112,,,
41.7187500000,5,0.7102050781,,,
41.7343750000,5,0.9949340820,,,
41.7500000000,5,1.1309510469,,,
41.7656250000,5,1.0959780216,,,
41.7812500000,5,0.9195861816,,,
41.7968750000,5,0.6773375869,,,
41.8125000000,5,0.4569396973,,,
41.8281250000,5,0.3117676079,,,
41.8437500000,5,0.2541199028,,,
41.8593750000,5,0.2403258979,,,
41.8750000000,5,0.2381896973,,,
41.8906250000,5,0.2397156060,,,
41.9062500000,5,0.2679137886,,,
41.9218750000,5,0.3642883003,,,
41.9375000000,5,0.5174254775,,,
41.9531250000,5,0.6704711914,,,
41.9687500000,5,0.7219849229,,,
41.9843750000,5,0.5944824219,,,
42.0000000000,5,0.2636413872,,,
42.0156250000,5,-0.1826781929,,,
42.0312500000,5,-0.5974121094,,,
42.0468750000,5,-0.8336182237,,,
42.0625000000,5,-0.8136597276,,,
42.0781250000,5,-0.5917053223,,,
42.0937500000,5,-0.3126525879,,,
42.1093750000,5,-0.1428222954,,,
42.1250000000,5,-0.1962891072,,,
42.1406250000,5,-0.4545288086,,,
42.1562500000,5,-0.7915648818,,,
42.1718750000,5,-1.0481569767,,,
42.1875000000,5,-1.1158139706,,,
42.2031250000,5,-0.9862670898,,,
42.2187500000,5,-0.7518615723,,,
42.2343750000,5,-0.5489501953,,,
42.2500000000,5,-0.4793091118,,,
42.2656250000,5,-0.5635985732,,,
42.2812500000,5,-0.7356262207,,,
42.2968750000,5,-0.8812866211,,,
42.3125000000,5,-0.8885803223,,,
42.3281250000,5,-0.7145996094,,,
42.3437500000,5,-0.3860167861,,,
42.3593750000,5,-0.0056762700,,,
42.3750000000,5,0.3046570122,,,
42.3906250000,5,0.4350585938,,,
42.4062500000,5,0.3391723931,,,
42.4218750000,5,0.0640869066,,,
42.4375000000,5,-0.2737121880,,,
42.4531250000,5,-0.5368651748,,,
42.4687500000,5,-0.6313781738,,,
42.4843750000,5,-0.5313720703,,,
42.5000000000,5,-0.3041991889,,,
42.5156250000,5,-0.0325317383,,,
42.5312500000,5,0.2240294963,,,
42.5468750000,5,0.4600220025,,,
42.5625000000,5,0.7071837783,,,
42.5781250000,5,0.9860228896,,,
42.5937500000,5,1.2518010139,,,
42.6093750000,5,1.4139709473,,,
42.6250000000,5,1.3898619413,,,
42.6406250000,5,1.1541440487,,,
42.6562500000,5,0.7633972168,,,
42.6718750000,5,0.3348999023,,,
42.6875000000,5,-0.0307617206,,,
42.7031250000,5,-0.2979736030,,,
42.7187500000,5,-0.4923096001,,,
42.7343750000,5,-0.6812744141,,,
42.7500000000,5,-0.8903502822,,,
42.7656250000,5,-1.0784000158,,,
42.7812500000,5,-1.1587519646,,,
42.7968750000,5,-1.0494999886,,,
42.8125000000,5,-0.7369689941,,,
42.8281250000,5,-0.2998656929,,,
42.8437500000,5,0.1268921047,,,
42.8593750000,5,0.4159545898,,,
42.8750000000,5,0.5112000108,,,
42.8906250000,5,0.4394530952,,,
42.9062500000,5,0.3091124892,,,
42.9218750000,5,0.2179564983,,,
42.9375000000,5,0.2425841987,,,
42.9531250000,5,0.3815917969,,,
42.9687500000,5,0.5690001845,,,
42.9843750000,5,0.7224121094,,,
43.0000000000,5,0.7591552734,,,
43.0156250000,5,0.6552733779,,,
43.0312500000,5,0.4396666884,,,
43.0468750000,5,0.1950377971,,,
43.0625000000,5,0.0134277297,,,
43.0781250000,5,-0.0271606408,,,
43.0937500000,5,0.0926513672,,,
43.1093750000,5,0.3215332031,,,
43.1250000000,5,0.5735778809,,,
43.1406250000,5,0.7509766221,,,
43.1562500000,5,0.7882385254,,,
43.1718750000,5,0.6755980849,,,
43.1875000000,5,0.4536133111,,,
43.2031250000,5,0.1846008003,,,
43.2187500000,5,-0.0721130371,,,
43.2343750000,5,-0.2708435059,,,
43.2500000000,5,-0.3946838081,,,
43.2656250000,5,-0.4306029975,,,
43.2812500000,5,-0.3799133003,,,
43.2968750000,5,-0.2373961955,,,
43.3125000000,5,-0.0158386193,,,
43.3281250000,5,0.2614136040,,,
43.3437500000,5,0.5332335830,,,
43.3593750000,5,0.7169799805,,,
43.3750000000,5,0.7297058105,,,
43.3906250000,5,0.5147399902,,,
43.4062500000,5,0.0882263184,,,
43.4218750000,5,-0.4884949028,,,
43.4375000000,5,-1.0801090002,,,
43.4531250000,5,-1.5432740450,,,
43.4687500000,5,-1.7656250000,,,
43.4843750000,5,-1.6849980354,,,
43.5000000000,5,-1.3207089901,,,
43.5156250000,5,-0.7483214736,,,
43.5312500000,5,-0.0945434570,,,
43.5468750000,5,0.5041503906,,,
43.5625000000,5,0.9240416884,,,
43.5781250000,5,1.1086119413,,,
43.5937500000,5,1.0657039881,,,
43.6093750000,5,0.8599243164,,,
43.6250000000,5,0.5729675293,,,
43.6406250000,5,0.2776488960,,,
43.6562500000,5,0.0280151404,,,
43.6718750000,5,-0.1579284966,,,
43.6875000000,5,-0.2799071968,,,
43.7031250000,5,-0.3410950005,,,
43.7187500000,5,-0.3591918945,,,
43.7343750000,5,-0.3486633003,,,
43.7500000000,5,-0.3218384087,,,
43.7656250000,5,-0.2693786919,,,
43.7812500000,5,-0.1658630073,,,
43.7968750000,5,0.0065612788,,,
43.8125000000,5,0.2262572944,,,
43.8281250000,5,0.4436950982,,,
43.8437500000,5,0.5798035264,,,
43.8593750000,5,0.5979309082,,,
43.8750000000,5,0.5085753798,,,
43.8906250000,5,0.3666991889,,,
43.9062500000,5,0.2253722996,,,
43.9218750000,5,0.0662231371,,,
43.9375000000,5,-0.1725769043,,,
43.9531250000,5,-0.5545958877,,,
43.9687500000,5,-1.0623170137,,,
43.9843750000,5,-1.5646059513,,,
44.0000000000,5,-1.8863530159,,,
44.0156250000,5,-1.8962099552,,,
44.0312500000,5,-1.5868530273,,,
44.0468750000,5,-1.0980830193,,,
44.0625000000,5,-0.6480103135,,,
44.0781250000,5,-0.4019165039,,,
44.0937500000,5,-0.3958435059,,,
44.1093750000,5,-0.5232543945,,,
44.1250000000,5,-0.5591735840,,,
44.1406250000,5,-0.2887268066,,,
44.1562500000,5,0.1450500041,,,
44.1718750000,5,0.6716002822,,,
44.1875000000,5,1.2176820040,,,
44.2031250000,5,1.7319949865,,,
44.2187500000,5,2.1807858944,,,
44.2343750000,5,2.5037839413,,,
44.2500000000,5,2.6375730038,,,
44.2656250000,5,2.5227360725,,,
44.2812500000,5,2.1576230526,,,
44.2968750000,5,1.6188960075,,,
44.3125000000,5,1.0446170568,,,
44.3281250000,5,0.5631409287,,,
44.3437500000,5,0.2532348931,,,
44.3593750000,5,0.1040344015,,,
44.3750000000,5,0.0348205604,,,
44.3906250000,5,-0.0401001014,,,
44.4062500000,5,-0.1634216011,,,
44.4218750000,5,-0.2923279107,,,
44.4375000000,5,-0.3536682129,,,
44.4531250000,5,-0.2711181939,,,
44.4687500000,5,-0.0439453088,,,
44.4843750000,5,0.2395019978,,,
44.5000000000,5,0.4441832900,,,
44.5156250000,5,0.4560241997,,,
44.5312500000,5,0.2531127930,,,
44.5468750000,5,-0.0832824707,,,
44.5625000000,5,-0.4157715142,,,
44.5781250000,5,-0.6471251845,,,
44.5937500000,5,-0.7349243164,,,
44.6093750000,5,-0.7356262207,,,
44.6250000000,5,-0.7155150771,,,
44.6406250000,5,-0.7150573730,,,
44.6562500000,5,-0.7258300781,,,
44.6718750000,5,-0.6841735840,,,
44.6875000000,5,-0.5351868272,,,
44.7031250000,5,-0.2670898139,,,
44.7187500000,5,0.0795898363,,,
44.7343750000,5,0.4137572944,,,
44.7500000000,5,0.6394348145,,,
44.7656250000,5,0.6893311143,,,
44.7812500000,5,0.5542296767,,,
44.7968750000,5,0.2786254883,,,
44.8125000000,5,-0.0483398400,,,
44.8281250000,5,-0.3414306939,,,
44.8437500000,5,-0.5491027832,,,
44.8593750000,5,-0.6671447754,,,
44.8750000000,5,-0.7282103896,,,
44.8906250000,5,-0.7745360732,,,
44.9062500000,5,-0.8400573730,,,
44.9218750000,5,-0.9258422852,,,
44.9375000000,5,-1.0328669548,,,
44.9531250000,5,-1.1595150232,,,
44.9687500000,5,-1.2956540585,,,
44.9843750000,5,-1.4218750000,,,
45.0000000000,5,-1.4758000374,,,
45.0156250000,5,-1.3704830408,,,
45.0312500000,5,-1.0397340059,,,
45.0468750000,5,-0.4842224121,,,
45.0625000000,5,0.2071837932,,,
45.0781250000,5,0.8629456162,,,
45.0937500000,5,1.3380429745,,,
45.1093750000,5,1.5451660156,,,
45.1250000000,5,1.4984740019,,,
45.1406250000,5,1.2843019962,,,
45.1562500000,5,1.0126340389,,,
45.1718750000,5,0.7862244248,,,
45.1875000000,5,0.6616821289,,,
45.2031250000,5,0.6549987793,,,
45.2187500000,5,0.7436522841,,,
45.2343750000,5,0.8722838759,,,
45.2500000000,5,0.9724121094,,,
45.2656250000,5,0.9672852159,,,
45.2812500000,5,0.8046875000,,,
45.2968750000,5,0.4640808105,,,
45.3125000000,5,-0.0089721680,,,
45.3281250000,5,-0.5284423828,,,
45.3437500000,5,-0.9791564941,,,
45.3593750000,5,-1.2705080509,,,
45.3750000000,5,-1.3476560116,,,
45.3906250000,5,-1.2179570198,,,
45.4062500000,5,-0.9501953125,,,
45.4218750000,5,-0.6226807237,,,
45.4375000000,5,-0.3090820014,,,
45.4531250000,5,-0.0723877028,,,
45.4687500000,5,0.0550842285,,,
45.4843750000,5,0.0481262207,,,
45.5000000000,5,-0.0971069336,,,
45.5156250000,5,-0.3450622857,,,
45.5312500000,5,-0.6354370117,,,
45.5468750000,5,-0.8626708984,,,
45.5625000000,5,-0.9215698242,,,
45.5781250000,5,-0.7515869141,,,
45.5937500000,5,-0.3658446968,,,
45.6093750000,5,0.1443787068,,,
45.6250000000,5,0.6477050781,,,
45.6406250000,5,0.9983214736,,,
45.6562500000,5,1.0980830193,,,
45.6718750000,5,0.9182739258,,,
45.6875000000,5,0.5002136230,,,
45.7031250000,5,-0.0547790490,,,
45.7187500000,5,-0.5781555176,,,
45.7343750000,5,-0.9194335938,,,
45.7500000000,5,-0.9689025879,,,
45.7656250000,5,-0.7142333984,,,
45.7812500000,5,-0.2783812881,,,
45.7968750000,5,0.1420287937,,,
45.8125000000,5,0.3711242974,,,
45.8281250000,5,0.3411864936,,,
45.8437500000,5,0.1335753947,,,
45.8593750000,5,-0.1008606032,,,
45.8750000000,5,-0.2189026028,,,
45.8906250000,5,-0.1720276028,,,
45.9062500000,5,-0.0197753906,,,
45.9218750000,5,0.1373291016,,,
45.9375000000,5,0.2370605022,,,
45.9531250000,5,0.2764281929,,,
45.9687500000,5,0.3043822944,,,
45.9843750000,5,0.3565674126,,,
46.0000000000,5,0.4093933105,,,
46.0156250000,5,0.4019775093,,,
46.0312500000,5,0.2627258003,,,
46.0468750000,5,-0.0239868201,,,
46.0625000000,5,-0.3973999023,,,
46.0781250000,5,-0.7374268174,,,
46.0937500000,5,-0.9409484863,,,
46.1093750000,5,-0.9533081055,,,
46.1250000000,5,-0.7910460830,,,
46.1406250000,5,-0.5433043838,,,
46.1562500000,5,-0.3270569146,,,
46.1718750000,5,-0.2348937988,,,
46.1875000000,5,-0.2854919136,,,
46.2031250000,5,-0.4216003120,,,
46.2187500000,5,-0.4996643066,,,
46.2343750000,5,-0.3912963867,,,
46.2500000000,5,-0.0391845703,,,
46.2656250000,5,0.5002136230,,,
46.2812500000,5,1.0583800077,,,
46.2968750000,5,1.4462889433,,,
46.3125000000,5,1.5469670296,,,
46.3281250000,5,1.3583979607,,,
46.3437500000,5,0.9937133789,,,
46.3593750000,5,0.6038208008,,,
46.3750000000,5,0.2955017090,,,
46.3906250000,5,0.1007385030,,,
46.4062500000,5,-0.0299377404,,,
46.4218750000,5,-0.1607971042,,,
46.4375000000,5,-0.3112488091,,,
46.4531250000,5,-0.4456481934,,,
46.4687500000,5,-0.4903869927,,,
46.4843750000,5,-0.3958129883,,,
46.5000000000,5,-0.1886596978,,,
46.5156250000,5,0.0350036584,,,
46.5312500000,5,0.1458739936,,,
46.5468750000,5,0.0524902306,,,
46.5625000000,5,-0.2543334961,,,
46.5781250000,5,-0.6722106934,,,
46.5937500000,5,-1.0562440157,,,
46.6093750000,5,-1.2596739531,,,
46.6250000000,5,-1.2278439999,,,
46.6406250000,5,-0.9961853027,,,
46.6562500000,5,-0.6703795791,,,
46.6718750000,5,-0.3652344048,,,
46.6875000000,5,-0.1524353027,,,
46.7031250000,5,-0.0351257287,,,
46.7187500000,5,0.0209045392,,,
46.7343750000,5,0.0330810510,,,
46.7500000000,5,-0.0029296880,,,
46.7656250000,5,-0.1237182990,,,
46.7812500000,5,-0.3427124023,,,
46.7968750000,5,-0.6211547852,,,
46.8125000000,5,-0.8646240234,,,
46.8281250000,5,-0.9447327256,,,
46.8437500000,5,-0.7593079209,,,
46.8593750000,5,-0.2949829102,,,
46.8750000000,5,0.3336487114,,,
46.8906250000,5,0.9442749023,,,
46.9062500000,5,1.3206479549,,,
46.9218750000,5,1.3398740292,,,
46.9375000000,5,1.0350949764,,,
46.9531250000,5,0.5692749023,,,
46.9687500000,5,0.1652832031,,,
46.9843750000,5,-0.0116882296,,,
47.0000000000,5,0.0871887207,,,
47.0156250000,5,0.3720093071,,,
47.0312500000,5,0.6964722276,,,
47.0468750000,5,0.9288939834,,,
47.0625000000,5,1.0077509880,,,
47.0781250000,5,0.9420166016,,,
47.0937500000,5,0.7683104873,,,
47.1093750000,5,0.5288391113,,,
47.1250000000,5,0.2538146973,,,
47.1406250000,5,-0.0251770001,,,
47.1562500000,5,-0.2565917969,,,
47.1718750000,5,-0.3694153130,,,
47.1875000000,5,-0.3354187012,,,
47.2031250000,5,-0.1665648967,,,
47.2187500000,5,0.0522766113,,,
47.2343750000,5,0.2193603963,,,
47.2500000000,5,0.2810058892,,,
47.2656250000,5,0.2373961955,,,
47.2812500000,5,0.1373291016,,,
47.2968750000,5,0.0478210412,,,
47.3125000000,5,0.0058288570,,,
47.3281250000,5,0.0038452151,,,
47.3437500000,5,0.0323486291,,,
47.3593750000,5,0.0933227465,,,
47.3750000000,5,0.1921081990,,,
47.3906250000,5,0.3441466987,,,
47.4062500000,5,0.5220947266,,,
47.4218750000,5,0.6581726074,,,
47.4375000000,5,0.6753234863,,,
47.4531250000,5,0.5367432237,,,
47.4687500000,5,0.2682799995,,,
47.4843750000,5,-0.0435180701,,,
47.5000000000,5,-0.2796936035,,,
47.5156250000,5,-0.3630371094,,,
47.5312500000,5,-0.2807922065,,,
47.5468750000,5,-0.0851135328,,,
47.5625000000,5,0.1515807956,,,
47.5781250000,5,0.3540649116,,,
47.5937500000,5,0.4826965034,,,
47.6093750000,5,0.5064697266,,,
47.6250000000,5,0.4156188965,,,
47.6406250000,5,0.2194214016,,,
47.6562500000,5,-0.0515136681,,,
47.6718750000,5,-0.3213196099,,,
47.6875000000,5,-0.5068054199,,,
47.7031250000,5,-0.5272216797,,,
47.7187500000,5,-0.3700562119,,,
47.7343750000,5,-0.0761718825,,,
47.7500000000,5,0.2503052056,,,
47.7656250000,5,0.5010070801,,,
47.7812500000,5,0.5887145996,,,
47.7968750000,5,0.5002136230,,,
47.8125000000,5,0.2945556939,,,
47.8281250000,5,0.0778198168,,,
47.8437500000,5,-0.0487670898,,,
47.8593750000,5,-0.0483703613,,,
47.8750000000,5,0.0564880408,,,
47.8906250000,5,0.1938170940,,,
47.9062500000,5,0.2829590142,,,
47.9218750000,5,0.2700195014,,,
47.9375000000,5,0.1351013035,,,
47.9531250000,5,-0.1067505032,,,
47.9687500000,5,-0.4255371094,,,
47.9843750000,5,-0.7758789063,,,
48.0000000000,6,-1.1289670467,,,
48.0156250000,6,-1.4231259823,,,
48.0312500000,6,-1.5928959846,,,
48.0468750000,6,-1.5578919649,,,
48.0625000000,6,-1.2583919764,,,
48.0781250000,6,-0.7145385742,,,
48.0937500000,6,0.0013427730,,,
48.1093750000,6,0.7313842773,,,
48.1250000000,6,1.3235169649,,,
48.1406250000,6,1.6626889706,,,
48.1562500000,6,1.7126460075,,,
48.1718750000,6,1.5194699764,,,
48.1875000000,6,1.1689759493,,,
48.2031250000,6,0.7635803223,,,
48.2187500000,6,0.3688049018,,,
48.2343750000,6,0.0384826697,,,
48.2500000000,6,-0.1991882026,,,
48.2656250000,6,-0.3096008003,,,
48.2812500000,6,-0.2714538872,,,
48.2968750000,6,-0.0708007813,,,
48.3125000000,6,0.2557983100,,,
48.3281250000,6,0.6324157715,,,
48.3437500000,6,0.9846801758,,,
48.3593750000,6,1.2366329432,,,
48.3750000000,6,1.3603819609,,,
48.3906250000,6,1.3620300293,,,
48.4062500000,6,1.2617490292,,,
48.4218750000,6,1.0901490450,,,
48.4375000000,6,0.8602905273,,,
48.4531250000,6,0.5845336914,,,
48.4687500000,6,0.2621459961,,,
48.4843750000,6,-0.0954284668,,,
48.5000000000,6,-0.4909363091,,,
48.5156250000,6,-0.8861693740,,,
48.5312500000,6,-1.2432249784,,,
48.5468750000,6,-1.4961849451,,,
48.5625000000,6,-1.5961910486,,,
48.5781250000,6,-1.5595699549,,,
48.5937500000,6,-1.4506839514,,,
48.6093750000,6,-1.3782039881,,,
48.6250000000,6,-1.3986510038,,,
48.6406250000,6,-1.4859620333,,,
48.6562500000,6,-1.5373229980,,,
48.6718750000,6,-1.4117430449,,,
48.6875000000,6,-1.0394589901,,,
48.7031250000,6,-0.4672240913,,,
48.7187500000,6,0.1508789063,,,
48.7343750000,6,0.6266173720,,,
48.7500000000,6,0.8276671767,,,
48.7656250000,6,0.7419434190,,,
48.7812500000,6,0.4520263970,,,
48.7968750000,6,0.0666809082,,,
48.8125000000,6,-0.3331604004,,,
48.8281250000,6,-0.7181395888,,,
48.8437500000,6,-1.0682679415,,,
48.8593750000,6,-1.3550109863,,,
48.8750000000,6,-1.5334470272,,,
48.8906250000,6,-1.5574649572,,,
48.9062500000,6,-1.4242860079,,,
48.9218750000,6,-1.1739200354,,,
48.9375000000,6,-0.8835144043,,,
48.9531250000,6,-0.6253356934,,,
48.9687500000,6,-0.4566955864,,,
48.9843750000,6,-0.3926086128,,,
49.0000000000,6,-0.4239197075,,,
49.0156250000,6,-0.4952392876,,,
49.0312500000,6,-0.5348510742,,,
49.0468750000,6,-0.4734801948,,,
49.0625000000,6,-0.2889708877,,,
49.0781250000,6,-0.0015869139,,,
49.0937500000,6,0.3303528130,,,
49.1093750000,6,0.6189879775,,,
49.1250000000,6,0.8047791123,,,
49.1406250000,6,0.8591918945,,,
49.1562500000,6,0.7919312119,,,
49.1718750000,6,0.6292114258,,,
49.1875000000,6,0.4132080078,,,
49.2031250000,6,0.1811217964,,,
49.2187500000,6,-0.0135498000,,,
49.2343750000,6,-0.0916137695,,,
49.2500000000,6,-0.0025024409,,,
49.2656250000,6,0.2531127930,,,
49.2812500000,6,0.6075745225,,,
49.2968750000,6,0.9385070801,,,
49.3125000000,6,1.1333010197,,,
49.3281250000,6,1.1435849667,,,
49.3437500000,6,1.0321350098,,,
49.3593750000,6,0.9233093262,,,
49.3750000000,6,0.9302368164,,,
49.3906250000,6,1.0791629553,,,
49.4062500000,6,1.2914730310,,,
49.4218750000,6,1.4132390022,,,
49.4375000000,6,1.3092960119,,,
49.4531250000,6,0.9525756836,,,
49.4687500000,6,0.4476929009,,,
49.4843750000,6,0.0057983398,,,
49.5000000000,6,-0.1955260932,,,
49.5156250000,6,-0.0990905836,,,
49.5312500000,6,0.2004394978,,,
49.5468750000,6,0.5180053711,,,
49.5625000000,6,0.6619873047,,,
49.5781250000,6,0.5517882705,,,
49.5937500000,6,0.2305298001,,,
49.6093750000,6,-0.1791992038,,,
49.6250000000,6,-0.5415955186,,,
49.6406250000,6,-0.7754821777,,,
49.6562500000,6,-0.8674926758,,,
49.6718750000,6,-0.8530579209,,,
49.6875000000,6,-0.7791748047,,,
49.7031250000,6,-0.6805725098,,,
49.7187500000,6,-0.5766602159,,,
49.7343750000,6,-0.4784545898,,,
49.7500000000,6,-0.4092102051,,,
49.7656250000,6,-0.3923034966,,,
49.7812500000,6,-0.4426575005,,,
49.7968750000,6,-0.5346984863,,,
49.8125000000,6,-0.6012268066,,,
49.8281250000,6,-0.5740662217,,,
49.8437500000,6,-0.4045409858,,,
49.8593750000,6,-0.1074218974,,,
49.8750000000,6,0.2318114936,,,
49.8906250000,6,0.5126647949,,,
49.9062500000,6,0.6806641221,,,
49.9218750000,6,0.7480164170,,,
49.9375000000,6,0.7697448730,,,
49.9531250000,6,0.7946776748,,,
49.9687500000,6,0.7925720215,,,
49.9843750000,6,0.6968383789,,,
50.0000000000,6,0.4427795112,,,
50.0156250000,6,0.0550842285,,,
50.0312500000,6,-0.3454895020,,,
50.0468750000,6,-0.6142578125,,,
50.0625000000,6,-0.6941223145,,,
50.0781250000,6,-0.6470642090,,,
50.0937500000,6,-0.6393433213,,,
50.1093750000,6,-0.8027648926,,,
50.1250000000,6,-1.1349489689,,,
50.1406250000,6,-1.4891049862,,,
50.1562500000,6,-1.6693420410,,,
50.1718750000,6,-1.5613709688,,,
50.1875000000,6,-1.2293399572,,,
50.2031250000,6,-0.8686522841,,,
50.2187500000,6,-0.6775817871,,,
50.2343750000,6,-0.7254943848,,,
50.2500000000,6,-0.9209290147,,,
50.2656250000,6,-1.0509949923,,,
50.2812500000,6,-0.9395142198,,,
50.2968750000,6,-0.5384215713,,,
50.3125000000,6,0.0570373498,,,
50.3281250000,6,0.6576232910,,,
50.3437500000,6,1.0884399414,,,
50.3593750000,6,1.2779539824,,,
50.3750000000,6,1.2483220100,,,
50.3906250000,6,1.0748900175,,,
50.4062500000,6,0.8434752822,,,
50.4218750000,6,0.6089782715,,,
50.4375000000,6,0.3888854980,,,
50.4531250000,6,0.2158202976,,,
50.4687500000,6,0.1343079060,,,
50.4843750000,6,0.2133484036,,,
50.5000000000,6,0.4837645888,,,
50.5156250000,6,0.9020690918,,,
50.5312500000,6,1.3511960506,,,
50.5468750000,6,1.6775820255,,,
50.5625000000,6,1.7545779943,,,
50.5781250000,6,1.5666199923,,,
50.5937500000,6,1.2105100155,,,
50.6093750000,6,0.8591613770,,,
50.6250000000,6,0.6557312012,,,
50.6406250000,6,0.6416320801,,,
50.6562500000,6,0.7503662109,,,
50.6718750000,6,0.8519896865,,,
50.6875000000,6,0.8447875977,,,
50.7031250000,6,0.7106323242,,,
50.7187500000,6,0.5022277832,,,
50.7343750000,6,0.2901000977,,,
50.7500000000,6,0.0766296387,,,
50.7656250000,6,-0.1730041951,,,
50.7812500000,6,-0.5069885254,,,
50.7968750000,6,-0.8865355849,,,
50.8125000000,6,-1.2030639648,,,
50.8281250000,6,-1.3211359978,,,
50.8437500000,6,-1.1801760197,,,
50.8593750000,6,-0.8514708877,,,
50.8750000000,6,-0.4907532036,,,
50.8906250000,6,-0.2694702148,,,
50.9062500000,6,-0.2504577935,,,
50.9218750000,6,-0.3788452148,,,
50.9375000000,6,-0.5187377930,,,
50.9531250000,6,-0.5579528809,,,
50.9687500000,6,-0.4617309868,,,
50.9843750000,6,-0.2706908882,,,
51.0000000000,6,-0.0594482385,,,
51.0156250000,6,0.1115417033,,,
51.0312500000,6,0.2254638970,,,
51.0468750000,6,0.2798767090,,,
51.0625000000,6,0.2796021104,,,
51.0781250000,6,0.2379456013,,,
51.0937500000,6,0.1761779934,,,
51.1093750000,6,0.1387939006,,,
51.1250000000,6,0.1589355022,,,
51.1406250000,6,0.2370605022,,,
51.1562500000,6,0.3410339057,,,
51.1718750000,6,0.4086608887,,,
51.1875000000,6,0.4000244141,,,
51.2031250000,6,0.3185119927,,,
51.2187500000,6,0.2181396037,,,
51.2343750000,6,0.1561278999,,,
51.2500000000,6,0.1520081013,,,
51.2656250000,6,0.1828612983,,,
51.2812500000,6,0.2073668987,,,
51.2968750000,6,0.2159729004,,,
51.3125000000,6,0.2162476033,,,
51.3281250000,6,0.2279967964,,,
51.3437500000,6,0.2386168987,,,
51.3593750000,6,0.1963806003,,,
51.3750000000,6,0.0675964430,,,
51.3906250000,6,-0.1393433064,,,
51.4062500000,6,-0.3335875869,,,
51.4218750000,6,-0.3933104873,,,
51.4375000000,6,-0.2365417033,,,
51.4531250000,6,0.1004638970,,,
51.4687500000,6,0.4856872857,,,
51.4843750000,6,0.7491455078,,,
51.5000000000,6,0.7720642090,,,
51.5156250000,6,0.5467529297,,,
51.5312500000,6,0.1811522990,,,
51.5468750000,6,-0.2061156929,,,
51.5625000000,6,-0.5359191895,,,
51.5781250000,6,-0.8056641221,,,
51.5937500000,6,-1.0365300179,,,
51.6093750000,6,-1.2139890194,,,
51.6250000000,6,-1.2855529785,,,
51.6406250000,6,-1.2054140568,,,
51.6562500000,6,-0.9856566787,,,
51.6718750000,6,-0.7269287109,,,
51.6875000000,6,-0.5650023818,,,
51.7031250000,6,-0.5891113281,,,
51.7187500000,6,-0.7774047852,,,
51.7343750000,6,-1.0060420036,,,
51.7500000000,6,-1.1201479435,,,
51.7656250000,6,-1.0543819666,,,
51.7812500000,6,-0.8351439834,,,
51.7968750000,6,-0.5647583008,,,
51.8125000000,6,-0.3310241997,,,
51.8281250000,6,-0.1651000977,,,
51.8437500000,6,-0.0438232385,,,
51.8593750000,6,0.0776672363,,,
51.8750000000,6,0.2187805027,,,
51.8906250000,6,0.3483582139,,,
51.9062500000,6,0.4071654975,,,
51.9218750000,6,0.3482055962,,,
51.9375000000,6,0.1637268066,,,
51.9531250000,6,-0.1333312988,,,
51.9687500000,6,-0.4957275093,,,
51.9843750000,6,-0.8630371094,,,
52.0000000000,6,-1.1543580294,,,
52.0156250000,6,-1.2756040096,,,
52.0312500000,6,-1.1417239904,,,
52.0468750000,6,-0.7272338867,,,
52.0625000000,6,-0.0980224609,,,
52.0781250000,6,0.5912780762,,,
52.0937500000,6,1.1512449980,,,
52.1093750000,6,1.4511109591,,,
52.1250000000,6,1.4684139490,,,
52.1406250000,6,1.2964479923,,,
52.1562500000,6,1.0697629452,,,
52.1718750000,6,0.8989868164,,,
52.1875000000,6,0.8046265244,,,
52.2031250000,6,0.7374877930,,,
52.2187500000,6,0.6332396865,,,
52.2343750000,6,0.4751892090,,,
52.2500000000,6,0.3062134087,,,
52.2656250000,6,0.1895142049,,,
52.2812500000,6,0.1549071968,,,
52.2968750000,6,0.1549987942,,,
52.3125000000,6,0.1323852986,,,
52.3281250000,6,0.0605773889,,,
52.3437500000,6,-0.0139160203,,,
52.3593750000,6,0.0140685998,,,
52.3750000000,6,0.2197570950,,,
52.3906250000,6,0.5667114258,,,
52.4062500000,6,0.9123229980,,,
52.4218750000,6,1.0820009708,,,
52.4375000000,6,0.9808043838,,,
52.4531250000,6,0.6578369141,,,
52.4687500000,6,0.2630004883,,,
52.4843750000,6,-0.0457763709,,,
52.5000000000,6,-0.1868591011,,,
52.5156250000,6,-0.1896667033,,,
52.5312500000,6,-0.1297913045,,,
52.5468750000,6,-0.0592651404,,,
52.5625000000,6,0.0151977502,,,
52.5781250000,6,0.1012573019,,,
52.5937500000,6,0.1836242974,,,
52.6093750000,6,0.1864318997,,,
52.6250000000,6,0.0273132306,,,
52.6406250000,6,-0.3082580864,,,
52.6562500000,6,-0.7295836806,,,
52.6718750000,6,-1.0581669807,,,
52.6875000000,6,-1.1213070154,,,
52.7031250000,6,-0.8368530273,,,
52.7187500000,6,-0.2731628120,,,
52.7343750000,6,0.4060364068,,,
52.7500000000,6,1.0062869787,,,
52.7656250000,6,1.3959959745,,,
52.7812500000,6,1.5212709904,,,
52.7968750000,6,1.3719480038,,,
52.8125000000,6,0.9885253906,,,
52.8281250000,6,0.4386901855,,,
52.8437500000,6,-0.1709595025,,,
52.8593750000,6,-0.6993103027,,,
52.8750000000,6,-1.0140689611,,,
52.8906250000,6,-1.0682979822,,,
52.9062500000,6,-0.9253234863,,,
52.9218750000,6,-0.7385559082,,,
52.9375000000,6,-0.6858521104,,,
52.9531250000,6,-0.8529663086,,,
52.9687500000,6,-1.1981810331,,,
52.9843750000,6,-1.5787349939,,,
53.0000000000,6,-1.8287960291,,,
53.0156250000,6,-1.8466190100,,,
53.0312500000,6,-1.6307369471,,,
53.0468750000,6,-1.2701419592,,,
53.0625000000,6,-0.8630980849,,,
53.0781250000,6,-0.4953002930,,,
53.0937500000,6,-0.1925659031,,,
53.1093750000,6,0.0221557599,,,
53.1250000000,6,0.1323852986,,,
53.1406250000,6,0.1378173977,,,
53.1562500000,6,0.0805969164,,,
53.1718750000,6,0.0534057617,,,
53.1875000000,6,0.1496582031,,,
53.2031250000,6,0.4436340034,,,
53.2187500000,6,0.8974915147,,,
53.2343750000,6,1.3830260038,,,
53.2500000000,6,1.7189940214,,,
53.2656250000,6,1.7730710506,,,
53.2812500000,6,1.5398249626,,,
53.2968750000,6,1.1358640194,,,
53.3125000000,6,0.7524108887,,,
53.3281250000,6,0.5524597168,,,
53.3437500000,6,0.5708007813,,,
53.3593750000,6,0.7117919922,,,
53.3750000000,6,0.8052368164,,,
53.3906250000,6,0.7179260254,,,
53.4062500000,6,0.4397583008,,,
53.4218750000,6,0.0849609375,,,
53.4375000000,6,-0.1834412068,,,
53.4531250000,6,-0.2635802925,,,
53.4687500000,6,-0.1721497029,,,
53.4843750000,6,-0.0386047401,,,
53.5000000000,6,-0.0284118708,,,
53.5156250000,6,-0.2256164998,,,
53.5312500000,6,-0.5929564834,,,
53.5468750000,6,-0.9882506728,,,
53.5625000000,6,-1.2488399744,,,
53.5781250000,6,-1.2832030058,,,
53.5937500000,6,-1.1021120548,,,
53.6093750000,6,-0.8078917861,,,
53.6250000000,6,-0.5198975205,,,
53.6406250000,6,-0.3150024116,,,
53.6562500000,6,-0.1926880032,,,
53.6718750000,6,-0.1104736030,,,
53.6875000000,6,-0.0265808105,,,
53.7031250000,6,0.0756225586,,,
53.7187500000,6,0.1781311035,,,
53.7343750000,6,0.2530823052,,,
53.7500000000,6,0.2879028022,,,
53.7656250000,6,0.2830505073,,,
53.7812500000,6,0.2533569038,,,
53.7968750000,6,0.2080993950,,,
53.8125000000,6,0.1548766941,,,
53.8281250000,6,0.1026917025,,,
53.8437500000,6,0.0649414137,,,
53.8593750000,6,0.0783691406,,,
53.8750000000,6,0.1692810059,,,
53.8906250000,6,0.3401488960,,,
53.9062500000,6,0.5678710938,,,
53.9218750000,6,0.8120117188,,,
53.9375000000,6,1.0283809900,,,
53.9531250000,6,1.1986390352,,,
53.9687500000,6,1.3103330135,,,
53.9843750000,6,1.3371280432,,,
54.0000000000,6,1.2250369787,,,
54.0156250000,6,0.9153137207,,,
54.0312500000,6,0.3843384087,,,
54.0468750000,6,-0.3095093071,,,
54.0625000000,6,-1.0190429688,,,
54.0781250000,6,-1.5600279570,,,
54.0937500000,6,-1.7905579805,,,
54.1093750000,6,-1.6846309900,,,
54.1250000000,6,-1.3206180334,,,
54.1406250000,6,-0.8498229980,,,
54.1562500000,6,-0.4062804878,,,
54.1718750000,6,-0.0395507813,,,
54.1875000000,6,0.2877807915,,,
54.2031250000,6,0.6384276748,,,
54.2187500000,6,1.0397950411,,,
54.2343750000,6,1.4338680506,,,
54.2500000000,6,1.7026059628,,,
54.2656250000,6,1.7376400232,,,
54.2812500000,6,1.5124210119,,,
54.2968750000,6,1.1102910042,,,
54.3125000000,6,0.6884766221,,,
54.3281250000,6,0.3864746094,,,
54.3437500000,6,0.2462462932,,,
54.3593750000,6,0.2044983059,,,
54.3750000000,6,0.1431885064,,,
54.3906250000,6,-0.0368347205,,,
54.4062500000,6,-0.3552856147,,,
54.4218750000,6,-0.7415161133,,,
54.4375000000,6,-1.0890810490,,,
54.4531250000,6,-1.3116760254,,,
54.4687500000,6,-1.3807979822,,,
54.4843750000,6,-1.3325200081,,,
54.5000000000,6,-1.2258000374,,,
54.5156250000,6,-1.1004329920,,,
54.5312500000,6,-0.9635009766,,,
54.5468750000,6,-0.8073425293,,,
54.5625000000,6,-0.6230773926,,,
54.5781250000,6,-0.4288940132,,,
54.5937500000,6,-0.2638244927,,,
54.6093750000,6,-0.1701965034,,,
54.6250000000,6,-0.1640930027,,,
54.6406250000,6,-0.2302550972,,,
54.6562500000,6,-0.3340454102,,,
54.6718750000,6,-0.4329529107,,,
54.6875000000,6,-0.4926146865,,,
54.7031250000,6,-0.5091857910,,,
54.7187500000,6,-0.4866333008,,,
54.7343750000,6,-0.4463805854,,,
54.7500000000,6,-0.3992615044,,,
54.7656250000,6,-0.3296813965,,,
54.7812500000,6,-0.2435912937,,,
54.7968750000,6,-0.1571045071,,,
54.8125000000,6,-0.1014403999,,,
54.8281250000,6,-0.1058043987,,,
54.8437500000,6,-0.1631164998,,,
54.8593750000,6,-0.2256164998,,,
54.8750000000,6,-0.2227478027,,,
54.8906250000,6,-0.1094971001,,,
54.9062500000,6,0.1090698019,,,
54.9218750000,6,0.3680725098,,,
54.9375000000,6,0.5903624892,,,
54.9531250000,6,0.7125244141,,,
54.9687500000,6,0.7266541123,,,
54.9843750000,6,0.6673278809,,,
55.0000000000,6,0.5737000108,,,
55.0156250000,6,0.4629822075,,,
55.0312500000,6,0.3266296089,,,
55.0468750000,6,0.1608581990,,,
55.0625000000,6,-0.0208740197,,,
55.0781250000,6,-0.1636963040,,,
55.0937500000,6,-0.2315979004,,,
55.1093750000,6,-0.2381287068,,,
55.1250000000,6,-0.2586975098,,,
55.1406250000,6,-0.3943481147,,,
55.1562500000,6,-0.6932067871,,,
55.1718750000,6,-1.1088260412,,,
55.1875000000,6,-1.4772950411,,,
55.2031250000,6,-1.6262819767,,,
55.2187500000,6,-1.4438780546,,,
55.2343750000,6,-0.9725341797,,,
55.2500000000,6,-0.3766478896,,,
55.2656250000,6,0.1592711955,,,
55.2812500000,6,0.5139160156,,,
55.2968750000,6,0.6884459853,,,
55.3125000000,6,0.7699890137,,,
55.3281250000,6,0.8528137207,,,
55.3437500000,6,0.9634705186,,,
55.3593750000,6,1.0617680550,,,
55.3750000000,6,1.0939639807,,,
55.3906250000,6,1.0279239416,,,
55.4062500000,6,0.8916625977,,,
55.4218750000,6,0.7373961806,,,
55.4375000000,6,0.6156920791,,,
55.4531250000,6,0.5226439834,,,
55.4687500000,6,0.4128723145,,,
55.4843750000,6,0.2577514946,,,
55.5000000000,6,0.0891723633,,,
55.5156250000,6,-0.0214843806,,,
55.5312500000,6,-0.0105285598,,,
55.5468750000,6,0.1515502930,,,
55.5625000000,6,0.3877258003,,,
55.5781250000,6,0.5852355957,,,
55.5937500000,6,0.6528015137,,,
55.6093750000,6,0.5644835830,,,
55.6250000000,6,0.3544921875,,,
55.6406250000,6,0.0979919434,,,
55.6562500000,6,-0.1477050930,,,
55.6718750000,6,-0.3714905083,,,
55.6875000000,6,-0.5646361709,,,
55.7031250000,6,-0.7134705186,,,
55.7187500000,6,-0.7803955078,,,
55.7343750000,6,-0.7171326280,,,
55.7500000000,6,-0.5126953125,,,
55.7656250000,6,-0.2287902981,,,
55.7812500000,6,0.0273132306,,,
55.7968750000,6,0.1533508003,,,
55.8125000000,6,0.1195067987,,,
55.8281250000,6,0.0013122560,,,
55.8437500000,6,-0.0733337402,,,
55.8593750000,6,-0.0089111328,,,
55.8750000000,6,0.1998291016,,,
55.8906250000,6,0.4507750869,,,
55.9062500000,6,0.6235961914,,,
55.9218750000,6,0.6391602159,,,
55.9375000000,6,0.5272216797,,,
55.9531250000,6,0.4109497070,,,
55.9687500000,6,0.4250487983,,,
55.9843750000,6,0.6200562119,,,
56.0000000000,7,0.9517211914,,,
