Time:64Hz,Epoch,Channel 1,Event Id,Event Date,Event Duration
0.0000000000,0,0.4201659858,,,
0.0156250000,0,0.2130431980,,,
0.0312500000,0,-0.0293273907,,,
0.0468750000,0,-0.2298583984,,,
0.0625000000,0,-0.3266296089,,,
0.0781250000,0,-0.3297728896,,,
0.0937500000,0,-0.3136292100,,,
0.1093750000,0,-0.3778687119,,,
0.1250000000,0,-0.6089478135,,,
0.1406250000,0,-1.0008850098,,,
0.1562500000,0,-1.4452819824,,,
0.1718750000,0,-1.7859189510,,,
0.1875000000,0,-1.8768310547,,,
0.2031250000,0,-1.6549680233,,,
0.2187500000,0,-1.1654050350,,,
0.2343750000,0,-0.5296326280,,,
0.2500000000,0,0.1146544963,,,
0.2656250000,0,0.6427611709,,,
0.2812500000,0,0.9903563857,,,
0.2968750000,0,1.1418459415,,,
0.3125000000,0,1.1076660156,,,
0.3281250000,0,0.9305114746,,,
0.3437500000,0,0.6490479112,,,
0.3593750000,0,0.2979430854,,,
0.3750000000,0,-0.0713195801,,,
0.3906250000,0,-0.3906250000,,,
0.4062500000,0,-0.5927733779,,,
0.4218750000,0,-0.6244202256,,,
0.4375000000,0,-0.4986571968,,,
0.4531250000,0,-0.2968445122,,,
0.4687500000,0,-0.1257935017,,,
0.4843750000,0,-0.0920410231,,,
0.5000000000,0,-0.2304382026,,,
0.5156250000,0,-0.4794312119,,,
0.5312500000,0,-0.7204589844,,,
0.5468750000,0,-0.8347167969,,,
0.5625000000,0,-0.7678833008,,,
0.5781250000,0,-0.5456542969,,,
0.5937500000,0,-0.2497864068,,,
0.6093750000,0,0.0378723107,,,
0.6250000000,0,0.2891846001,,,
0.6406250000,0,0.5218811035,,,
0.6562500000,0,0.7714843750,,,
0.6718750000,0,1.0382390022,,,
0.6875000000,0,1.2818599939,,,
0.7031250000,0,1.4529720545,,,
0.7187500000,0,1.5190730095,,,
0.7343750000,0,1.4835510254,,,
0.7500000000,0,1.3852839470,,,
0.7656250000,0,1.2393800020,,,
0.7812500000,0,1.0520019531,,,
0.7968750000,0,0.8185424805,,,
0.8125000000,0,0.5349426270,,,
0.8281250000,0,0.2200928032,,,
0.8437500000,0,-0.0841979980,,,
0.8593750000,0,-0.3291930854,,,
0.8750000000,0,-0.4726563096,,,
0.8906250000,0,-0.4921264946,,,
0.9062500000,0,-0.4013366997,,,
0.9218750000,0,-0.2415771037,,,
0.9375000000,0,-0.0762634277,,,
0.9531250000,0,0.0412292518,,,
0.9687500000,0,0.0763549805,,,
0.9843750000,0,0.0325012207,,,
1.0000000000,0,-0.0459289588,,,
1.0156250000,0,-0.1211548001,,,
1.0312500000,0,-0.1754456013,,,
1.0468750000,0,-0.2197570950,,,
1.0625000000,0,-0.2861633003,,,
1.0781250000,0,-0.3929749131,,,
1.0937500000,0,-0.5238953233,,,
1.1093750000,0,-0.6339722276,,,
1.1250000000,0,-0.6621704102,,,
1.1406250000,0,-0.5614014268,,,
1.1562500000,0,-0.3009338081,,,
1.1718750000,0,0.1019287035,,,
1.1875000000,0,0.5779113770,,,
1.2031250000,0,1.0010069609,,,
1.2187500000,0,1.2235109806,,,
1.2343750000,0,1.1469119787,,,
1.2500000000,0,0.7913817763,,,
1.2656250000,0,0.3180541992,,,
1.2812500000,0,-0.0498962402,,,
1.2968750000,0,-0.1520691067,,,
1.3125000000,0,0.0340270996,,,
1.3281250000,0,0.3592224121,,,
1.3437500000,0,0.6022034287,,,
1.3593750000,0,0.6139525771,,,
1.3750000000,0,0.3924866021,,,
1.3906250000,0,0.0849914625,,,
1.4062500000,0,-0.1065673977,,,
1.4218750000,0,-0.0760497972,,,
1.4375000000,0,0.1487731934,,,
1.4531250000,0,0.4171752930,,,
1.4687500000,0,0.5761718750,,,
1.4843750000,0,0.5440369248,,,
1.5000000000,0,0.3699645996,,,
1.5156250000,0,0.1541748047,,,
1.5312500000,0,-0.0102844201,,,
1.5468750000,0,-0.1047362983,,,
1.5625000000,0,-0.1878966987,,,
1.5781250000,0,-0.3192138970,,,
1.5937500000,0,-0.5124816895,,,
1.6093750000,0,-0.7115784287,,,
1.6250000000,0,-0.8216248155,,,
1.6406250000,0,-0.7624511719,,,
1.6562500000,0,-0.5172423720,,,
1.6718750000,0,-0.1429748982,,,
1.6875000000,0,0.2654418945,,,
1.7031250000,0,0.6081237793,,,
1.7187500000,0,0.8140258789,,,
1.7343750000,0,0.8628234863,,,
1.7500000000,0,0.7397155762,,,
1.7656250000,0,0.4499207139,,,
1.7812500000,0,0.0178527795,,,
1.7968750000,0,-0.5020751953,,,
1.8125000000,0,-1.0330510139,,,
1.8281250000,0,-1.4831240177,,,
1.8437500000,0,-1.7944029570,,,
1.8593750000,0,-1.9349980354,,,
1.8750000000,0,-1.9108279943,,,
1.8906250000,0,-1.7505489588,,,
1.9062500000,0,-1.4619450569,,,
1.9218750000,0,-1.0704959631,,,
1.9375000000,0,-0.6010131836,,,
1.9531250000,0,-0.1084899977,,,
1.9687500000,0,0.3589172065,,,
1.9843750000,0,0.7478026748,,,
2.0000000000,0,1.0574339628,,,
2.0156250000,0,1.2850040197,,,
2.0312500000,0,1.4253230095,,,
2.0468750000,0,1.4609379768,,,
2.0625000000,0,1.3482060432,,,
2.0781250000,0,1.0819400549,,,
2.0937500000,0,0.7178040147,,,
2.1093750000,0,0.3736267090,,,
2.1250000000,0,0.1662597954,,,
2.1406250000,0,0.1463928074,,,
2.1562500000,0,0.2633056939,,,
2.1718750000,0,0.3891907036,,,
2.1875000000,0,0.4220885932,,,
2.2031250000,0,0.3358458877,,,
2.2187500000,0,0.1912537068,,,
2.2343750000,0,0.0820007324,,,
2.2500000000,0,0.0560302697,,,
2.2656250000,0,0.0841979980,,,
2.2812500000,0,0.0950317383,,,
2.2968750000,0,0.0409240685,,,
2.3125000000,0,-0.0827331468,,,
2.3281250000,0,-0.2140807956,,,
2.3437500000,0,-0.3035278022,,,
2.3593750000,0,-0.3489989936,,,
2.3750000000,0,-0.3858642876,,,
2.3906250000,0,-0.4726257026,,,
2.4062500000,0,-0.6264954209,,,
2.4218750000,0,-0.8184813857,,,
2.4375000000,0,-0.9815673828,,,
2.4531250000,0,-1.0343630314,,,
2.4687500000,0,-0.9322814941,,,
2.4843750000,0,-0.6917114258,,,
2.5000000000,0,-0.3800354004,,,
2.5156250000,0,-0.0914306566,,,
2.5312500000,0,0.0664367676,,,
2.5468750000,0,0.0540771484,,,
2.5625000000,0,-0.1051940992,,,
2.5781250000,0,-0.3267821968,,,
2.5937500000,0,-0.5158386230,,,
2.6093750000,0,-0.6201171875,,,
2.6250000000,0,-0.6528319716,,,
2.6406250000,0,-0.6742553711,,,
2.6562500000,0,-0.7209473252,,,
2.6718750000,0,-0.7839661241,,,
2.6875000000,0,-0.8090515137,,,
2.7031250000,0,-0.7469481826,,,
2.7187500000,0,-0.5965576172,,,
2.7343750000,0,-0.4219360054,,,
2.7500000000,0,-0.2991333008,,,
2.7656250000,0,-0.2698363960,,,
2.7812500000,0,-0.2916564941,,,
2.7968750000,0,-0.2684631050,,,
2.8125000000,0,-0.1189270020,,,
2.8281250000,0,0.1799927056,,,
2.8437500000,0,0.5853577256,,,
2.8593750000,0,0.9880371094,,,
2.8750000000,0,1.2856450081,,,
2.8906250000,0,1.3917850256,,,
2.9062500000,0,1.2472840548,,,
2.9218750000,0,0.8486328125,,,
2.9375000000,0,0.2374877930,,,
2.9531250000,0,-0.4612731934,,,
2.9687500000,0,-1.0884699821,,,
2.9843750000,0,-1.4746090174,,,
3.0000000000,0,-1.5354919434,,,
3.0156250000,0,-1.2839970589,,,
3.0312500000,0,-0.8475037217,,,
3.0468750000,0,-0.3951720893,,,
3.0625000000,0,-0.0570373498,,,
3.0781250000,0,0.1249694973,,,
3.0937500000,0,0.2058105022,,,
3.1093750000,0,0.2622070014,,,
3.1250000000,0,0.3406676948,,,
3.1406250000,0,0.4240722954,,,
3.1562500000,0,0.4543761909,,,
3.1718750000,0,0.4071959853,,,
3.1875000000,0,0.3066711128,,,
3.2031250000,0,0.2204895020,,,
3.2187500000,0,0.2058105022,,,
3.2343750000,0,0.2649536133,,,
3.2500000000,0,0.3561707139,,,
3.2656250000,0,0.4202880859,,,
3.2812500000,0,0.4290770888,,,
3.2968750000,0,0.3952026069,,,
3.3125000000,0,0.3415833116,,,
3.3281250000,0,0.2693175972,,,
3.3437500000,0,0.1710204929,,,
3.3593750000,0,0.0351867713,,,
3.3750000000,0,-0.1004943997,,,
3.3906250000,0,-0.1672973931,,,
3.4062500000,0,-0.0935974121,,,
3.4218750000,0,0.1408081055,,,
3.4375000000,0,0.4751282036,,,
3.4531250000,0,0.8283386230,,,
3.4687500000,0,1.1255489588,,,
3.4843750000,0,1.3497920036,,,
3.5000000000,0,1.5324399471,,,
3.5156250000,0,1.6833189726,,,
3.5312500000,0,1.7804570198,,,
3.5468750000,0,1.7464599609,,,
3.5625000000,0,1.5151059628,,,
3.5781250000,0,1.0802309513,,,
3.5937500000,0,0.5350341797,,,
3.6093750000,0,0.0249633808,,,
3.6250000000,0,-0.3276672065,,,
3.6406250000,0,-0.4640808105,,,
3.6562500000,0,-0.4339905083,,,
3.6718750000,0,-0.3402099907,,,
3.6875000000,0,-0.2905273139,,,
3.7031250000,0,-0.3382262886,,,
3.7187500000,0,-0.4714049995,,,
3.7343750000,0,-0.6280211806,,,
3.7500000000,0,-0.7318726182,,,
3.7656250000,0,-0.7291870117,,,
3.7812500000,0,-0.6147460938,,,
3.7968750000,0,-0.4074401855,,,
3.8125000000,0,-0.1483153999,,,
3.8281250000,0,0.1041565016,,,
3.8437500000,0,0.2798767090,,,
3.8593750000,0,0.2889403999,,,
3.8750000000,0,0.0627746582,,,
3.8906250000,0,-0.4005126953,,,
3.9062500000,0,-1.0082089901,,,
3.9218750000,0,-1.5683900118,,,
3.9375000000,0,-1.8917540312,,,
3.9531250000,0,-1.8480219841,,,
3.9687500000,0,-1.4599000216,,,
3.9843750000,0,-0.8891295791,,,
4.0000000000,0,-0.3515014946,,,
4.0156250000,0,-0.0426635705,,,
4.0312500000,0,-0.0300293006,,,
4.0468750000,0,-0.2569274902,,,
4.0625000000,0,-0.5816040039,,,
4.0781250000,0,-0.8545532227,,,
4.0937500000,0,-0.9707031250,,,
4.1093750000,0,-0.8994141221,,,
4.1250000000,0,-0.6766967773,,,
4.1406250000,0,-0.3586426079,,,
4.1562500000,0,-0.0079040527,,,
4.1718750000,0,0.3344421089,,,
4.1875000000,0,0.6519165039,,,
4.2031250000,0,0.9186096191,,,
4.2187500000,0,1.1132509708,,,
4.2343750000,0,1.1895749569,,,
4.2500000000,0,1.1291199923,,,
4.2656250000,0,0.9461975098,,,
4.2812500000,0,0.6912537217,,,
4.2968750000,0,0.4448547065,,,
4.3125000000,0,0.2846679986,,,
4.3281250000,0,0.2521972954,,,
4.3437500000,0,0.3318786919,,,
4.3593750000,0,0.4670409858,,,
4.3750000000,0,0.5850830078,,,
4.3906250000,0,0.6282042861,,,
4.4062500000,0,0.5615233779,,,
4.4218750000,0,0.3949280083,,,
4.4375000000,0,0.1572266072,,,
4.4531250000,0,-0.0914001465,,,
4.4687500000,0,-0.2869567871,,,
4.4843750000,0,-0.3792113960,,,
4.5000000000,0,-0.3549804986,,,
4.5156250000,0,-0.2554931939,,,
4.5312500000,0,-0.1375122070,,,
4.5468750000,0,-0.0694580078,,,
4.5625000000,0,-0.0656433105,,,
4.5781250000,0,-0.0971069336,,,
4.5937500000,0,-0.1120605022,,,
4.6093750000,0,-0.0726013184,,,
4.6250000000,0,-0.0108642597,,,
4.6406250000,0,0.0045166020,,,
4.6562500000,0,-0.1234436035,,,
4.6718750000,0,-0.4453735054,,,
4.6875000000,0,-0.9187316895,,,
4.7031250000,0,-1.4262390137,,,
4.7187500000,0,-1.8026729822,,,
4.7343750000,0,-1.9319460392,,,
4.7500000000,0,-1.7865910530,,,
4.7656250000,0,-1.4205319881,,,
4.7812500000,0,-0.9470520020,,,
4.7968750000,0,-0.4825438857,,,
4.8125000000,0,-0.0903320313,,,
4.8281250000,0,0.2058715969,,,
4.8437500000,0,0.4071654975,,,
4.8593750000,0,0.5205687881,,,
4.8750000000,0,0.5559387207,,,
4.8906250000,0,0.5563048720,,,
4.9062500000,0,0.6047363281,,,
4.9218750000,0,0.7910156250,,,
4.9375000000,0,1.1532900333,,,
4.9531250000,0,1.6235660315,,,
4.9687500000,0,2.0404360294,,,
4.9843750000,0,2.2136540413,,,
5.0000000000,0,2.0418400764,,,
5.0156250000,0,1.5697629452,,,
5.0312500000,0,0.9764099121,,,
5.0468750000,0,0.4519042969,,,
5.0625000000,0,0.1317749023,,,
5.0781250000,0,0.0181274395,,,
5.0937500000,0,0.0332031287,,,
5.1093750000,0,0.0947875977,,,
5.1250000000,0,0.1616515964,,,
5.1406250000,0,0.2393493950,,,
5.1562500000,0,0.3356322944,,,
5.1718750000,0,0.4283752143,,,
5.1875000000,0,0.4694213867,,,
5.2031250000,0,0.4156494141,,,
5.2187500000,0,0.2764892876,,,
5.2343750000,0,0.1038817987,,,
5.2500000000,0,-0.0377502404,,,
5.2656250000,0,-0.1068115011,,,
5.2812500000,0,-0.1083068997,,,
5.2968750000,0,-0.0786132813,,,
5.3125000000,0,-0.0487670898,,,
5.3281250000,0,-0.0396423303,,,
5.3437500000,0,-0.0669555664,,,
5.3593750000,0,-0.1479187012,,,
5.3750000000,0,-0.3210754097,,,
5.3906250000,0,-0.6043701172,,,
5.4062500000,0,-0.9791564941,,,
5.4218750000,0,-1.3657230139,,,
5.4375000000,0,-1.6514890194,,,
5.4531250000,0,-1.7307740450,,,
5.4687500000,0,-1.5510560274,,,
5.4843750000,0,-1.1442569494,,,
5.5000000000,0,-0.6261597276,,,
5.5156250000,0,-0.1453551948,,,
5.5312500000,0,0.1611022949,,,
5.5468750000,0,0.2227478027,,,
5.5625000000,0,0.0767822266,,,
5.5781250000,0,-0.1650391072,,,
5.5937500000,0,-0.3539429009,,,
5.6093750000,0,-0.3688965142,,,
5.6250000000,0,-0.1776428074,,,
5.6406250000,0,0.1569519043,,,
5.6562500000,0,0.5140991211,,,
5.6718750000,0,0.7824097276,,,
5.6875000000,0,0.9135742188,,,
5.7031250000,0,0.9202271104,,,
5.7187500000,0,0.8488770127,,,
5.7343750000,0,0.7312011719,,,
5.7500000000,0,0.5762329102,,,
5.7656250000,0,0.3725585938,,,
5.7812500000,0,0.1277160943,,,
5.7968750000,0,-0.1247558966,,,
5.8125000000,0,-0.3187865913,,,
5.8281250000,0,-0.4072265923,,,
5.8437500000,0,-0.3820190132,,,
5.8593750000,0,-0.2730408013,,,
5.8750000000,0,-0.1378784031,,,
5.8906250000,0,-0.0172729492,,,
5.9062500000,0,0.0569152795,,,
5.9218750000,0,0.0756225586,,,
5.9375000000,0,0.0374145508,,,
5.9531250000,0,-0.0457153283,,,
5.9687500000,0,-0.1564940959,,,
5.9843750000,0,-0.2524718940,,,
6.0000000000,0,-0.2879332900,,,
6.0156250000,0,-0.2493896037,,,
6.0312500000,0,-0.1589660943,,,
6.0468750000,0,-0.0900573730,,,
6.0625000000,0,-0.1016234979,,,
6.0781250000,0,-0.1989745945,,,
6.0937500000,0,-0.3248595893,,,
6.1093750000,0,-0.3696593940,,,
6.1250000000,0,-0.2693175972,,,
6.1406250000,0,-0.0316467285,,,
6.1562500000,0,0.2456665039,,,
6.1718750000,0,0.4363707900,,,
6.1875000000,0,0.4771729112,,,
6.2031250000,0,0.3937073052,,,
6.2187500000,0,0.2827759087,,,
6.2343750000,0,0.2295531929,,,
6.2500000000,0,0.2536925972,,,
6.2656250000,0,0.2833251953,,,
6.2812500000,0,0.2332153022,,,
6.2968750000,0,0.0719909668,,,
6.3125000000,0,-0.1162109002,,,
6.3281250000,0,-0.1886902004,,,
6.3437500000,0,-0.0496520996,,,
6.3593750000,0,0.2746886909,,,
6.3750000000,0,0.6168212891,,,
6.3906250000,0,0.7762451172,,,
6.4062500000,0,0.6268615723,,,
6.4218750000,0,0.2021179050,,,
6.4375000000,0,-0.3445129097,,,
6.4531250000,0,-0.8208618164,,,
6.4687500000,0,-1.1163940430,,,
6.4843750000,0,-1.2221980095,,,
6.5000000000,0,-1.1958919764,,,
6.5156250000,0,-1.0945739746,,,
6.5312500000,0,-0.9229125977,,,
6.5468750000,0,-0.6734313965,,,
6.5625000000,0,-0.3656615913,,,
6.5781250000,0,-0.0816650391,,,
6.5937500000,0,0.0651245117,,,
6.6093750000,0,0.0275573693,,,
6.6250000000,0,-0.1484375000,,,
6.6406250000,0,-0.3097839057,,,
6.6562500000,0,-0.3229064941,,,
6.6718750000,0,-0.1443175972,,,
6.6875000000,0,0.1338195950,,,
6.7031250000,0,0.3479613960,,,
6.7187500000,0,0.3592833877,,,
6.7343750000,0,0.1304931939,,,
6.7500000000,0,-0.2429199070,,,
6.7656250000,0,-0.5973510742,,,
6.7812500000,0,-0.7729492188,,,
6.7968750000,0,-0.6948242188,,,
6.8125000000,0,-0.3734130859,,,
6.8281250000,0,0.0862121582,,,
6.8437500000,0,0.5524901748,,,
6.8593750000,0,0.9181823730,,,
6.8750000000,0,1.1328740120,,,
6.8906250000,0,1.1968990564,,,
6.9062500000,0,1.1464840174,,,
6.9218750000,0,1.0151979923,,,
6.9375000000,0,0.8155822754,,,
6.9531250000,0,0.5620117188,,,
6.9687500000,0,0.2910155952,,,
6.9843750000,0,0.0780944824,,,
7.0000000000,0,0.0162353497,,,
7.0156250000,0,0.1738585979,,,
7.0312500000,0,0.5221558213,,,
7.0468750000,0,0.9291381836,,,
7.0625000000,0,1.2044370174,,,
7.0781250000,0,1.2036440372,,,
7.0937500000,0,0.8955994248,,,
7.1093750000,0,0.3794249892,,,
7.1250000000,0,-0.1805724949,,,
7.1406250000,0,-0.6457520127,,,
7.1562500000,0,-0.9659119248,,,
7.1718750000,0,-1.1760859489,,,
7.1875000000,0,-1.3503110409,,,
7.2031250000,0,-1.5410159826,,,
7.2187500000,0,-1.7338260412,,,
7.2343750000,0,-1.8690190315,,,
7.2500000000,0,-1.8645019531,,,
7.2656250000,0,-1.6770939827,,,
7.2812500000,0,-1.3298950195,,,
7.2968750000,0,-0.9056090713,,,
7.3125000000,0,-0.4956359863,,,
7.3281250000,0,-0.1667480022,,,
7.3437500000,0,0.0955200195,,,
7.3593750000,0,0.3437500000,,,
7.3750000000,0,0.6139832139,,,
7.3906250000,0,0.8974608779,,,
7.4062500000,0,1.1080930233,,,
7.4218750000,0,1.1607359648,,,
7.4375000000,0,1.0103759766,,,
7.4531250000,0,0.7107238770,,,
7.4687500000,0,0.3919372857,,,
7.4843750000,0,0.1904297024,,,
7.5000000000,0,0.1835937947,,,
7.5156250000,0,0.3525084853,,,
7.5312500000,0,0.6018372178,,,
7.5468750000,0,0.8008118272,,,
7.5625000000,0,0.8489685059,,,
7.5781250000,0,0.7109680176,,,
7.5937500000,0,0.4129944146,,,
7.6093750000,0,0.0375671387,,,
7.6250000000,0,-0.3118895888,,,
7.6406250000,0,-0.5476989746,,,
7.6562500000,0,-0.6166992188,,,
7.6718750000,0,-0.5146790147,,,
7.6875000000,0,-0.2871398926,,,
7.7031250000,0,-0.0116272001,,,
7.7187500000,0,0.2383728027,,,
7.7343750000,0,0.4034729004,,,
7.7500000000,0,0.4600524902,,,
7.7656250000,0,0.4134826958,,,
7.7812500000,0,0.2983092964,,,
7.7968750000,0,0.1773681939,,,
7.8125000000,0,0.1126099005,,,
7.8281250000,0,0.1149597019,,,
7.8437500000,0,0.1455993950,,,
7.8593750000,0,0.1148376018,,,
7.8750000000,0,-0.0656433105,,,
7.8906250000,0,-0.4026794136,,,
7.9062500000,0,-0.8024597168,,,
7.9218750000,0,-1.1023559570,,,
7.9375000000,0,-1.1698000431,,,
7.9531250000,0,-0.9788208008,,,
7.9687500000,0,-0.6320189834,,,
7.9843750000,0,-0.2980346978,,,
8.0000000000,1,-0.1148376018,,,
8.0156250000,1,-0.1173401028,,,
8.0312500000,1,-0.2222290039,,,
8.0468750000,1,-0.3193359077,,,
8.0625000000,1,-0.3339538872,,,
8.0781250000,1,-0.2520751953,,,
8.0937500000,1,-0.1218566969,,,
8.1093750000,1,0.0198059101,,,
8.1250000000,1,0.1598206013,,,
8.1406250000,1,0.3114013970,,,
8.1562500000,1,0.4676207900,,,
8.1718750000,1,0.5822144151,,,
8.1875000000,1,0.5757141113,,,
8.2031250000,1,0.3699645996,,,
8.2187500000,1,-0.0466308594,,,
8.2343750000,1,-0.5963745117,,,
8.2500000000,1,-1.1129150391,,,
8.2656250000,1,-1.4116209745,,,
8.2812500000,1,-1.3699649572,,,
8.2968750000,1,-0.9849547744,,,
8.3125000000,1,-0.3967284858,,,
8.3281250000,1,0.1683350056,,,
8.3437500000,1,0.5050963759,,,
8.3593750000,1,0.5271605849,,,
8.3750000000,1,0.3168334961,,,
8.3906250000,1,0.0598144494,,,
8.4062500000,1,-0.0397033691,,,
8.4218750000,1,0.1236876994,,,
8.4375000000,1,0.5103759766,,,
8.4531250000,1,0.9713134766,,,
8.4687500000,1,1.3230899572,,,
8.4843750000,1,1.4484250546,,,
8.5000000000,1,1.3397829533,,,
8.5156250000,1,1.0562440157,,,
8.5312500000,1,0.7025756836,,,
8.5468750000,1,0.3580017090,,,
8.5625000000,1,0.0651550293,,,
8.5781250000,1,-0.1484680027,,,
8.5937500000,1,-0.2630310059,,,
8.6093750000,1,-0.2539063096,,,
8.6250000000,1,-0.1300659031,,,
8.6406250000,1,0.0776977465,,,
8.6562500000,1,0.3008422852,,,
8.6718750000,1,0.4652099907,,,
8.6875000000,1,0.5116577148,,,
8.7031250000,1,0.4237670898,,,
8.7187500000,1,0.2471618950,,,
8.7343750000,1,0.0663452074,,,
8.7500000000,1,-0.0327453613,,,
8.7656250000,1,0.0035400391,,,
8.7812500000,1,0.1628417969,,,
8.7968750000,1,0.3756713867,,,
8.8125000000,1,0.5512999892,,,
8.8281250000,1,0.6184691787,,,
8.8437500000,1,0.5449218750,,,
8.8593750000,1,0.3287658989,,,
8.8750000000,1,0.0047912602,,,
8.8906250000,1,-0.3784790039,,,
8.9062500000,1,-0.7738037109,,,
8.9218750000,1,-1.1311039925,,,
8.9375000000,1,-1.3994139433,,,
8.9531250000,1,-1.5192569494,,,
8.9687500000,1,-1.4631960392,,,
8.9843750000,1,-1.2441099882,,,
9.0000000000,1,-0.9228516221,,,
9.0156250000,1,-0.5864868164,,,
9.0312500000,1,-0.3139342964,,,
9.0468750000,1,-0.1315308064,,,
9.0625000000,1,-0.0146789597,,,
9.0781250000,1,0.0592956506,,,
9.0937500000,1,0.1124572977,,,
9.1093750000,1,0.1327209026,,,
9.1250000000,1,0.1283264011,,,
9.1406250000,1,0.1323852986,,,
9.1562500000,1,0.2074584961,,,
9.1718750000,1,0.4157409966,,,
9.1875000000,1,0.7541198730,,,
9.2031250000,1,1.1264040470,,,
9.2187500000,1,1.3794560432,,,
9.2343750000,1,1.3914489746,,,
9.2500000000,1,1.1209410429,,,
9.2656250000,1,0.6616210938,,,
9.2812500000,1,0.1791076958,,,
9.2968750000,1,-0.1727904975,,,
9.3125000000,1,-0.3329772949,,,
9.3281250000,1,-0.3488464057,,,
9.3437500000,1,-0.3012390137,,,
9.3593750000,1,-0.2696228027,,,
9.3750000000,1,-0.2677916884,,,
9.3906250000,1,-0.2848205864,,,
9.4062500000,1,-0.3245849907,,,
9.4218750000,1,-0.4283752143,,,
9.4375000000,1,-0.6299437881,,,
9.4531250000,1,-0.9147034287,,,
9.4687500000,1,-1.1897890568,,,
9.4843750000,1,-1.3150629997,,,
9.5000000000,1,-1.1914670467,,,
9.5156250000,1,-0.8234252930,,,
9.5312500000,1,-0.3613586128,,,
9.5468750000,1,-0.0000915527,,,
9.5625000000,1,0.1047058031,,,
9.5781250000,1,-0.0767211914,,,
9.5937500000,1,-0.4249573052,,,
9.6093750000,1,-0.7691040039,,,
9.6250000000,1,-0.9520874023,,,
9.6406250000,1,-0.9256591797,,,
9.6562500000,1,-0.7438660264,,,
9.6718750000,1,-0.5130004883,,,
9.6875000000,1,-0.3075562119,,,
9.7031250000,1,-0.1536864936,,,
9.7187500000,1,-0.0302429199,,,
9.7343750000,1,0.1068115011,,,
9.7500000000,1,0.2666321099,,,
9.7656250000,1,0.4372253120,,,
9.7812500000,1,0.5813292861,,,
9.7968750000,1,0.6918944716,,,
9.8125000000,1,0.7782897949,,,
9.8281250000,1,0.8567810059,,,
9.8437500000,1,0.9389343262,,,
9.8593750000,1,0.9923400879,,,
9.8750000000,1,0.9680786133,,,
9.8906250000,1,0.8354187012,,,
9.9062500000,1,0.6062316895,,,
9.9218750000,1,0.3509520888,,,
9.9375000000,1,0.1653441936,,,
9.9531250000,1,0.1250610054,,,
9.9687500000,1,0.2376708984,,,
9.9843750000,1,0.4415282905,,,
10.0000000000,1,0.6291503906,,,
10.0156250000,1,0.7271422744,,,
10.0312500000,1,0.6999511719,,,
10.0468750000,1,0.5895996094,,,
10.0625000000,1,0.4645386040,,,
10.0781250000,1,0.4029541016,,,
10.0937500000,1,0.4533691108,,,
10.1093750000,1,0.6261901855,,,
10.1250000000,1,0.8977965713,,,
10.1406250000,1,1.2072750330,,,
10.1562500000,1,1.4691469669,,,
10.1718750000,1,1.5943599939,,,
10.1875000000,1,1.5423580408,,,
10.2031250000,1,1.3244630098,,,
10.2187500000,1,1.0040279627,,,
10.2343750000,1,0.6817626953,,,
10.2500000000,1,0.4247131050,,,
10.2656250000,1,0.2627562881,,,
10.2812500000,1,0.1639403999,,,
10.2968750000,1,0.0877685472,,,
10.3125000000,1,-0.0086975098,,,
10.3281250000,1,-0.1425171047,,,
10.3437500000,1,-0.3210448921,,,
10.3593750000,1,-0.5502318740,,,
10.3750000000,1,-0.8303527832,,,
10.3906250000,1,-1.1371459961,,,
10.4062500000,1,-1.4043879509,,,
10.4218750000,1,-1.5482480526,,,
10.4375000000,1,-1.5068360567,,,
10.4531250000,1,-1.2880549431,,,
10.4687500000,1,-0.9759215713,,,
10.4843750000,1,-0.6891173720,,,
10.5000000000,1,-0.5330504775,,,
10.5156250000,1,-0.5344238281,,,
10.5312500000,1,-0.6612548828,,,
10.5468750000,1,-0.8320006728,,,
10.5625000000,1,-0.9559020996,,,
10.5781250000,1,-0.9693909287,,,
10.5937500000,1,-0.8515930176,,,
10.6093750000,1,-0.6235961914,,,
10.6250000000,1,-0.3579407036,,,
10.6406250000,1,-0.1520995945,,,
10.6562500000,1,-0.1065063030,,,
10.6718750000,1,-0.2799377143,,,
10.6875000000,1,-0.6601256728,,,
10.7031250000,1,-1.1665339470,,,
10.7187500000,1,-1.6665949821,,,
10.7343750000,1,-2.0164179802,,,
10.7500000000,1,-2.1166379452,,,
10.7656250000,1,-1.9421999454,,,
10.7812500000,1,-1.5457760096,,,
10.7968750000,1,-1.0346679688,,,
10.8125000000,1,-0.5159301758,,,
10.8281250000,1,-0.0659789965,,,
10.8437500000,1,0.2976379097,,,
10.8593750000,1,0.6042479873,,,
10.8750000000,1,0.8824462891,,,
10.8906250000,1,1.1469119787,,,
10.9062500000,1,1.3939510584,,,
10.9218750000,1,1.5949709415,,,
10.9375000000,1,1.7240910530,,,
10.9531250000,1,1.7664489746,,,
10.9687500000,1,1.7054439783,,,
10.9843750000,1,1.5331120491,,,
11.0000000000,1,1.2655030489,,,
11.0156250000,1,0.9633178711,,,
11.0312500000,1,0.7090148926,,,
11.0468750000,1,0.5644226074,,,
11.0625000000,1,0.5327758789,,,
11.0781250000,1,0.5253906250,,,
11.0937500000,1,0.4164733887,,,
11.1093750000,1,0.1345825046,,,
11.1250000000,1,-0.2822875977,,,
11.1406250000,1,-0.6806334853,,,
11.1562500000,1,-0.8992003798,,,
11.1718750000,1,-0.8487548828,,,
11.1875000000,1,-0.5925902724,,,
11.2031250000,1,-0.3146666884,,,
11.2187500000,1,-0.1862487942,,,
11.2343750000,1,-0.2893371880,,,
11.2500000000,1,-0.5437927246,,,
11.2656250000,1,-0.7666016221,,,
11.2812500000,1,-0.7882385254,,,
11.2968750000,1,-0.5609436035,,,
11.3125000000,1,-0.1725158989,,,
11.3281250000,1,0.1830444038,,,
11.3437500000,1,0.3406372070,,,
11.3593750000,1,0.2401428074,,,
11.3750000000,1,-0.0682067871,,,
11.3906250000,1,-0.4591063857,,,
11.4062500000,1,-0.8073729873,,,
11.4218750000,1,-1.0365300179,,,
11.4375000000,1,-1.1415710449,,,
11.4531250000,1,-1.1311949492,,,
11.4687500000,1,-1.0182499886,,,
11.4843750000,1,-0.8026428223,,,
11.5000000000,1,-0.5014954209,,,
11.5156250000,1,-0.1678162068,,,
11.5312500000,1,0.1196594015,,,
11.5468750000,1,0.2986449897,,,
11.5625000000,1,0.3576965034,,,
11.5781250000,1,0.3551636040,,,
11.5937500000,1,0.3670653999,,,
11.6093750000,1,0.4364319146,,,
11.6250000000,1,0.5382080078,,,
11.6406250000,1,0.6069946289,,,
11.6562500000,1,0.5596923828,,,
11.6718750000,1,0.3847655952,,,
11.6875000000,1,0.1477660984,,,
11.7031250000,1,-0.0362243690,,,
11.7187500000,1,-0.0466003418,,,
11.7343750000,1,0.1711730957,,,
11.7500000000,1,0.5707703233,,,
11.7656250000,1,1.0183720589,,,
11.7812500000,1,1.3492130041,,,
11.7968750000,1,1.4311219454,,,
11.8125000000,1,1.2453000546,,,
11.8281250000,1,0.8709716797,,,
11.8437500000,1,0.4681091011,,,
11.8593750000,1,0.1984862983,,,
11.8750000000,1,0.1487122029,,,
11.8906250000,1,0.2963562012,,,
11.9062500000,1,0.5379943848,,,
11.9218750000,1,0.7415770888,,,
11.9375000000,1,0.8157958984,,,
11.9531250000,1,0.7481079102,,,
11.9687500000,1,0.5589600205,,,
11.9843750000,1,0.2870788872,,,
12.0000000000,1,-0.0346679688,,,
12.0156250000,1,-0.3752135932,,,
12.0312500000,1,-0.6814879775,,,
12.0468750000,1,-0.8799437881,,,
12.0625000000,1,-0.9212036133,,,
12.0781250000,1,-0.7893676758,,,
12.0937500000,1,-0.5243530273,,,
12.1093750000,1,-0.2013854980,,,
12.1250000000,1,0.0952758789,,,
12.1406250000,1,0.3038940132,,,
12.1562500000,1,0.3830566108,,,
12.1718750000,1,0.3265380859,,,
12.1875000000,1,0.1803283989,,,
12.2031250000,1,0.0074768071,,,
12.2187500000,1,-0.1135559008,,,
12.2343750000,1,-0.1243591011,,,
12.2500000000,1,-0.0117797898,,,
12.2656250000,1,0.1811217964,,,
12.2812500000,1,0.3755798042,,,
12.2968750000,1,0.4931029975,,,
12.3125000000,1,0.4894714057,,,
12.3281250000,1,0.3760680854,,,
12.3437500000,1,0.1841430962,,,
12.3593750000,1,-0.0623779297,,,
12.3750000000,1,-0.3618164063,,,
12.3906250000,1,-0.7159423828,,,
12.4062500000,1,-1.0899959803,,,
12.4218750000,1,-1.4108279943,,,
12.4375000000,1,-1.5974730253,,,
12.4531250000,1,-1.6087950468,,,
12.4687500000,1,-1.4652400017,,,
12.4843750000,1,-1.2289429903,,,
12.5000000000,1,-0.9770507813,,,
12.5156250000,1,-0.7710571289,,,
12.5312500000,1,-0.6547241211,,,
12.5468750000,1,-0.6571959853,,,
12.5625000000,1,-0.7851563096,,,
12.5781250000,1,-0.9978638291,,,
12.5937500000,1,-1.2009580135,,,
12.6093750000,1,-1.2790529728,,,
12.6250000000,1,-1.1313480139,,,
12.6406250000,1,-0.7418212891,,,
12.6562500000,1,-0.1748961955,,,
12.6718750000,1,0.4205321968,,,
12.6875000000,1,0.9068909287,,,
12.7031250000,1,1.1880489588,,,
12.7187500000,1,1.2500920296,,,
12.7343750000,1,1.1296390295,,,
12.7500000000,1,0.9032897949,,,
12.7656250000,1,0.6531372070,,,
12.7812500000,1,0.4676513970,,,
12.7968750000,1,0.4266357124,,,
12.8125000000,1,0.5598449707,,,
12.8281250000,1,0.8352661133,,,
12.8437500000,1,1.1508480310,,,
12.8593750000,1,1.3458559513,,,
12.8750000000,1,1.3039549589,,,
12.8906250000,1,1.0019229650,,,
12.9062500000,1,0.5177916884,,,
12.9218750000,1,0.0082092294,,,
12.9375000000,1,-0.3557128906,,,
12.9531250000,1,-0.4720763862,,,
12.9687500000,1,-0.3233948052,,,
12.9843750000,1,0.0065917969,,,
13.0000000000,1,0.3743591011,,,
13.0156250000,1,0.6411743164,,,
13.0312500000,1,0.7152709961,,,
13.0468750000,1,0.6030883789,,,
13.0625000000,1,0.3868713081,,,
13.0781250000,1,0.1961974949,,,
13.0937500000,1,0.1136168987,,,
13.1093750000,1,0.1490783989,,,
13.1250000000,1,0.2314758003,,,
13.1406250000,1,0.2644348145,,,
13.1562500000,1,0.1934203953,,,
13.1718750000,1,0.0442810096,,,
13.1875000000,1,-0.0920715332,,,
13.2031250000,1,-0.1389160007,,,
13.2187500000,1,-0.0748291016,,,
13.2343750000,1,0.0238037091,,,
13.2500000000,1,0.0428466797,,,
13.2656250000,1,-0.0989379883,,,
13.2812500000,1,-0.3856812119,,,
13.2968750000,1,-0.7002257705,,,
13.3125000000,1,-0.8915100098,,,
13.3281250000,1,-0.8653563857,,,
13.3437500000,1,-0.6234130859,,,
13.3593750000,1,-0.2741088867,,,
13.3750000000,1,0.0380554199,,,
13.3906250000,1,0.2190856934,,,
13.4062500000,1,0.2736206055,,,
13.4218750000,1,0.2967224121,,,
13.4375000000,1,0.3871765137,,,
13.4531250000,1,0.5805358887,,,
13.4687500000,1,0.7984923720,,,
13.4843750000,1,0.8948668838,,,
13.5000000000,1,0.7428894043,,,
13.5156250000,1,0.3344115913,,,
13.5312500000,1,-0.2120971978,,,
13.5468750000,1,-0.7031555176,,,
13.5625000000,1,-0.9907531738,,,
13.5781250000,1,-1.0221250057,,,
13.5937500000,1,-0.8662415147,,,
13.6093750000,1,-0.6343688965,,,
13.6250000000,1,-0.4150696099,,,
13.6406250000,1,-0.2245178074,,,
13.6562500000,1,-0.0512390099,,,
13.6718750000,1,0.1095886007,,,
13.6875000000,1,0.2474060059,,,
13.7031250000,1,0.3322143853,,,
13.7187500000,1,0.3583678901,,,
13.7343750000,1,0.3655090034,,,
13.7500000000,1,0.4021911919,,,
13.7656250000,1,0.4894408882,,,
13.7812500000,1,0.5921936035,,,
13.7968750000,1,0.6417542100,,,
13.8125000000,1,0.5882567763,,,
13.8281250000,1,0.4474182129,,,
13.8437500000,1,0.2802124023,,,
13.8593750000,1,0.1709595025,,,
13.8750000000,1,0.1349792033,,,
13.8906250000,1,0.1128235012,,,
13.9062500000,1,0.0042419429,,,
13.9218750000,1,-0.2440491021,,,
13.9375000000,1,-0.6072083116,,,
13.9531250000,1,-0.9740905762,,,
13.9687500000,1,-1.2234189510,,,
13.9843750000,1,-1.3025510311,,,
14.0000000000,1,-1.2450870275,,,
14.0156250000,1,-1.1375730038,,,
14.0312500000,1,-1.0523990393,,,
14.0468750000,1,-0.9968872070,,,
14.0625000000,1,-0.9124146104,,,
14.0781250000,1,-0.7029724121,,,
14.0937500000,1,-0.3186340034,,,
14.1093750000,1,0.2197875977,,,
14.1250000000,1,0.8273925781,,,
14.1406250000,1,1.3883670568,,,
14.1562500000,1,1.8158869743,,,
14.1718750000,1,2.0545349121,,,
14.1875000000,1,2.0980219841,,,
14.2031250000,1,1.9693299532,,,
14.2187500000,1,1.7103580236,,,
14.2343750000,1,1.3635250330,,,
14.2500000000,1,0.9767761230,,,
14.2656250000,1,0.5909119248,,,
14.2812500000,1,0.2256470025,,,
14.2968750000,1,-0.0970458984,,,
14.3125000000,1,-0.3716736138,,,
14.3281250000,1,-0.5926514268,,,
14.3437500000,1,-0.7640076280,,,
14.3593750000,1,-0.8913878798,,,
14.3750000000,1,-1.0032039881,,,
14.3906250000,1,-1.1229859591,,,
14.4062500000,1,-1.2584840059,,,
14.4218750000,1,-1.3674930334,,,
14.4375000000,1,-1.3677059412,,,
14.4531250000,1,-1.1680910587,,,
14.4687500000,1,-0.7199707031,,,
14.4843750000,1,-0.0829162598,,,
14.5000000000,1,0.5878601074,,,
14.5156250000,1,1.0767209530,,,
14.5312500000,1,1.2293699980,,,
14.5468750000,1,1.0252690315,,,
14.5625000000,1,0.5960083008,,,
14.5781250000,1,0.1784058064,,,
14.5937500000,1,-0.0304565392,,,
14.6093750000,1,0.0232543908,,,
14.6250000000,1,0.2199096978,,,
14.6406250000,1,0.3361206055,,,
14.6562500000,1,0.1937256008,,,
14.6718750000,1,-0.2330626994,,,
14.6875000000,1,-0.7930297852,,,
14.7031250000,1,-1.2395019531,,,
14.7187500000,1,-1.3605649471,,,
14.7343750000,1,-1.1044919491,,,
14.7500000000,1,-0.5931090713,,,
14.7656250000,1,-0.0368652306,,,
14.7812500000,1,0.3738707900,,,
14.7968750000,1,0.5633544922,,,
14.8125000000,1,0.5788269043,,,
14.8281250000,1,0.5201110840,,,
14.8437500000,1,0.4703369141,,,
14.8593750000,1,0.4617309868,,,
14.8750000000,1,0.4630126953,,,
14.8906250000,1,0.4392699897,,,
14.9062500000,1,0.3635559082,,,
14.9218750000,1,0.2363892049,,,
14.9375000000,1,0.0784301832,,,
14.9531250000,1,-0.0754089430,,,
14.9687500000,1,-0.1993408054,,,
14.9843750000,1,-0.2763671875,,,
15.0000000000,1,-0.3044433892,,,
15.0156250000,1,-0.3152770996,,,
15.0312500000,1,-0.3626098931,,,
15.0468750000,1,-0.4987792969,,,
15.0625000000,1,-0.7301331162,,,
15.0781250000,1,-1.0149539709,,,
15.0937500000,1,-1.2496949434,,,
15.1093750000,1,-1.3265379667,,,
15.1250000000,1,-1.1854549646,,,
15.1406250000,1,-0.8357238770,,,
15.1562500000,1,-0.3566895127,,,
15.1718750000,1,0.1477355957,,,
15.1875000000,1,0.5735167861,,,
15.2031250000,1,0.8621215820,,,
15.2187500000,1,0.9823914170,,,
15.2343750000,1,0.9428101182,,,
15.2500000000,1,0.7803040147,,,
15.2656250000,1,0.5823668838,,,
15.2812500000,1,0.4498291016,,,
15.2968750000,1,0.4689941108,,,
15.3125000000,1,0.6513671875,,,
15.3281250000,1,0.9176331162,,,
15.3437500000,1,1.1324460506,,,
15.3593750000,1,1.1607969999,,,
15.3750000000,1,0.9508057237,,,
15.3906250000,1,0.5469055176,,,
15.4062500000,1,0.0585632287,,,
15.4218750000,1,-0.4207763970,,,
15.4375000000,1,-0.8409423828,,,
15.4531250000,1,-1.1893919706,,,
15.4687500000,1,-1.4640200138,,,
15.4843750000,1,-1.6147459745,,,
15.5000000000,1,-1.5733029842,,,
15.5156250000,1,-1.2676999569,,,
15.5312500000,1,-0.7150878906,,,
15.5468750000,1,-0.0604858398,,,
15.5625000000,1,0.4886474907,,,
15.5781250000,1,0.7296143174,,,
15.5937500000,1,0.5845642090,,,
15.6093750000,1,0.1316528022,,,
15.6250000000,1,-0.4249877930,,,
15.6406250000,1,-0.8772888184,,,
15.6562500000,1,-1.1037600040,,,
15.6718750000,1,-1.1049799919,,,
15.6875000000,1,-0.9778441787,,,
15.7031250000,1,-0.8247985840,,,
15.7187500000,1,-0.6987305284,,,
15.7343750000,1,-0.5898131728,,,
15.7500000000,1,-0.4767456055,,,
15.7656250000,1,-0.3535461128,,,
15.7812500000,1,-0.2639771104,,,
15.7968750000,1,-0.2421264946,,,
15.8125000000,1,-0.2718811035,,,
15.8281250000,1,-0.2742309868,,,
15.8437500000,1,-0.1417846978,,,
15.8593750000,1,0.1803283989,,,
15.8750000000,1,0.6363831162,,,
15.8906250000,1,1.0820310116,,,
15.9062500000,1,1.3647459745,,,
15.9218750000,1,1.3803410530,,,
15.9375000000,1,1.1447139978,,,
15.9531250000,1,0.7679138184,,,
15.9687500000,1,0.3840332031,,,
15.9843750000,1,0.1035156026,,,
16.0000000000,2,-0.0347900391,,,
16.0156250000,2,-0.0411987305,,,
16.0312500000,2,0.0273437500,,,
16.0468750000,2,0.1171875000,,,
16.0625000000,2,0.1750182956,,,
16.0781250000,2,0.1785583049,,,
16.0937500000,2,0.1340027004,,,
16.1093750000,2,0.0759887695,,,
16.1250000000,2,0.0575866699,,,
16.1406250000,2,0.1056519002,,,
16.1562500000,2,0.2088318020,,,
16.1718750000,2,0.3247070014,,,
16.1875000000,2,0.3981933892,,,
16.2031250000,2,0.4116516113,,,
16.2187500000,2,0.3905333877,,,
16.2343750000,2,0.3818970025,,,
16.2500000000,2,0.4358215034,,,
16.2656250000,2,0.5513916016,,,
16.2812500000,2,0.6923217773,,,
16.2968750000,2,0.8026123047,,,
16.3125000000,2,0.8224791884,,,
16.3281250000,2,0.7220153809,,,
16.3437500000,2,0.5026854873,,,
16.3593750000,2,0.1944579929,,,
16.3750000000,2,-0.1439208984,,,
16.3906250000,2,-0.4506225884,,,
16.4062500000,2,-0.6799622178,,,
16.4218750000,2,-0.8284912109,,,
16.4375000000,2,-0.9329224229,,,
16.4531250000,2,-1.0375369787,,,
16.4687500000,2,-1.1659849882,,,
16.4843750000,2,-1.2963559628,,,
16.5000000000,2,-1.3763120174,,,
16.5156250000,2,-1.3503110409,,,
16.5312500000,2,-1.2086180449,,,
16.5468750000,2,-0.9818419814,,,
16.5625000000,2,-0.7195128798,,,
16.5781250000,2,-0.4693604112,,,
16.5937500000,2,-0.2582702935,,,
16.6093750000,2,-0.0998535231,,,
16.6250000000,2,0.0019226070,,,
16.6406250000,2,0.0218505897,,,
16.6562500000,2,-0.0378112793,,,
16.6718750000,2,-0.1318664998,,,
16.6875000000,2,-0.1752319038,,,
16.7031250000,2,-0.0849609375,,,
16.7187500000,2,0.1705933064,,,
16.7343750000,2,0.5413513184,,,
16.7500000000,2,0.9230651855,,,
16.7656250000,2,1.2149660587,,,
16.7812500000,2,1.3656309843,,,
16.7968750000,2,1.3920899630,,,
16.8125000000,2,1.3370360136,,,
16.8281250000,2,1.2438960075,,,
16.8437500000,2,1.1258239746,,,
16.8593750000,2,0.9575806260,,,
16.8750000000,2,0.7247009277,,,
16.8906250000,2,0.4283752143,,,
16.9062500000,2,0.1075745001,,,
16.9218750000,2,-0.1784667969,,,
16.9375000000,2,-0.3757629097,,,
16.9531250000,2,-0.4515990913,,,
16.9687500000,2,-0.4113464057,,,
16.9843750000,2,-0.2812804878,,,
17.0000000000,2,-0.1113281026,,,
17.0156250000,2,0.0338439904,,,
17.0312500000,2,0.0922546387,,,
17.0468750000,2,0.0302734394,,,
17.0625000000,2,-0.1377868950,,,
17.0781250000,2,-0.3645935059,,,
17.0937500000,2,-0.5784301758,,,
17.1093750000,2,-0.7282103896,,,
17.1250000000,2,-0.7774047852,,,
17.1406250000,2,-0.7382202148,,,
17.1562500000,2,-0.6197814941,,,
17.1718750000,2,-0.4331665039,,,
17.1875000000,2,-0.1730652004,,,
17.2031250000,2,0.1364136040,,,
17.2187500000,2,0.4329833984,,,
17.2343750000,2,0.6242064834,,,
17.2500000000,2,0.6251831055,,,
17.2656250000,2,0.4216003120,,,
17.2812500000,2,0.0906677172,,,
17.2968750000,2,-0.2145386040,,,
17.3125000000,2,-0.3509520888,,,
17.3281250000,2,-0.2545776069,,,
17.3437500000,2,0.0429992713,,,
17.3593750000,2,0.4404906929,,,
17.3750000000,2,0.8352355957,,,
17.3906250000,2,1.1603389978,,,
17.4062500000,2,1.3849179745,,,
17.4218750000,2,1.4906920195,,,
17.4375000000,2,1.4543459415,,,
17.4531250000,2,1.2554930449,,,
17.4687500000,2,0.9126892090,,,
17.4843750000,2,0.5035399795,,,
17.5000000000,2,0.1417236030,,,
17.5156250000,2,-0.0805053711,,,
17.5312500000,2,-0.1534423977,,,
17.5468750000,2,-0.1375426948,,,
17.5625000000,2,-0.1338500977,,,
17.5781250000,2,-0.2059936970,,,
17.5937500000,2,-0.3394775093,,,
17.6093750000,2,-0.4915466011,,,
17.6250000000,2,-0.6067199707,,,
17.6406250000,2,-0.6809082031,,,
17.6562500000,2,-0.7434082031,,,
17.6718750000,2,-0.8257446289,,,
17.6875000000,2,-0.8975524902,,,
17.7031250000,2,-0.8898925781,,,
17.7187500000,2,-0.7344055176,,,
17.7343750000,2,-0.4288940132,,,
17.7500000000,2,-0.0461730994,,,
17.7656250000,2,0.2960509956,,,
17.7812500000,2,0.5101013184,,,
17.7968750000,2,0.5831909180,,,
17.8125000000,2,0.5690612793,,,
17.8281250000,2,0.5188599229,,,
17.8437500000,2,0.4565429986,,,
17.8593750000,2,0.3799437881,,,
17.8750000000,2,0.3095703125,,,
17.8906250000,2,0.3032532036,,,
17.9062500000,2,0.4327698052,,,
17.9218750000,2,0.7083435059,,,
17.9375000000,2,1.0382690430,,,
17.9531250000,2,1.2499389648,,,
17.9687500000,2,1.1892399788,,,
17.9843750000,2,0.8202515244,,,
18.0000000000,2,0.2554625869,,,
18.0156250000,2,-0.2966918945,,,
18.0312500000,2,-0.6564940810,,,
18.0468750000,2,-0.7626647949,,,
18.0625000000,2,-0.6820983887,,,
18.0781250000,2,-0.5394592285,,,
18.0937500000,2,-0.4204407036,,,
18.1093750000,2,-0.3572387993,,,
18.1250000000,2,-0.3550415039,,,
18.1406250000,2,-0.4331665039,,,
18.1562500000,2,-0.6383057237,,,
18.1718750000,2,-1.0058590174,,,
18.1875000000,2,-1.4845279455,,,
18.2031250000,2,-1.9383239746,,,
18.2187500000,2,-2.2014470100,,,
18.2343750000,2,-2.1806340218,,,
18.2500000000,2,-1.8956600428,,,
18.2656250000,2,-1.4660029411,,,
18.2812500000,2,-1.0335079432,,,
18.2968750000,2,-0.6899719238,,,
18.3125000000,2,-0.4454041123,,,
18.3281250000,2,-0.2546082139,,,
18.3437500000,2,-0.0678405836,,,
18.3593750000,2,0.1194763035,,,
18.3750000000,2,0.2756653130,,,
18.3906250000,2,0.3556824028,,,
18.4062500000,2,0.3417052925,,,
18.4218750000,2,0.2726440132,,,
18.4375000000,2,0.2334289998,,,
18.4531250000,2,0.3174133003,,,
18.4687500000,2,0.5671997070,,,
18.4843750000,2,0.9516906738,,,
18.5000000000,2,1.3636469841,,,
18.5156250000,2,1.6533809900,,,
18.5312500000,2,1.6979680061,,,
18.5468750000,2,1.4598389864,,,
18.5625000000,2,1.0041500330,,,
18.5781250000,2,0.4825744927,,,
18.5937500000,2,0.0531921387,,,
18.6093750000,2,-0.2028197944,,,
18.6250000000,2,-0.2938843071,,,
18.6406250000,2,-0.3095703125,,,
18.6562500000,2,-0.3343811035,,,
18.6718750000,2,-0.3919678032,,,
18.6875000000,2,-0.4513244927,,,
18.7031250000,2,-0.4489440918,,,
18.7187500000,2,-0.3622437119,,,
18.7343750000,2,-0.2216491997,,,
18.7500000000,2,-0.0997314528,,,
18.7656250000,2,-0.0577697791,,,
18.7812500000,2,-0.0996704102,,,
18.7968750000,2,-0.1545104980,,,
18.8125000000,2,-0.1184998006,,,
18.8281250000,2,0.0727539137,,,
18.8437500000,2,0.4046936035,,,
18.8593750000,2,0.7814025879,,,
18.8750000000,2,1.0867919922,,,
18.8906250000,2,1.2565310001,,,
18.9062500000,2,1.2997740507,,,
18.9218750000,2,1.2699580193,,,
18.9375000000,2,1.2073060274,,,
18.9531250000,2,1.1067199707,,,
18.9687500000,2,0.9336853027,,,
18.9843750000,2,0.6602172852,,,
19.0000000000,2,0.3126831055,,,
19.0156250000,2,-0.0282287598,,,
19.0312500000,2,-0.2763062119,,,
19.0468750000,2,-0.3818970025,,,
19.0625000000,2,-0.3762511909,,,
19.0781250000,2,-0.3370361030,,,
19.0937500000,2,-0.3439635932,,,
19.1093750000,2,-0.4121094048,,,
19.1250000000,2,-0.4912109077,,,
19.1406250000,2,-0.5057373047,,,
19.1562500000,2,-0.4166564941,,,
19.1718750000,2,-0.2417908013,,,
19.1875000000,2,-0.0575866699,,,
19.2031250000,2,0.0668335035,,,
19.2187500000,2,0.0991821289,,,
19.2343750000,2,0.0527648889,,,
19.2500000000,2,-0.0357666016,,,
19.2656250000,2,-0.1437377930,,,
19.2812500000,2,-0.2547607124,,,
19.2968750000,2,-0.3594360054,,,
19.3125000000,2,-0.4329833984,,,
19.3281250000,2,-0.4443053901,,,
19.3437500000,2,-0.3765259087,,,
19.3593750000,2,-0.2476195991,,,
19.3750000000,2,-0.1149291992,,,
19.3906250000,2,-0.0574951209,,,
19.4062500000,2,-0.1222229004,,,
19.4218750000,2,-0.3066405952,,,
19.4375000000,2,-0.5517882705,,,
19.4531250000,2,-0.7832946777,,,
19.4687500000,2,-0.9382324219,,,
19.4843750000,2,-0.9887084961,,,
19.5000000000,2,-0.9292907715,,,
19.5156250000,2,-0.7620239258,,,
19.5312500000,2,-0.4895629883,,,
19.5468750000,2,-0.1222229004,,,
19.5625000000,2,0.3015137017,,,
19.5781250000,2,0.7276917100,,,
19.5937500000,2,1.0741269588,,,
19.6093750000,2,1.2910159826,,,
19.6250000000,2,1.3573299646,,,
19.6406250000,2,1.2809749842,,,
19.6562500000,2,1.0917969942,,,
19.6718750000,2,0.8329772949,,,
19.6875000000,2,0.5610656738,,,
19.7031250000,2,0.3251037896,,,
19.7187500000,2,0.1575316936,,,
19.7343750000,2,0.0591125488,,,
19.7500000000,2,0.0000915527,,,
19.7656250000,2,-0.0655822828,,,
19.7812500000,2,-0.1683959961,,,
19.7968750000,2,-0.2974854112,,,
19.8125000000,2,-0.4114989936,,,
19.8281250000,2,-0.4634399116,,,
19.8437500000,2,-0.4270325005,,,
19.8593750000,2,-0.3165893853,,,
19.8750000000,2,-0.1809691936,,,
19.8906250000,2,-0.0763244629,,,
19.9062500000,2,-0.0369262695,,,
19.9218750000,2,-0.0573120117,,,
19.9375000000,2,-0.0954895020,,,
19.9531250000,2,-0.1033324972,,,
19.9687500000,2,-0.0461120605,,,
19.9843750000,2,0.0791625977,,,
20.0000000000,2,0.2601012886,,,
20.0156250000,2,0.4438476861,,,
20.0312500000,2,0.5820922852,,,
20.0468750000,2,0.6292725205,,,
20.0625000000,2,0.5600585938,,,
20.0781250000,2,0.3823241889,,,
20.0937500000,2,0.1212157980,,,
20.1093750000,2,-0.1744080037,,,
20.1250000000,2,-0.4427795112,,,
20.1406250000,2,-0.6166077256,,,
20.1562500000,2,-0.6488953233,,,
20.1718750000,2,-0.5305480957,,,
20.1875000000,2,-0.2937012017,,,
20.2031250000,2,-0.0214538593,,,
20.2187500000,2,0.1830749959,,,
20.2343750000,2,0.2432250977,,,
20.2500000000,2,0.1429138035,,,
20.2656250000,2,-0.0807800293,,,
20.2812500000,2,-0.3528747857,,,
20.2968750000,2,-0.5917053223,,,
20.3125000000,2,-0.7419434190,,,
20.3281250000,2,-0.7862548828,,,
20.3437500000,2,-0.7333983779,,,
20.3593750000,2,-0.5933837891,,,
20.3750000000,2,-0.3711547852,,,
20.3906250000,2,-0.0658874512,,,
20.4062500000,2,0.2939758003,,,
20.4218750000,2,0.6755980849,,,
20.4375000000,2,1.0250550508,,,
20.4531250000,2,1.2881770134,,,
20.4687500000,2,1.4092099667,,,
20.4843750000,2,1.3419489861,,,
20.5000000000,2,1.0724790096,,,
20.5156250000,2,0.6290587783,,,
20.5312500000,2,0.1112670973,,,
20.5468750000,2,-0.3569945991,,,
20.5625000000,2,-0.6480712891,,,
20.5781250000,2,-0.7052916884,,,
20.5937500000,2,-0.5830994248,,,
20.6093750000,2,-0.4262390137,,,
20.6250000000,2,-0.3774718940,,,
20.6406250000,2,-0.4951477051,,,
20.6562500000,2,-0.7194519043,,,
20.6718750000,2,-0.9107360840,,,
20.6875000000,2,-0.9524840713,,,
20.7031250000,2,-0.8240966797,,,
20.7187500000,2,-0.6203002930,,,
20.7343750000,2,-0.4899596870,,,
20.7500000000,2,-0.5020446777,,,
20.7656250000,2,-0.6117553711,,,
20.7812500000,2,-0.6787108779,,,
20.7968750000,2,-0.5689392090,,,
20.8125000000,2,-0.2490233928,,,
20.8281250000,2,0.1813659966,,,
20.8437500000,2,0.5407103896,,,
20.8593750000,2,0.6694335938,,,
20.8750000000,2,0.5208129883,,,
20.8906250000,2,0.1822814941,,,
20.9062500000,2,-0.2147826999,,,
20.9218750000,2,-0.5431212783,,,
20.9375000000,2,-0.7485045791,,,
20.9531250000,2,-0.8383483887,,,
20.9687500000,2,-0.8458251953,,,
20.9843750000,2,-0.7630919814,,,
21.0000000000,2,-0.5603026748,,,
21.0156250000,2,-0.2238159031,,,
21.0312500000,2,0.1957702935,,,
21.0468750000,2,0.5646057129,,,
21.0625000000,2,0.7246704102,,,
21.0781250000,2,0.5941467285,,,
21.0937500000,2,0.2182312012,,,
21.1093750000,2,-0.2277527004,,,
21.1250000000,2,-0.5261840820,,,
21.1406250000,2,-0.5437927246,,,
21.1562500000,2,-0.2988586128,,,
21.1718750000,2,0.0628356934,,,
21.1875000000,2,0.3305664063,,,
21.2031250000,2,0.3649291992,,,
21.2187500000,2,0.1492920071,,,
21.2343750000,2,-0.2142944038,,,
21.2500000000,2,-0.5798035264,,,
21.2656250000,2,-0.8226624131,,,
21.2812500000,2,-0.8807678223,,,
21.2968750000,2,-0.7788391113,,,
21.3125000000,2,-0.5839539170,,,
21.3281250000,2,-0.3744812012,,,
21.3437500000,2,-0.1867980957,,,
21.3593750000,2,-0.0162353497,,,
21.3750000000,2,0.1793518066,,,
21.3906250000,2,0.4627074897,,,
21.4062500000,2,0.8385314941,,,
21.4218750000,2,1.2485350370,,,
21.4375000000,2,1.5752559900,,,
21.4531250000,2,1.7066650391,,,
21.4687500000,2,1.5767819881,,,
21.4843750000,2,1.2203060389,,,
21.5000000000,2,0.7700499892,,,
21.5156250000,2,0.4043579102,,,
21.5312500000,2,0.2605285943,,,
21.5468750000,2,0.3732604980,,,
21.5625000000,2,0.6671447754,,,
21.5781250000,2,0.9956970215,,,
21.5937500000,2,1.2010190487,,,
21.6093750000,2,1.1798399687,,,
21.6250000000,2,0.9221801758,,,
21.6406250000,2,0.5047606826,,,
21.6562500000,2,0.0487365685,,,
21.6718750000,2,-0.3190613091,,,
21.6875000000,2,-0.5321655273,,,
21.7031250000,2,-0.5864868164,,,
21.7187500000,2,-0.5409240723,,,
21.7343750000,2,-0.4513244927,,,
21.7500000000,2,-0.3603821099,,,
21.7656250000,2,-0.2661437988,,,
21.7812500000,2,-0.1357422024,,,
21.7968750000,2,0.0381774902,,,
21.8125000000,2,0.2485045940,,,
21.8281250000,2,0.4375000000,,,
21.8437500000,2,0.5386353135,,,
21.8593750000,2,0.4879761040,,,
21.8750000000,2,0.2675476074,,,
21.8906250000,2,-0.0804748535,,,
21.9062500000,2,-0.4675292969,,,
21.9218750000,2,-0.7756958008,,,
21.9375000000,2,-0.9245300293,,,
21.9531250000,2,-0.8966370225,,,
21.9687500000,2,-0.7454833984,,,
21.9843750000,2,-0.5839539170,,,
22.0000000000,2,-0.5122681260,,,
22.0156250000,2,-0.5422667861,,,
22.0312500000,2,-0.6077576280,,,
22.0468750000,2,-0.5817565918,,,
22.0625000000,2,-0.3613280952,,,
22.0781250000,2,0.0628662109,,,
22.0937500000,2,0.6018676758,,,
22.1093750000,2,1.0945739746,,,
22.1250000000,2,1.4028929472,,,
22.1406250000,2,1.4680789709,,,
22.1562500000,2,1.3258670568,,,
22.1718750000,2,1.0563659668,,,
22.1875000000,2,0.7514954209,,,
22.2031250000,2,0.4817810059,,,
22.2187500000,2,0.2806091011,,,
22.2343750000,2,0.1587830037,,,
22.2500000000,2,0.1227722019,,,
22.2656250000,2,0.1606750041,,,
22.2812500000,2,0.2271118015,,,
22.2968750000,2,0.2295836955,,,
22.3125000000,2,0.0799865723,,,
22.3281250000,2,-0.2698363960,,,
22.3437500000,2,-0.7737731934,,,
22.3593750000,2,-1.3018800020,,,
22.3750000000,2,-1.6941219568,,,
22.3906250000,2,-1.8318480253,,,
22.4062500000,2,-1.6892399788,,,
22.4218750000,2,-1.3305050135,,,
22.4375000000,2,-0.8476868272,,,
22.4531250000,2,-0.3408812881,,,
22.4687500000,2,0.1370543987,,,
22.4843750000,2,0.5577086806,,,
22.5000000000,2,0.8801574707,,,
22.5156250000,2,1.0559079647,,,
22.5312500000,2,1.0195009708,,,
22.5468750000,2,0.7659606934,,,
22.5625000000,2,0.3561095893,,,
22.5781250000,2,-0.0576477088,,,
22.5937500000,2,-0.3193665147,,,
22.6093750000,2,-0.3405762017,,,
22.6250000000,2,-0.1575316936,,,
22.6406250000,2,0.0968017578,,,
22.6562500000,2,0.2764281929,,,
22.6718750000,2,0.2684631050,,,
22.6875000000,2,0.0505371094,,,
22.7031250000,2,-0.3161621094,,,
22.7187500000,2,-0.7120360732,,,
22.7343750000,2,-1.0195920467,,,
22.7500000000,2,-1.1400150061,,,
22.7656250000,2,-1.0234680176,,,
22.7812500000,2,-0.6731873155,,,
22.7968750000,2,-0.1478881985,,,
22.8125000000,2,0.4558716118,,,
22.8281250000,2,1.0185849667,,,
22.8437500000,2,1.4284670353,,,
22.8593750000,2,1.6222529411,,,
22.8750000000,2,1.5964050293,,,
22.8906250000,2,1.4230040312,,,
22.9062500000,2,1.1932369471,,,
22.9218750000,2,0.9758300781,,,
22.9375000000,2,0.8039246202,,,
22.9531250000,2,0.6678466797,,,
22.9687500000,2,0.5444946289,,,
22.9843750000,2,0.4140320122,,,
23.0000000000,2,0.2893066108,,,
23.0156250000,2,0.1817626953,,,
23.0312500000,2,0.0882263184,,,
23.0468750000,2,-0.0054016109,,,
23.0625000000,2,-0.1281432956,,,
23.0781250000,2,-0.2756041884,,,
23.0937500000,2,-0.4171752930,,,
23.1093750000,2,-0.4877319038,,,
23.1250000000,2,-0.4222412109,,,
23.1406250000,2,-0.1986389011,,,
23.1562500000,2,0.1495971978,,,
23.1718750000,2,0.5365905762,,,
23.1875000000,2,0.8612976074,,,
23.2031250000,2,1.0387270451,,,
23.2187500000,2,1.0274660587,,,
23.2343750000,2,0.8170471191,,,
23.2500000000,2,0.4204407036,,,
23.2656250000,2,-0.1302185059,,,
23.2812500000,2,-0.7568969727,,,
23.2968750000,2,-1.3460079432,,,
23.3125000000,2,-1.7611999512,,,
23.3281250000,2,-1.8826899529,,,
23.3437500000,2,-1.6803590059,,,
23.3593750000,2,-1.2477109432,,,
23.3750000000,2,-0.7805786133,,,
23.3906250000,2,-0.4971312881,,,
23.4062500000,2,-0.5287476182,,,
23.4218750000,2,-0.8584899902,,,
23.4375000000,2,-1.3337709904,,,
23.4531250000,2,-1.7504270077,,,
23.4687500000,2,-1.9648740292,,,
23.4843750000,2,-1.9722599983,,,
23.5000000000,2,-1.8623960018,,,
23.5156250000,2,-1.7408750057,,,
23.5312500000,2,-1.6495059729,,,
23.5468750000,2,-1.5421750546,,,
23.5625000000,2,-1.3416440487,,,
23.5781250000,2,-1.0338129997,,,
23.5937500000,2,-0.6858214736,,,
23.6093750000,2,-0.4092406929,,,
23.6250000000,2,-0.2651672065,,,
23.6406250000,2,-0.2075195014,,,
23.6562500000,2,-0.0965270996,,,
23.6718750000,2,0.2021789998,,,
23.6875000000,2,0.7340087891,,,
23.7031250000,2,1.4000550508,,,
23.7187500000,2,2.0049440861,,,
23.7343750000,2,2.3701779842,,,
23.7500000000,2,2.4201970100,,,
23.7656250000,2,2.2065429688,,,
23.7812500000,2,1.8746949434,,,
23.7968750000,2,1.5753779411,,,
23.8125000000,2,1.3595579863,,,
23.8281250000,2,1.2072139978,,,
23.8437500000,2,1.0398559570,,,
23.8593750000,2,0.7987061143,,,
23.8750000000,2,0.5043640137,,,
23.8906250000,2,0.2300720066,,,
23.9062500000,2,0.0668945313,,,
23.9218750000,2,0.0572814904,,,
23.9375000000,2,0.1593932956,,,
23.9531250000,2,0.2728270888,,,
23.9687500000,2,0.2879638970,,,
23.9843750000,2,0.1291504055,,,
24.0000000000,3,-0.1911925972,,,
24.0156250000,3,-0.5722960830,,,
24.0312500000,3,-0.8623961806,,,
24.0468750000,3,-0.9396057129,,,
24.0625000000,3,-0.7504882813,,,
24.0781250000,3,-0.3570862114,,,
24.0937500000,3,0.0715026930,,,
24.1093750000,3,0.3158875108,,,
24.1250000000,3,0.2063293010,,,
24.1406250000,3,-0.3172607124,,,
24.1562500000,3,-1.1440429688,,,
24.1718750000,3,-2.0503849983,,,
24.1875000000,3,-2.7818911076,,,
24.2031250000,3,-3.1713559628,,,
24.2187500000,3,-3.1953740120,,,
24.2343750000,3,-2.9218750000,,,
24.2500000000,3,-2.4587099552,,,
24.2656250000,3,-1.8708499670,,,
24.2812500000,3,-1.1831970215,,,
24.2968750000,3,-0.4112854004,,,
24.3125000000,3,0.3638305962,,,
24.3281250000,3,1.0231319666,,,
24.3437500000,3,1.4682619572,,,
24.3593750000,3,1.6719360352,,,
24.3750000000,3,1.7169489861,,,
24.3906250000,3,1.7129820585,,,
24.4062500000,3,1.7370909452,,,
24.4218750000,3,1.7786250114,,,
24.4375000000,3,1.7603149414,,,
24.4531250000,3,1.6134029627,,,
24.4687500000,3,1.3486629725,,,
24.4843750000,3,1.0509339571,,,
24.5000000000,3,0.8171691895,,,
24.5156250000,3,0.6980286241,,,
24.5312500000,3,0.6678466797,,,
24.5468750000,3,0.6591187119,,,
24.5625000000,3,0.6200255752,,,
24.5781250000,3,0.5556641221,,,
24.5937500000,3,0.4998474121,,,
24.6093750000,3,0.4818725884,,,
24.6250000000,3,0.5023192763,,,
24.6406250000,3,0.5326538086,,,
24.6562500000,3,0.5631409287,,,
24.6718750000,3,0.5977478027,,,
24.6875000000,3,0.6642150879,,,
24.7031250000,3,0.7527770996,,,
24.7187500000,3,0.8236389160,,,
24.7343750000,3,0.8148499131,,,
24.7500000000,3,0.6809387207,,,
24.7656250000,3,0.4526672065,,,
24.7812500000,3,0.2080688030,,,
24.7968750000,3,0.0487976111,,,
24.8125000000,3,0.0193786602,,,
24.8281250000,3,0.1034241021,,,
24.8437500000,3,0.2254943997,,,
24.8593750000,3,0.2992554009,,,
24.8750000000,3,0.2796325982,,,
24.8906250000,3,0.1668395996,,,
24.9062500000,3,-0.0020141599,,,
24.9218750000,3,-0.1950377971,,,
24.9375000000,3,-0.3875732124,,,
24.9531250000,3,-0.5681763291,,,
24.9687500000,3,-0.7202147841,,,
24.9843750000,3,-0.8143311143,,,
25.0000000000,3,-0.8163146973,,,
25.0156250000,3,-0.7152709961,,,
25.0312500000,3,-0.5354003906,,,
25.0468750000,3,-0.3210754097,,,
25.0625000000,3,-0.1220702976,,,
25.0781250000,3,0.0361938514,,,
25.0937500000,3,0.1518249959,,,
25.1093750000,3,0.2375793010,,,
25.1250000000,3,0.3019408882,,,
25.1406250000,3,0.3400878906,,,
25.1562500000,3,0.3496094048,,,
25.1718750000,3,0.3237304986,,,
25.1875000000,3,0.2615661919,,,
25.2031250000,3,0.1531372070,,,
25.2187500000,3,-0.0220947303,,,
25.2343750000,3,-0.2888183892,,,
25.2500000000,3,-0.6442871094,,,
25.2656250000,3,-1.0412600040,,,
25.2812500000,3,-1.4059449434,,,
25.2968750000,3,-1.6773990393,,,
25.3125000000,3,-1.8553769588,,,
25.3281250000,3,-1.9996030331,,,
25.3437500000,3,-2.1771550179,,,
25.3593750000,3,-2.3973081112,,,
25.3750000000,3,-2.5746150017,,,
25.3906250000,3,-2.5802309513,,,
25.4062500000,3,-2.3256530762,,,
25.4218750000,3,-1.8417049646,,,
25.4375000000,3,-1.2674870491,,,
25.4531250000,3,-0.7695922852,,,
25.4687500000,3,-0.4461669922,,,
25.4843750000,3,-0.2557067871,,,
25.5000000000,3,-0.0778503418,,,
25.5156250000,3,0.2161864936,,,
25.5312500000,3,0.6604003906,,,
25.5468750000,3,1.1693730354,,,
25.5625000000,3,1.5969849825,,,
25.5781250000,3,1.8131099939,,,
25.5937500000,3,1.7969670296,,,
25.6093750000,3,1.6155400276,,,
25.6250000000,3,1.3911130428,,,
25.6406250000,3,1.2157590389,,,
25.6562500000,3,1.1136169434,,,
25.6718750000,3,1.0548709631,,,
25.6875000000,3,0.9865111709,,,
25.7031250000,3,0.8951721191,,,
25.7187500000,3,0.7887877822,,,
25.7343750000,3,0.6823729873,,,
25.7500000000,3,0.5619812012,,,
25.7656250000,3,0.3972167969,,,
25.7812500000,3,0.1694640964,,,
25.7968750000,3,-0.0889892578,,,
25.8125000000,3,-0.2871704102,,,
25.8281250000,3,-0.3385314941,,,
25.8437500000,3,-0.2115783989,,,
25.8593750000,3,0.0174255408,,,
25.8750000000,3,0.2105713040,,,
25.8906250000,3,0.2340088040,,,
25.9062500000,3,0.0490112305,,,
25.9218750000,3,-0.2677307129,,,
25.9375000000,3,-0.5747374892,,,
25.9531250000,3,-0.7528380752,,,
25.9687500000,3,-0.7825012207,,,
25.9843750000,3,-0.7075499892,,,
26.0000000000,3,-0.6326293945,,,
26.0156250000,3,-0.6153870225,,,
26.0312500000,3,-0.6590576172,,,
26.0468750000,3,-0.7150878906,,,
26.0625000000,3,-0.7323303223,,,
26.0781250000,3,-0.7029418945,,,
26.0937500000,3,-0.6455994248,,,
26.1093750000,3,-0.6041259766,,,
26.1250000000,3,-0.5947875977,,,
26.1406250000,3,-0.5900878906,,,
26.1562500000,3,-0.5283812881,,,
26.1718750000,3,-0.3538818061,,,
26.1875000000,3,-0.0498352088,,,
26.2031250000,3,0.3626708984,,,
26.2187500000,3,0.7980347276,,,
26.2343750000,3,1.1781009436,,,
26.2500000000,3,1.4450680017,,,
26.2656250000,3,1.6027220488,,,
26.2812500000,3,1.6907650232,,,
26.2968750000,3,1.7437130213,,,
26.3125000000,3,1.7597049475,,,
26.3281250000,3,1.6901249886,,,
26.3437500000,3,1.4806519747,,,
26.3593750000,3,1.1264649630,,,
26.3750000000,3,0.6859130859,,,
26.3906250000,3,0.2725220025,,,
26.4062500000,3,-0.0127563505,,,
26.4218750000,3,-0.1298522949,,,
26.4375000000,3,-0.1153870001,,,
26.4531250000,3,-0.0580749512,,,
26.4687500000,3,-0.0265502892,,,
26.4843750000,3,-0.0321655311,,,
26.5000000000,3,-0.0704345703,,,
26.5156250000,3,-0.1070861965,,,
26.5312500000,3,-0.1325377971,,,
26.5468750000,3,-0.1667174995,,,
26.5625000000,3,-0.2372131050,,,
26.5781250000,3,-0.3552246094,,,
26.5937500000,3,-0.5022583008,,,
26.6093750000,3,-0.6481323242,,,
26.6250000000,3,-0.7253417969,,,
26.6406250000,3,-0.6917418838,,,
26.6562500000,3,-0.5216979980,,,
26.6718750000,3,-0.2314758003,,,
26.6875000000,3,0.1011962965,,,
26.7031250000,3,0.3637999892,,,
26.7187500000,3,0.4548034966,,,
26.7343750000,3,0.3222351074,,,
26.7500000000,3,-0.0050048828,,,
26.7656250000,3,-0.4101867974,,,
26.7812500000,3,-0.7395629883,,,
26.7968750000,3,-0.8610535264,,,
26.8125000000,3,-0.7134705186,,,
26.8281250000,3,-0.3256835938,,,
26.8437500000,3,0.1865845025,,,
26.8593750000,3,0.6750792861,,,
26.8750000000,3,0.9878234863,,,
26.8906250000,3,1.0318909883,,,
26.9062500000,3,0.8063353896,,,
26.9218750000,3,0.4173279107,,,
26.9375000000,3,0.0461425819,,,
26.9531250000,3,-0.1503296047,,,
26.9687500000,3,-0.0957336426,,,
26.9843750000,3,0.1704407036,,,
27.0000000000,3,0.4923400879,,,
27.0156250000,3,0.7133178711,,,
27.0312500000,3,0.7453917861,,,
27.0468750000,3,0.6173706055,,,
27.0625000000,3,0.4190674126,,,
27.0781250000,3,0.2436522990,,,
27.0937500000,3,0.1282348931,,,
27.1093750000,3,0.0309753399,,,
27.1250000000,3,-0.0895385668,,,
27.1406250000,3,-0.2414246053,,,
27.1562500000,3,-0.3838196099,,,
27.1718750000,3,-0.4547119141,,,
27.1875000000,3,-0.4104919136,,,
27.2031250000,3,-0.2968139946,,,
27.2187500000,3,-0.1974792033,,,
27.2343750000,3,-0.2050780952,,,
27.2500000000,3,-0.3787536919,,,
27.2656250000,3,-0.6739807129,,,
27.2812500000,3,-0.9878845215,,,
27.2968750000,3,-1.1981199980,,,
27.3125000000,3,-1.2310179472,,,
27.3281250000,3,-1.0726619959,,,
27.3437500000,3,-0.8035582900,,,
27.3593750000,3,-0.5237731934,,,
27.3750000000,3,-0.3179320991,,,
27.3906250000,3,-0.2256775051,,,
27.4062500000,3,-0.2116394043,,,
27.4218750000,3,-0.2155762017,,,
27.4375000000,3,-0.1752929986,,,
27.4531250000,3,-0.0798645020,,,
27.4687500000,3,0.0308227502,,,
27.4843750000,3,0.0856628418,,,
27.5000000000,3,0.0189514197,,,
27.5156250000,3,-0.1810912937,,,
27.5312500000,3,-0.4717712104,,,
27.5468750000,3,-0.7626953125,,,
27.5625000000,3,-0.9626464844,,,
27.5781250000,3,-1.0082700253,,,
27.5937500000,3,-0.8905333877,,,
27.6093750000,3,-0.6237183213,,,
27.6250000000,3,-0.2614440918,,,
27.6406250000,3,0.1537781060,,,
27.6562500000,3,0.5661621094,,,
27.6718750000,3,0.9071655273,,,
27.6875000000,3,1.1110839844,,,
27.7031250000,3,1.1286619902,,,
27.7187500000,3,0.9345092773,,,
27.7343750000,3,0.5703734756,,,
27.7500000000,3,0.1272277981,,,
27.7656250000,3,-0.2584229112,,,
27.7812500000,3,-0.4660645127,,,
27.7968750000,3,-0.4299927056,,,
27.8125000000,3,-0.1882019043,,,
27.8281250000,3,0.1510010064,,,
27.8437500000,3,0.4301758111,,,
27.8593750000,3,0.5369873047,,,
27.8750000000,3,0.4487915039,,,
27.8906250000,3,0.2360534966,,,
27.9062500000,3,0.0209350605,,,
27.9218750000,3,-0.1076050028,,,
27.9375000000,3,-0.1321410984,,,
27.9531250000,3,-0.1230468974,,,
27.9687500000,3,-0.1773986965,,,
27.9843750000,3,-0.3512878120,,,
28.0000000000,3,-0.6147460938,,,
28.0156250000,3,-0.8622130752,,,
28.0312500000,3,-0.9635314941,,,
28.0468750000,3,-0.8440856934,,,
28.0625000000,3,-0.5353087783,,,
28.0781250000,3,-0.1406860054,,,
28.0937500000,3,0.1994933933,,,
28.1093750000,3,0.4208984077,,,
28.1250000000,3,0.5402832031,,,
28.1406250000,3,0.6477965713,,,
28.1562500000,3,0.8257446289,,,
28.1718750000,3,1.0833740234,,,
28.1875000000,3,1.3208919764,,,
28.2031250000,3,1.3874210119,,,
28.2187500000,3,1.1767270565,,,
28.2343750000,3,0.6964417100,,,
28.2500000000,3,0.0858459473,,,
28.2656250000,3,-0.4335938096,,,
28.2812500000,3,-0.6856079102,,,
28.2968750000,3,-0.6283264160,,,
28.3125000000,3,-0.3572083116,,,
28.3281250000,3,-0.0528869592,,,
28.3437500000,3,0.1224059984,,,
28.3593750000,3,0.1075745001,,,
28.3750000000,3,-0.0587158203,,,
28.3906250000,3,-0.2595520020,,,
28.4062500000,3,-0.3739624023,,,
28.4218750000,3,-0.3407593071,,,
28.4375000000,3,-0.1596679986,,,
28.4531250000,3,0.0979309082,,,
28.4687500000,3,0.3478699028,,,
28.4843750000,3,0.5204163194,,,
28.5000000000,3,0.5903015137,,,
28.5156250000,3,0.5898438096,,,
28.5312500000,3,0.5659180284,,,
28.5468750000,3,0.5664978027,,,
28.5625000000,3,0.5782470703,,,
28.5781250000,3,0.5557860732,,,
28.5937500000,3,0.4300231934,,,
28.6093750000,3,0.1806029975,,,
28.6250000000,3,-0.1622619927,,,
28.6406250000,3,-0.4930725098,,,
28.6562500000,3,-0.7190551758,,,
28.6718750000,3,-0.7757567763,,,
28.6875000000,3,-0.6669921875,,,
28.7031250000,3,-0.4514465034,,,
28.7187500000,3,-0.2034606934,,,
28.7343750000,3,0.0275573693,,,
28.7500000000,3,0.2029723972,,,
28.7656250000,3,0.3128662109,,,
28.7812500000,3,0.3511962891,,,
28.7968750000,3,0.3073729873,,,
28.8125000000,3,0.1870117038,,,
28.8281250000,3,0.0070190430,,,
28.8437500000,3,-0.1864929050,,,
28.8593750000,3,-0.3482666016,,,
28.8750000000,3,-0.4515380859,,,
28.8906250000,3,-0.5012207031,,,
28.9062500000,3,-0.5312805176,,,
28.9218750000,3,-0.5976256728,,,
28.9375000000,3,-0.7384948730,,,
28.9531250000,3,-0.9539185166,,,
28.9687500000,3,-1.2090150118,,,
28.9843750000,3,-1.4346309900,,,
29.0000000000,3,-1.5691219568,,,
29.0156250000,3,-1.5683900118,,,
29.0312500000,3,-1.4195859432,,,
29.0468750000,3,-1.1312869787,,,
29.0625000000,3,-0.7396240234,,,
29.0781250000,3,-0.2899779975,,,
29.0937500000,3,0.1321716011,,,
29.1093750000,3,0.4481506050,,,
29.1250000000,3,0.5843811035,,,
29.1406250000,3,0.5385131836,,,
29.1562500000,3,0.3842467964,,,
29.1718750000,3,0.2334595025,,,
29.1875000000,3,0.1820679009,,,
29.2031250000,3,0.2551879883,,,
29.2187500000,3,0.4083557129,,,
29.2343750000,3,0.5771179199,,,
29.2500000000,3,0.7150269151,,,
29.2656250000,3,0.8439636230,,,
29.2812500000,3,1.0119320154,,,
29.2968750000,3,1.2404789925,,,
29.3125000000,3,1.4613039494,,,
29.3281250000,3,1.5413210392,,,
29.3437500000,3,1.3537290096,,,
29.3593750000,3,0.8471375108,,,
29.3750000000,3,0.1292418987,,,
29.3906250000,3,-0.5894165039,,,
29.4062500000,3,-1.0951540470,,,
29.4218750000,3,-1.2713010311,,,
29.4375000000,3,-1.1516109705,,,
29.4531250000,3,-0.8743895888,,,
29.4687500000,3,-0.6134948730,,,
29.4843750000,3,-0.4776611030,,,
29.5000000000,3,-0.4654541016,,,
29.5156250000,3,-0.5095214844,,,
29.5312500000,3,-0.4989319146,,,
29.5468750000,3,-0.3747253120,,,
29.5625000000,3,-0.1364745945,,,
29.5781250000,3,0.1590576023,,,
29.5937500000,3,0.4410400093,,,
29.6093750000,3,0.6685181260,,,
29.6250000000,3,0.8305053711,,,
29.6406250000,3,0.9186707139,,,
29.6562500000,3,0.9208068848,,,
29.6718750000,3,0.8145446777,,,
29.6875000000,3,0.5864562988,,,
29.7031250000,3,0.2759704888,,,
29.7187500000,3,-0.0386962891,,,
29.7343750000,3,-0.2416381985,,,
29.7500000000,3,-0.2720032036,,,
29.7656250000,3,-0.1375731975,,,
29.7812500000,3,0.0576171912,,,
29.7968750000,3,0.1960449070,,,
29.8125000000,3,0.1928406060,,,
29.8281250000,3,0.0751647875,,,
29.8437500000,3,-0.0354919396,,,
29.8593750000,3,-0.0183105506,,,
29.8750000000,3,0.1889342964,,,
29.8906250000,3,0.5389404297,,,
29.9062500000,3,0.8840941787,,,
29.9218750000,3,1.0692139864,,,
29.9375000000,3,1.0184940100,,,
29.9531250000,3,0.7746887207,,,
29.9687500000,3,0.4754028022,,,
29.9843750000,3,0.2708129883,,,
30.0000000000,3,0.2439880073,,,
30.0156250000,3,0.3541870117,,,
30.0312500000,3,0.4851379097,,,
30.0468750000,3,0.5046386719,,,
30.0625000000,3,0.3624573052,,,
30.0781250000,3,0.1192627028,,,
30.0937500000,3,-0.0883789137,,,
30.1093750000,3,-0.1452331990,,,
30.1250000000,3,-0.0269470196,,,
30.1406250000,3,0.1737060994,,,
30.1562500000,3,0.3201903999,,,
30.1718750000,3,0.3278808892,,,
30.1875000000,3,0.2258300930,,,
30.2031250000,3,0.1431885064,,,
30.2187500000,3,0.2084656060,,,
30.2343750000,3,0.4757690132,,,
30.2500000000,3,0.8666687012,,,
30.2656250000,3,1.2301330566,,,
30.2812500000,3,1.4076839685,,,
30.2968750000,3,1.3211979866,,,
30.3125000000,3,0.9790039063,,,
30.3281250000,3,0.4740906060,,,
30.3437500000,3,-0.0641784668,,,
30.3593750000,3,-0.5145568848,,,
30.3750000000,3,-0.7898560166,,,
30.3906250000,3,-0.8584290147,,,
30.4062500000,3,-0.7757874131,,,
30.4218750000,3,-0.6871643066,,,
30.4375000000,3,-0.7477416992,,,
30.4531250000,3,-1.0657039881,,,
30.4687500000,3,-1.6007390022,,,
30.4843750000,3,-2.1885681152,,,
30.5000000000,3,-2.5817871094,,,
30.5156250000,3,-2.6063230038,,,
30.5312500000,3,-2.2395939827,,,
30.5468750000,3,-1.6181639433,,,
30.5625000000,3,-0.9693297744,,,
30.5781250000,3,-0.4751282036,,,
30.5937500000,3,-0.1907958984,,,
30.6093750000,3,-0.0493469201,,,
30.6250000000,3,0.0643615723,,,
30.6406250000,3,0.2219543010,,,
30.6562500000,3,0.3991088867,,,
30.6718750000,3,0.5014954209,,,
30.6875000000,3,0.4426270127,,,
30.7031250000,3,0.2176208049,,,
30.7187500000,3,-0.1045226976,,,
30.7343750000,3,-0.4082336128,,,
30.7500000000,3,-0.6180114746,,,
30.7656250000,3,-0.7166138291,,,
30.7812500000,3,-0.7428284287,,,
30.7968750000,3,-0.7409362793,,,
30.8125000000,3,-0.7187500000,,,
30.8281250000,3,-0.6457520127,,,
30.8437500000,3,-0.4858092964,,,
30.8593750000,3,-0.2494201958,,,
30.8750000000,3,-0.0199279804,,,
30.8906250000,3,0.0930786133,,,
30.9062500000,3,0.0299682599,,,
30.9218750000,3,-0.1887512058,,,
30.9375000000,3,-0.4386596978,,,
30.9531250000,3,-0.5712891221,,,
30.9687500000,3,-0.4721679986,,,
30.9843750000,3,-0.1385498047,,,
31.0000000000,3,0.3413085938,,,
31.0156250000,3,0.8183593750,,,
31.0312500000,3,1.1644289494,,,
31.0468750000,3,1.2944339514,,,
31.0625000000,3,1.1943659782,,,
31.0781250000,3,0.9035949707,,,
31.0937500000,3,0.5007628798,,,
31.1093750000,3,0.0859069824,,,
31.1250000000,3,-0.2423401028,,,
31.1406250000,3,-0.4120177925,,,
31.1562500000,3,-0.3976440132,,,
31.1718750000,3,-0.2315979004,,,
31.1875000000,3,0.0107421903,,,
31.2031250000,3,0.2477722019,,,
31.2187500000,3,0.4306640923,,,
31.2343750000,3,0.5499268174,,,
31.2500000000,3,0.6075438857,,,
31.2656250000,3,0.5932312012,,,
31.2812500000,3,0.4768066108,,,
31.2968750000,3,0.2556152046,,,
31.3125000000,3,-0.0066833501,,,
31.3281250000,3,-0.1838988960,,,
31.3437500000,3,-0.1310729980,,,
31.3593750000,3,0.2297362983,,,
31.3750000000,3,0.8265991211,,,
31.3906250000,3,1.4565119743,,,
31.4062500000,3,1.8964840174,,,
31.4218750000,3,2.0112299919,,,
31.4375000000,3,1.8105159998,,,
31.4531250000,3,1.4444270134,,,
31.4687500000,3,1.0803829432,,,
31.4843750000,3,0.8077393174,,,
31.5000000000,3,0.6098328233,,,
31.5156250000,3,0.4004211128,,,
31.5312500000,3,0.1116638035,,,
31.5468750000,3,-0.2641601861,,,
31.5625000000,3,-0.6873779297,,,
31.5781250000,3,-1.1038509607,,,
31.5937500000,3,-1.4881290197,,,
31.6093750000,3,-1.8315730095,,,
31.6250000000,3,-2.0972900391,,,
31.6406250000,3,-2.2201230526,,,
31.6562500000,3,-2.1187438965,,,
31.6718750000,3,-1.7532039881,,,
31.6875000000,3,-1.1774289608,,,
31.7031250000,3,-0.5431519151,,,
31.7187500000,3,-0.0334167518,,,
31.7343750000,3,0.2166748047,,,
31.7500000000,3,0.1829833984,,,
31.7656250000,3,-0.0437622108,,,
31.7812500000,3,-0.3248291016,,,
31.7968750000,3,-0.5358582139,,,
31.8125000000,3,-0.6115416884,,,
31.8281250000,3,-0.5727233887,,,
31.8437500000,3,-0.4816589057,,,
31.8593750000,3,-0.3895263970,,,
31.8750000000,3,-0.3235167861,,,
31.8906250000,3,-0.2852172852,,,
31.9062500000,3,-0.2688904107,,,
31.9218750000,3,-0.2717590034,,,
31.9375000000,3,-0.3211669922,,,
31.9531250000,3,-0.4131470025,,,
31.9687500000,3,-0.4808349907,,,
31.9843750000,3,-0.4227904975,,,
32.0000000000,4,-0.1352539063,,,
32.0156250000,4,0.4119262993,,,
32.0312500000,4,1.1275329590,,,
32.0468750000,4,1.8231810331,,,
32.0625000000,4,2.2827150822,,,
32.0781250000,4,2.3876650333,,,
32.0937500000,4,2.1658630371,,,
32.1093750000,4,1.7657779455,,,
32.1250000000,4,1.3712160587,,,
32.1406250000,4,1.0998539925,,,
32.1562500000,4,0.9597473145,,,
32.1718750000,4,0.8826293945,,,
32.1875000000,4,0.7722167969,,,
32.2031250000,4,0.5717163086,,,
32.2187500000,4,0.2926330864,,,
32.2343750000,4,-0.0063781738,,,
32.2500000000,4,-0.2542419136,,,
32.2656250000,4,-0.4088439941,,,
32.2812500000,4,-0.4646911919,,,
32.2968750000,4,-0.4644165039,,,
32.3125000000,4,-0.4605103135,,,
32.3281250000,4,-0.4773559868,,,
32.3437500000,4,-0.5032958984,,,
32.3593750000,4,-0.4730224907,,,
32.3750000000,4,-0.3301391900,,,
32.3906250000,4,-0.0671081468,,,
32.4062500000,4,0.2281493992,,,
32.4218750000,4,0.4128417969,,,
32.4375000000,4,0.3679809868,,,
32.4531250000,4,0.0559692383,,,
32.4687500000,4,-0.4140929878,,,
32.4843750000,4,-0.8677979112,,,
32.5000000000,4,-1.1301569939,,,
32.5156250000,4,-1.1289980412,,,
32.5312500000,4,-0.9021605849,,,
32.5468750000,4,-0.5470581055,,,
32.5625000000,4,-0.1668395996,,,
32.5781250000,4,0.1707763970,,,
32.5937500000,4,0.4347839057,,,
32.6093750000,4,0.5890197754,,,
32.6250000000,4,0.5909423828,,,
32.6406250000,4,0.4103393853,,,
32.6562500000,4,0.0582275391,,,
32.6718750000,4,-0.3674010932,,,
32.6875000000,4,-0.7283020020,,,
32.7031250000,4,-0.9091796875,,,
32.7187500000,4,-0.8807982802,,,
32.7343750000,4,-0.7159729004,,,
32.7500000000,4,-0.5477905273,,,
32.7656250000,4,-0.4960021973,,,
32.7812500000,4,-0.5667114258,,,
32.7968750000,4,-0.6651306152,,,
32.8125000000,4,-0.6392517090,,,
32.8281250000,4,-0.3804931939,,,
32.8437500000,4,0.0985717773,,,
32.8593750000,4,0.6652832031,,,
32.8750000000,4,1.1165770292,,,
32.8906250000,4,1.3143010139,,,
32.9062500000,4,1.2173769474,,,
32.9218750000,4,0.9197692871,,,
32.9375000000,4,0.5602111816,,,
32.9531250000,4,0.2554931939,,,
32.9687500000,4,0.0596008301,,,
32.9843750000,4,-0.0526428185,,,
33.0000000000,4,-0.1178283989,,,
33.0156250000,4,-0.1597290039,,,
33.0312500000,4,-0.1642760932,,,
33.0468750000,4,-0.1156006008,,,
33.0625000000,4,-0.0024414060,,,
33.0781250000,4,0.1376647949,,,
33.0937500000,4,0.2587279975,,,
33.1093750000,4,0.3324890137,,,
33.1250000000,4,0.3612061143,,,
33.1406250000,4,0.3827208877,,,
33.1562500000,4,0.4221191108,,,
33.1718750000,4,0.4835815132,,,
33.1875000000,4,0.5466918945,,,
33.2031250000,4,0.5765991211,,,
33.2187500000,4,0.5488892198,,,
33.2343750000,4,0.4629211128,,,
33.2500000000,4,0.3259887993,,,
33.2656250000,4,0.1355895996,,,
33.2812500000,4,-0.1008910984,,,
33.2968750000,4,-0.3765869141,,,
33.3125000000,4,-0.6655272841,,,
33.3281250000,4,-0.9165955186,,,
33.3437500000,4,-1.0607910156,,,
33.3593750000,4,-1.0599060059,,,
33.3750000000,4,-0.9078063965,,,
33.3906250000,4,-0.6368712783,,,
33.4062500000,4,-0.3271790147,,,
33.4218750000,4,-0.0454101600,,,
33.4375000000,4,0.1639403999,,,
33.4531250000,4,0.2965087891,,,
33.4687500000,4,0.3760986030,,,
33.4843750000,4,0.4377441108,,,
33.5000000000,4,0.5170897841,,,
33.5156250000,4,0.6264343262,,,
33.5312500000,4,0.7573853135,,,
33.5468750000,4,0.8585510254,,,
33.5625000000,4,0.8751831055,,,
33.5781250000,4,0.7463073730,,,
33.5937500000,4,0.4367980957,,,
33.6093750000,4,-0.0133667002,,,
33.6250000000,4,-0.5222473145,,,
33.6406250000,4,-0.9685668945,,,
33.6562500000,4,-1.2520749569,,,
33.6718750000,4,-1.3546750546,,,
33.6875000000,4,-1.3396610022,,,
33.7031250000,4,-1.3205870390,,,
33.7187500000,4,-1.4027709961,,,
33.7343750000,4,-1.6064759493,,,
33.7500000000,4,-1.8641359806,,,
33.7656250000,4,-2.0445249081,,,
33.7812500000,4,-2.0230410099,,,
33.7968750000,4,-1.7482299805,,,
33.8125000000,4,-1.2657170296,,,
33.8281250000,4,-0.6935729980,,,
33.8437500000,4,-0.1525269002,,,
33.8593750000,4,0.2699280083,,,
33.8750000000,4,0.5516967773,,,
33.8906250000,4,0.7124329209,,,
33.9062500000,4,0.7894287109,,,
33.9218750000,4,0.8045958877,,,
33.9375000000,4,0.7728881836,,,
33.9531250000,4,0.7090148926,,,
33.9687500000,4,0.6460266113,,,
33.9843750000,4,0.6161804199,,,
34.0000000000,4,0.6484984756,,,
34.0156250000,4,0.7344055176,,,
34.0312500000,4,0.8266602159,,,
34.0468750000,4,0.8522034287,,,
34.0625000000,4,0.7511292100,,,
34.0781250000,4,0.5159912109,,,
34.0937500000,4,0.1919250041,,,
34.1093750000,4,-0.1317443997,,,
34.1250000000,4,-0.3671264946,,,
34.1406250000,4,-0.4687195122,,,
34.1562500000,4,-0.4289551079,,,
34.1718750000,4,-0.2817383111,,,
34.1875000000,4,-0.0668335035,,,
34.2031250000,4,0.1914367974,,,
34.2187500000,4,0.4721679986,,,
34.2343750000,4,0.7634276748,,,
34.2500000000,4,1.0312809944,,,
34.2656250000,4,1.2484129667,,,
34.2812500000,4,1.3840639591,,,
34.2968750000,4,1.4336550236,,,
34.3125000000,4,1.3934630156,,,
34.3281250000,4,1.2725219727,,,
34.3437500000,4,1.0794980526,,,
34.3593750000,4,0.8252869248,,,
34.3750000000,4,0.5455322266,,,
34.3906250000,4,0.2939147949,,,
34.4062500000,4,0.1386414021,,,
34.4218750000,4,0.1270446926,,,
34.4375000000,4,0.2622374892,,,
34.4531250000,4,0.4890441895,,,
34.4687500000,4,0.7162169814,,,
34.4843750000,4,0.8496398926,,,
34.5000000000,4,0.8236389160,,,
34.5156250000,4,0.6329956055,,,
34.5312500000,4,0.3333739936,,,
34.5468750000,4,0.0057067871,,,
34.5625000000,4,-0.2849425972,,,
34.5781250000,4,-0.5136414170,,,
34.5937500000,4,-0.6842957139,,,
34.6093750000,4,-0.8112487793,,,
34.6250000000,4,-0.8833312988,,,
34.6406250000,4,-0.8753051758,,,
34.6562500000,4,-0.7361450195,,,
34.6718750000,4,-0.4693604112,,,
34.6875000000,4,-0.1445617974,,,
34.7031250000,4,0.1093444973,,,
34.7187500000,4,0.1599425972,,,
34.7343750000,4,-0.0574645996,,,
34.7500000000,4,-0.5018615723,,,
34.7656250000,4,-1.0216059685,,,
34.7812500000,4,-1.4279479980,,,
34.7968750000,4,-1.5679930449,,,
34.8125000000,4,-1.4151920080,,,
34.8281250000,4,-1.0435489416,,,
34.8437500000,4,-0.6078186035,,,
34.8593750000,4,-0.2620544136,,,
34.8750000000,4,-0.1125793010,,,
34.8906250000,4,-0.1723937988,,,
34.9062500000,4,-0.3832091987,,,
34.9218750000,4,-0.6335753798,,,
34.9375000000,4,-0.8066101074,,,
34.9531250000,4,-0.8405457139,,,
34.9687500000,4,-0.7239990234,,,
34.9843750000,4,-0.5171813965,,,
35.0000000000,4,-0.2972106934,,,
35.0156250000,4,-0.1323242038,,,
35.0312500000,4,-0.0464172401,,,
35.0468750000,4,-0.0130310096,,,
35.0625000000,4,0.0136413602,,,
35.0781250000,4,0.0730285570,,,
35.0937500000,4,0.1794434041,,,
35.1093750000,4,0.3291625977,,,
35.1250000000,4,0.4988707900,,,
35.1406250000,4,0.6491699219,,,
35.1562500000,4,0.7412719727,,,
35.1718750000,4,0.7366027832,,,
35.1875000000,4,0.6170349121,,,
35.2031250000,4,0.3947753906,,,
35.2187500000,4,0.1222229004,,,
35.2343750000,4,-0.1241760030,,,
35.2500000000,4,-0.2619628906,,,
35.2656250000,4,-0.2574158013,,,
35.2812500000,4,-0.1119690016,,,
35.2968750000,4,0.1180419996,,,
35.3125000000,4,0.3336181939,,,
35.3281250000,4,0.4521484077,,,
35.3437500000,4,0.4136658013,,,
35.3593750000,4,0.2087707967,,,
35.3750000000,4,-0.1241149977,,,
35.3906250000,4,-0.5054932237,,,
35.4062500000,4,-0.8333129883,,,
35.4218750000,4,-1.0393680334,,,
35.4375000000,4,-1.0969539881,,,
35.4531250000,4,-1.0534969568,,,
35.4687500000,4,-0.9862061143,,,
35.4843750000,4,-0.9819641113,,,
35.5000000000,4,-1.0464780331,,,
35.5156250000,4,-1.1347049475,,,
35.5312500000,4,-1.1676640511,,,
35.5468750000,4,-1.0883480310,,,
35.5625000000,4,-0.8802185059,,,
35.5781250000,4,-0.6037598252,,,
35.5937500000,4,-0.3410645127,,,
35.6093750000,4,-0.1629943997,,,
35.6250000000,4,-0.0949401930,,,
35.6406250000,4,-0.0938720703,,,
35.6562500000,4,-0.0863342285,,,
35.6718750000,4,0.0046691890,,,
35.6875000000,4,0.2277527004,,,
35.7031250000,4,0.5739135742,,,
35.7187500000,4,0.9833068848,,,
35.7343750000,4,1.3622740507,,,
35.7500000000,4,1.6188349724,,,
35.7656250000,4,1.6827089787,,,
35.7812500000,4,1.5568239689,,,
35.7968750000,4,1.3115229607,,,
35.8125000000,4,1.0490109921,,,
35.8281250000,4,0.8787537217,,,
35.8437500000,4,0.8442078233,,,
35.8593750000,4,0.9090270996,,,
35.8750000000,4,0.9848021865,,,
35.8906250000,4,0.9623413086,,,
35.9062500000,4,0.7956542969,,,
35.9218750000,4,0.5094298720,,,
35.9375000000,4,0.1997070014,,,
35.9531250000,4,-0.0205078106,,,
35.9687500000,4,-0.0963745117,,,
35.9843750000,4,-0.0555725098,,,
36.0000000000,4,0.0183715802,,,
36.0156250000,4,0.0428466797,,,
36.0312500000,4,-0.0036315920,,,
36.0468750000,4,-0.0880432129,,,
36.0625000000,4,-0.1349487007,,,
36.0781250000,4,-0.1235046014,,,
36.0937500000,4,-0.1000365987,,,
36.1093750000,4,-0.1584777981,,,
36.1250000000,4,-0.3632202148,,,
36.1406250000,4,-0.6900939941,,,
36.1562500000,4,-1.0261540413,,,
36.1718750000,4,-1.2415159941,,,
36.1875000000,4,-1.2602839470,,,
36.2031250000,4,-1.1264950037,,,
36.2187500000,4,-0.9570006728,,,
36.2343750000,4,-0.8529357910,,,
36.2500000000,4,-0.8292235732,,,
36.2656250000,4,-0.8017882705,,,
36.2812500000,4,-0.6602478027,,,
36.2968750000,4,-0.3691405952,,,
36.3125000000,4,-0.0115661602,,,
36.3281250000,4,0.2619324028,,,
36.3437500000,4,0.3178406060,,,
36.3593750000,4,0.1500243992,,,
36.3750000000,4,-0.1071472019,,,
36.3906250000,4,-0.2805480957,,,
36.4062500000,4,-0.2543030083,,,
36.4218750000,4,-0.0404968299,,,
36.4375000000,4,0.2457274944,,,
36.4531250000,4,0.4816283882,,,
36.4687500000,4,0.6105347276,,,
36.4843750000,4,0.6689453125,,,
36.5000000000,4,0.7438048720,,,
36.5156250000,4,0.8759766221,,,
36.5312500000,4,1.0404050350,,,
36.5468750000,4,1.1468809843,,,
36.5625000000,4,1.1213990450,,,
36.5781250000,4,0.9573364258,,,
36.5937500000,4,0.7344055176,,,
36.6093750000,4,0.5722656250,,,
36.6250000000,4,0.5584105849,,,
36.6406250000,4,0.6977233887,,,
36.6562500000,4,0.9045104980,,,
36.6718750000,4,1.0411380529,,,
36.6875000000,4,1.0060729980,,,
36.7031250000,4,0.7740784287,,,
36.7187500000,4,0.4139708877,,,
36.7343750000,4,0.0489501990,,,
36.7500000000,4,-0.2059020996,,,
36.7656250000,4,-0.2955017090,,,
36.7812500000,4,-0.2387084961,,,
36.7968750000,4,-0.1141967997,,,
36.8125000000,4,-0.0008544922,,,
36.8281250000,4,0.0548706092,,,
36.8437500000,4,0.0381164588,,,
36.8593750000,4,-0.0517883301,,,
36.8750000000,4,-0.1929931939,,,
36.8906250000,4,-0.3660278022,,,
36.9062500000,4,-0.5278319716,,,
36.9218750000,4,-0.6183776855,,,
36.9375000000,4,-0.6032103896,,,
36.9531250000,4,-0.4989624023,,,
36.9687500000,4,-0.3722229004,,,
36.9843750000,4,-0.3074950874,,,
37.0000000000,4,-0.3416137993,,,
37.0156250000,4,-0.4428100884,,,
37.0312500000,4,-0.5339354873,,,
37.0468750000,4,-0.5521851182,,,
37.0625000000,4,-0.4840087891,,,
37.0781250000,4,-0.3858948052,,,
37.0937500000,4,-0.3302307129,,,
37.1093750000,4,-0.3494262993,,,
37.1250000000,4,-0.4152221978,,,
37.1406250000,4,-0.4595946968,,,
37.1562500000,4,-0.4252319038,,,
37.1718750000,4,-0.3148804009,,,
37.1875000000,4,-0.1829833984,,,
37.2031250000,4,-0.1075745001,,,
37.2187500000,4,-0.1420287937,,,
37.2343750000,4,-0.2856140137,,,
37.2500000000,4,-0.4826354980,,,
37.2656250000,4,-0.6483458877,,,
37.2812500000,4,-0.7097167969,,,
37.2968750000,4,-0.6282042861,,,
37.3125000000,4,-0.4138489068,,,
37.3281250000,4,-0.1263428032,,,
37.3437500000,4,0.1462402046,,,
37.3593750000,4,0.3026733100,,,
37.3750000000,4,0.3005675972,,,
37.3906250000,4,0.1686096042,,,
37.4062500000,4,0.0046386719,,,
37.4218750000,4,-0.0653381273,,,
37.4375000000,4,0.0335083008,,,
37.4531250000,4,0.2695007026,,,
37.4687500000,4,0.5014343262,,,
37.4843750000,4,0.5634766221,,,
37.5000000000,4,0.3606872857,,,
37.5156250000,4,-0.0476379395,,,
37.5312500000,4,-0.4559020996,,,
37.5468750000,4,-0.6393433213,,,
37.5625000000,4,-0.4700622857,,,
37.5781250000,4,0.0007934570,,,
37.5937500000,4,0.5613707900,,,
37.6093750000,4,0.9598999023,,,
37.6250000000,4,1.0322569609,,,
37.6406250000,4,0.7673645020,,,
37.6562500000,4,0.2904663086,,,
37.6718750000,4,-0.2362366021,,,
37.6875000000,4,-0.6902465820,,,
37.7031250000,4,-1.0096440315,,,
37.7187500000,4,-1.1742550135,,,
37.7343750000,4,-1.1814270020,,,
37.7500000000,4,-1.0224610567,,,
37.7656250000,4,-0.6911621094,,,
37.7812500000,4,-0.2351074070,,,
37.7968750000,4,0.2602233887,,,
37.8125000000,4,0.6726378798,,,
37.8281250000,4,0.8980712891,,,
37.8437500000,4,0.8953247070,,,
37.8593750000,4,0.7120972276,,,
37.8750000000,4,0.4698792100,,,
37.8906250000,4,0.3078917861,,,
37.9062500000,4,0.3044739068,,,
37.9218750000,4,0.4536133111,,,
37.9375000000,4,0.6617125869,,,
37.9531250000,4,0.8050231934,,,
37.9687500000,4,0.8036804199,,,
37.9843750000,4,0.6735535264,,,
38.0000000000,4,0.4946593940,,,
38.0156250000,4,0.3507080078,,,
38.0312500000,4,0.2881165147,,,
38.0468750000,4,0.2715454102,,,
38.0625000000,4,0.2171936035,,,
38.0781250000,4,0.0610656701,,,
38.0937500000,4,-0.2090453953,,,
38.1093750000,4,-0.5320128798,,,
38.1250000000,4,-0.8147583008,,,
38.1406250000,4,-0.9939270020,,,
38.1562500000,4,-1.0498349667,,,
38.1718750000,4,-1.0167850256,,,
38.1875000000,4,-0.9465026855,,,
38.2031250000,4,-0.8784790039,,,
38.2187500000,4,-0.8284606934,,,
38.2343750000,4,-0.7790222168,,,
38.2500000000,4,-0.6910706162,,,
38.2656250000,4,-0.5146179199,,,
38.2812500000,4,-0.2371520996,,,
38.2968750000,4,0.1154785007,,,
38.3125000000,4,0.4577941895,,,
38.3281250000,4,0.6969603896,,,
38.3437500000,4,0.7668762207,,,
38.3593750000,4,0.6713256836,,,
38.3750000000,4,0.4973754883,,,
38.3906250000,4,0.3513489068,,,
38.4062500000,4,0.2913818061,,,
38.4218750000,4,0.2970581055,,,
38.4375000000,4,0.2774963081,,,
38.4531250000,4,0.1266784966,,,
38.4687500000,4,-0.2021179050,,,
38.4843750000,4,-0.6441649795,,,
38.5000000000,4,-1.0656429529,,,
38.5156250000,4,-1.3161619902,,,
38.5312500000,4,-1.3118289709,,,
38.5468750000,4,-1.0685119629,,,
38.5625000000,4,-0.6800537109,,,
38.5781250000,4,-0.2531737983,,,
38.5937500000,4,0.1229247972,,,
38.6093750000,4,0.4019165039,,,
38.6250000000,4,0.5615844727,,,
38.6406250000,4,0.5914611816,,,
38.6562500000,4,0.4895325005,,,
38.6718750000,4,0.2758483887,,,
38.6875000000,4,0.0130310096,,,
38.7031250000,4,-0.1970214993,,,
38.7187500000,4,-0.2568970025,,,
38.7343750000,4,-0.1307373047,,,
38.7500000000,4,0.1430359036,,,
38.7656250000,4,0.4689331055,,,
38.7812500000,4,0.7235717773,,,
38.7968750000,4,0.8302001953,,,
38.8125000000,4,0.7679749131,,,
38.8281250000,4,0.5864257813,,,
38.8437500000,4,0.3589478135,,,
38.8593750000,4,0.1497498006,,,
38.8750000000,4,-0.0033264160,,,
38.8906250000,4,-0.0855102465,,,
38.9062500000,4,-0.0878601074,,,
38.9218750000,4,-0.0065612788,,,
38.9375000000,4,0.1794434041,,,
38.9531250000,4,0.4707641900,,,
38.9687500000,4,0.8345336914,,,
38.9843750000,4,1.1973270178,,,
39.0000000000,4,1.4741519690,,,
39.0156250000,4,1.6015319824,,,
39.0312500000,4,1.5626529455,,,
39.0468750000,4,1.3965760469,,,
39.0625000000,4,1.1637569666,,,
39.0781250000,4,0.9344481826,,,
39.0937500000,4,0.7445067763,,,
39.1093750000,4,0.5888367295,,,
39.1250000000,4,0.4212341011,,,
39.1406250000,4,0.1954040974,,,
39.1562500000,4,-0.1253052056,,,
39.1718750000,4,-0.5360717773,,,
39.1875000000,4,-0.9843750000,,,
39.2031250000,4,-1.3851319551,,,
39.2187500000,4,-1.6176760197,,,
39.2343750000,4,-1.5888669491,,,
39.2500000000,4,-1.2858890295,,,
39.2656250000,4,-0.7763977051,,,
39.2812500000,4,-0.2019042969,,,
39.2968750000,4,0.2882384956,,,
39.3125000000,4,0.5971375108,,,
39.3281250000,4,0.7176514268,,,
39.3437500000,4,0.7053833008,,,
39.3593750000,4,0.6379699707,,,
39.3750000000,4,0.5551757813,,,
39.3906250000,4,0.4560546875,,,
39.4062500000,4,0.3066405952,,,
39.4218750000,4,0.0762939528,,,
39.4375000000,4,-0.2171936035,,,
39.4531250000,4,-0.5309448242,,,
39.4687500000,4,-0.7978820801,,,
39.4843750000,4,-0.9872130752,,,
39.5000000000,4,-1.1102910042,,,
39.5156250000,4,-1.2056579590,,,
39.5312500000,4,-1.3080439568,,,
39.5468750000,4,-1.4175720215,,,
39.5625000000,4,-1.5022579432,,,
39.5781250000,4,-1.5103149414,,,
39.5937500000,4,-1.3878480196,,,
39.6093750000,4,-1.1284790039,,,
39.6250000000,4,-0.7760925293,,,
39.6406250000,4,-0.3968200982,,,
39.6562500000,4,-0.0642395020,,,
39.6718750000,4,0.1757812947,,,
39.6875000000,4,0.3258666992,,,
39.7031250000,4,0.4189147949,,,
39.7187500000,4,0.4913330078,,,
39.7343750000,4,0.5565795898,,,
39.7500000000,4,0.6010131836,,,
39.7656250000,4,0.5999146104,,,
39.7812500000,4,0.5415344238,,,
39.7968750000,4,0.4395751953,,,
39.8125000000,4,0.3278808892,,,
39.8281250000,4,0.2406616062,,,
39.8437500000,4,0.1955260932,,,
39.8593750000,4,0.1742859036,,,
39.8750000000,4,0.1453856975,,,
39.8906250000,4,0.0914001465,,,
39.9062500000,4,0.0231628399,,,
39.9218750000,4,-0.0306396503,,,
39.9375000000,4,-0.0360717811,,,
39.9531250000,4,0.0116882296,,,
39.9687500000,4,0.0830688477,,,
39.9843750000,4,0.1526793987,,,
40.0000000000,5,0.1891479045,,,
40.0156250000,5,0.2088012993,,,
40.0312500000,5,0.2396851033,,,
40.0468750000,5,0.3080750108,,,
40.0625000000,5,0.4134826958,,,
40.0781250000,5,0.5068054199,,,
40.0937500000,5,0.5362854004,,,
40.1093750000,5,0.4724731147,,,
40.1250000000,5,0.3265686035,,,
40.1406250000,5,0.1577758938,,,
40.1562500000,5,0.0221252404,,,
40.1718750000,5,-0.0552673303,,,
40.1875000000,5,-0.1049193963,,,
40.2031250000,5,-0.1828307956,,,
40.2187500000,5,-0.3178100884,,,
40.2343750000,5,-0.4865112007,,,
40.2500000000,5,-0.6065673828,,,
40.2656250000,5,-0.5875548720,,,
40.2812500000,5,-0.4064941108,,,
40.2968750000,5,-0.1181640998,,,
40.3125000000,5,0.1487427056,,,
40.3281250000,5,0.2663879097,,,
40.3437500000,5,0.1649170071,,,
40.3593750000,5,-0.1200866997,,,
40.3750000000,5,-0.4716491997,,,
40.3906250000,5,-0.7611389160,,,
40.4062500000,5,-0.8941956162,,,
40.4218750000,5,-0.8452454209,,,
40.4375000000,5,-0.6368103027,,,
40.4531250000,5,-0.2991637886,,,
40.4687500000,5,0.1278381050,,,
40.4843750000,5,0.6104735732,,,
40.5000000000,5,1.0934749842,,,
40.5156250000,5,1.4984129667,,,
40.5312500000,5,1.7370300293,,,
40.5468750000,5,1.7463380098,,,
40.5625000000,5,1.5249630213,,,
40.5781250000,5,1.1259460449,,,
40.5937500000,5,0.6553344727,,,
40.6093750000,5,0.2281493992,,,
40.6250000000,5,-0.0790100098,,,
40.6406250000,5,-0.2356566936,,,
40.6562500000,5,-0.2851563096,,,
40.6718750000,5,-0.2938232124,,,
40.6875000000,5,-0.3146666884,,,
40.7031250000,5,-0.3505249023,,,
40.7187500000,5,-0.3572083116,,,
40.7343750000,5,-0.2719115913,,,
40.7500000000,5,-0.0533752404,,,
40.7656250000,5,0.2669982910,,,
40.7812500000,5,0.5918884277,,,
40.7968750000,5,0.7977600098,,,
40.8125000000,5,0.7853394151,,,
40.8281250000,5,0.5520629883,,,
40.8437500000,5,0.1880798042,,,
40.8593750000,5,-0.1554564983,,,
40.8750000000,5,-0.3376465142,,,
40.8906250000,5,-0.2925415039,,,
40.9062500000,5,-0.0600585900,,,
40.9218750000,5,0.2257996053,,,
40.9375000000,5,0.3958739936,,,
40.9531250000,5,0.3408812881,,,
40.9687500000,5,0.0346069299,,,
40.9843750000,5,-0.4414367974,,,
41.0000000000,5,-0.9341431260,,,
41.0156250000,5,-1.2926939726,,,
41.0312500000,5,-1.4300539494,,,
41.0468750000,5,-1.3538819551,,,
41.0625000000,5,-1.1396180391,,,
41.0781250000,5,-0.8970642090,,,
41.0937500000,5,-0.7039185166,,,
41.1093750000,5,-0.5709838867,,,
41.1250000000,5,-0.4540404975,,,
41.1406250000,5,-0.2829284966,,,
41.1562500000,5,-0.0061340332,,,
41.1718750000,5,0.3626098931,,,
41.1875000000,5,0.7481384277,,,
41.2031250000,5,1.0417180061,,,
41.2187500000,5,1.1612550020,,,
41.2343750000,5,1.0818480253,,,
41.2500000000,5,0.8652039170,,,
41.2656250000,5,0.6142882705,,,
41.2812500000,5,0.4431152046,,,
41.2968750000,5,0.4165343940,,,
41.3125000000,5,0.5289000869,,,
41.3281250000,5,0.6948242188,,,
41.3437500000,5,0.7982482910,,,
41.3593750000,5,0.7416687012,,,
41.3750000000,5,0.4841308892,,,
41.3906250000,5,0.0728149414,,,
41.4062500000,5,-0.3692016900,,,
41.4218750000,5,-0.7113342285,,,
41.4375000000,5,-0.8551331162,,,
41.4531250000,5,-0.7794188857,,,
41.4687500000,5,-0.5403137207,,,
41.4843750000,5,-0.2246094048,,,
41.5000000000,5,0.0871582031,,,
41.5156250000,5,0.3493346870,,,
41.5312500000,5,0.5486450195,,,
41.5468750000,5,0.6921386719,,,
41.5625000000,5,0.7801207900,,,
41.5781250000,5,0.8017578125,,,
41.5937500000,5,0.7389525771,,,
41.6093750000,5,0.5822144151,,,
41.6250000000,5,0.3518371880,,,
41.6406250000,5,0.0823364332,,,
41.6562500000,5,-0.1728516072,,,
41.6718750000,5,-0.3671875000,,,
41.6875000000,5,-0.4730834961,,,
41.7031250000,5,-0.5018311143,,,
41.7187500000,5,-0.4880065918,,,
41.7343750000,5,-0.4882202148,,,
41.7500000000,5,-0.5669249892,,,
41.7656250000,5,-0.7533568740,,,
41.7812500000,5,-1.0361020565,,,
41.7968750000,5,-1.3700560331,,,
41.8125000000,5,-1.6741329432,,,
41.8281250000,5,-1.8707890511,,,
41.8437500000,5,-1.9011230469,,,
41.8593750000,5,-1.7227170467,,,
41.8750000000,5,-1.3303829432,,,
41.8906250000,5,-0.7654724121,,,
41.9062500000,5,-0.1187438965,,,
41.9218750000,5,0.4688416123,,,
41.9375000000,5,0.8730468750,,,
41.9531250000,5,1.0317690372,,,
41.9687500000,5,0.9856262207,,,
41.9843750000,5,0.8440247178,,,
42.0000000000,5,0.7314453125,,,
42.0156250000,5,0.7076110840,,,
42.0312500000,5,0.7352600098,,,
42.0468750000,5,0.7137145996,,,
42.0625000000,5,0.5536193848,,,
42.0781250000,5,0.2581787109,,,
42.0937500000,5,-0.0917053223,,,
42.1093750000,5,-0.3601379097,,,
42.1250000000,5,-0.4783324897,,,
42.1406250000,5,-0.4706726074,,,
42.1562500000,5,-0.4357300103,,,
42.1718750000,5,-0.4750976861,,,
42.1875000000,5,-0.6057434082,,,
42.2031250000,5,-0.7743530273,,,
42.2187500000,5,-0.8792418838,,,
42.2343750000,5,-0.8517761230,,,
42.2500000000,5,-0.6942443848,,,
42.2656250000,5,-0.4654541016,,,
42.2812500000,5,-0.2287597954,,,
42.2968750000,5,-0.0156555194,,,
42.3125000000,5,0.1718444973,,,
42.3281250000,5,0.3394165039,,,
42.3437500000,5,0.4645690918,,,
42.3593750000,5,0.5064697266,,,
42.3750000000,5,0.4328308105,,,
42.3906250000,5,0.2497864068,,,
42.4062500000,5,0.0046081538,,,
42.4218750000,5,-0.2528381050,,,
42.4375000000,5,-0.4865722954,,,
42.4531250000,5,-0.7104796767,,,
42.4687500000,5,-0.9231262207,,,
42.4843750000,5,-1.1152650118,,,
42.5000000000,5,-1.2334899902,,,
42.5156250000,5,-1.2033389807,,,
42.5312500000,5,-0.9808350205,,,
42.5468750000,5,-0.5843201280,,,
42.5625000000,5,-0.0993957520,,,
42.5781250000,5,0.3562316895,,,
42.5937500000,5,0.6555175781,,,
42.6093750000,5,0.7440795898,,,
42.6250000000,5,0.6332092285,,,
42.6406250000,5,0.3961791992,,,
42.6562500000,5,0.1607971042,,,
42.6718750000,5,0.0431518592,,,
42.6875000000,5,0.1419066936,,,
42.7031250000,5,0.4870299995,,,
42.7187500000,5,1.0373229980,,,
42.7343750000,5,1.6709899902,,,
42.7500000000,5,2.2259829044,,,
42.7656250000,5,2.5296940804,,,
42.7812500000,5,2.4544680119,,,
42.7968750000,5,1.9571529627,,,
42.8125000000,5,1.1020200253,,,
42.8281250000,5,0.0427551307,,,
42.8437500000,5,-1.0057369471,,,
42.8593750000,5,-1.8222049475,,,
42.8750000000,5,-2.2478640079,,,
42.8906250000,5,-2.2211608887,,,
42.9062500000,5,-1.7926030159,,,
42.9218750000,5,-1.1062010527,,,
42.9375000000,5,-0.3197326958,,,
42.9531250000,5,0.4099121094,,,
42.9687500000,5,0.9749755859,,,
42.9843750000,5,1.3063050508,,,
43.0000000000,5,1.3937070370,,,
43.0156250000,5,1.2757869959,,,
43.0312500000,5,1.0290219784,,,
43.0468750000,5,0.7665405273,,,
43.0625000000,5,0.6011962891,,,
43.0781250000,5,0.6051940918,,,
43.0937500000,5,0.7680053711,,,
43.1093750000,5,1.0147399902,,,
43.1250000000,5,1.2315369844,,,
43.1406250000,5,1.3172299862,,,
43.1562500000,5,1.2336430550,,,
43.1718750000,5,0.9891052246,,,
43.1875000000,5,0.6433715820,,,
43.2031250000,5,0.2521057129,,,
43.2187500000,5,-0.1363220066,,,
43.2343750000,5,-0.4750671089,,,
43.2500000000,5,-0.7223815918,,,
43.2656250000,5,-0.8496093750,,,
43.2812500000,5,-0.8603516221,,,
43.2968750000,5,-0.7930908203,,,
43.3125000000,5,-0.7003784180,,,
43.3281250000,5,-0.6112061143,,,
43.3437500000,5,-0.5235595703,,,
43.3593750000,5,-0.4046325982,,,
43.3750000000,5,-0.2248229980,,,
43.3906250000,5,0.0090026855,,,
43.4062500000,5,0.2535705864,,,
43.4218750000,5,0.4355163872,,,
43.4375000000,5,0.5239257813,,,
43.4531250000,5,0.5262755752,,,
43.4687500000,5,0.4794921875,,,
43.4843750000,5,0.4064635932,,,
43.5000000000,5,0.3065186143,,,
43.5156250000,5,0.1454772949,,,
43.5312500000,5,-0.0943603516,,,
43.5468750000,5,-0.3791199028,,,
43.5625000000,5,-0.6445313096,,,
43.5781250000,5,-0.8089293838,,,
43.5937500000,5,-0.8309020996,,,
43.6093750000,5,-0.7214661241,,,
43.6250000000,5,-0.5436096191,,,
43.6406250000,5,-0.3666687012,,,
43.6562500000,5,-0.2282714993,,,
43.6718750000,5,-0.1415099949,,,
43.6875000000,5,-0.0924682617,,,
43.7031250000,5,-0.0644836426,,,
43.7187500000,5,-0.0686035231,,,
43.7343750000,5,-0.1257324070,,,
43.7500000000,5,-0.2444458008,,,
43.7656250000,5,-0.4125671089,,,
43.7812500000,5,-0.5928649902,,,
43.7968750000,5,-0.7182617188,,,
43.8125000000,5,-0.7578734756,,,
43.8281250000,5,-0.6919860840,,,
43.8437500000,5,-0.5493773818,,,
43.8593750000,5,-0.3839111030,,,
43.8750000000,5,-0.2626037896,,,
43.8906250000,5,-0.2351990044,,,
43.9062500000,5,-0.3300476074,,,
43.9218750000,5,-0.5346984863,,,
43.9375000000,5,-0.7896729112,,,
43.9531250000,5,-0.9989929199,,,
43.9687500000,5,-1.0638730526,,,
43.9843750000,5,-0.9176024795,,,
44.0000000000,5,-0.5487670898,,,
44.0156250000,5,-0.0202941895,,,
44.0312500000,5,0.5538939834,,,
44.0468750000,5,1.0504460335,,,
44.0625000000,5,1.3566590548,,,
44.0781250000,5,1.4214479923,,,
44.0937500000,5,1.2506409883,,,
44.1093750000,5,0.9133911133,,,
44.1250000000,5,0.5339661241,,,
44.1406250000,5,0.2621459961,,,
44.1562500000,5,0.2307433933,,,
44.1718750000,5,0.4930725098,,,
44.1875000000,5,0.9832152724,,,
44.2031250000,5,1.5234379768,,,
44.2187500000,5,1.9018549919,,,
44.2343750000,5,1.9523930550,,,
44.2500000000,5,1.6408079863,,,
44.2656250000,5,1.0706180334,,,
44.2812500000,5,0.4139099121,,,
44.2968750000,5,-0.1655883938,,,
44.3125000000,5,-0.5855103135,,,
44.3281250000,5,-0.8406066895,,,
44.3437500000,5,-0.9726563096,,,
44.3593750000,5,-1.0135500431,,,
44.3750000000,5,-0.9578247070,,,
44.3906250000,5,-0.7709655762,,,
44.4062500000,5,-0.4457702935,,,
44.4218750000,5,-0.0421752892,,,
44.4375000000,5,0.3238219917,,,
44.4531250000,5,0.5278319716,,,
44.4687500000,5,0.5044556260,,,
44.4843750000,5,0.2751159966,,,
44.5000000000,5,-0.0597534217,,,
44.5156250000,5,-0.3605346978,,,
44.5312500000,5,-0.5155333877,,,
44.5468750000,5,-0.4917908013,,,
44.5625000000,5,-0.3582457900,,,
44.5781250000,5,-0.2438964993,,,
44.5937500000,5,-0.2811583877,,,
44.6093750000,5,-0.5189208984,,,
44.6250000000,5,-0.8892517090,,,
44.6406250000,5,-1.2349849939,,,
44.6562500000,5,-1.3815920353,,,
44.6718750000,5,-1.2473750114,,,
44.6875000000,5,-0.8622742295,,,
44.7031250000,5,-0.3776549995,,,
44.7187500000,5,0.0406494103,,,
44.7343750000,5,0.2809447944,,,
44.7500000000,5,0.3379516900,,,
44.7656250000,5,0.2924804986,,,
44.7812500000,5,0.2395325005,,,
44.7968750000,5,0.2148132026,,,
44.8125000000,5,0.1903381050,,,
44.8281250000,5,0.1076660007,,,
44.8437500000,5,-0.0445251502,,,
44.8593750000,5,-0.2154235989,,,
44.8750000000,5,-0.3016051948,,,
44.8906250000,5,-0.2354431003,,,
44.9062500000,5,-0.0256652795,,,
44.9218750000,5,0.2170104980,,,
44.9375000000,5,0.3590697944,,,
44.9531250000,5,0.3012695014,,,
44.9687500000,5,0.0574340783,,,
44.9843750000,5,-0.2619934082,,,
45.0000000000,5,-0.5092468262,,,
45.0156250000,5,-0.5733336806,,,
45.0312500000,5,-0.4440917969,,,
45.0468750000,5,-0.2209472954,,,
45.0625000000,5,-0.0507812500,,,
45.0781250000,5,-0.0281066895,,,
45.0937500000,5,-0.1451721042,,,
45.1093750000,5,-0.2801513970,,,
45.1250000000,5,-0.2794800103,,,
45.1406250000,5,-0.0597839393,,,
45.1562500000,5,0.3414916992,,,
45.1718750000,5,0.7640991211,,,
45.1875000000,5,1.0265200138,,,
45.2031250000,5,1.0343019962,,,
45.2187500000,5,0.8343201280,,,
45.2343750000,5,0.5807495117,,,
45.2500000000,5,0.4497070014,,,
45.2656250000,5,0.5293273926,,,
45.2812500000,5,0.7961730957,,,
45.2968750000,5,1.1146850586,,,
45.3125000000,5,1.3312070370,,,
45.3281250000,5,1.3638919592,,,
45.3437500000,5,1.2302249670,,,
45.3593750000,5,1.0061039925,,,
45.3750000000,5,0.7931519151,,,
45.3906250000,5,0.6530150771,,,
45.4062500000,5,0.6013488770,,,
45.4218750000,5,0.6117553711,,,
45.4375000000,5,0.6417847276,,,
45.4531250000,5,0.6489868164,,,
45.4687500000,5,0.6190795898,,,
45.4843750000,5,0.5482482910,,,
45.5000000000,5,0.4523620903,,,
45.5156250000,5,0.3432312012,,,
45.5312500000,5,0.2295227051,,,
45.5468750000,5,0.1007385030,,,
45.5625000000,5,-0.0642089769,,,
45.5781250000,5,-0.2738037109,,,
45.5937500000,5,-0.5037537217,,,
45.6093750000,5,-0.6968994141,,,
45.6250000000,5,-0.7832946777,,,
45.6406250000,5,-0.7224121094,,,
45.6562500000,5,-0.5358275771,,,
45.6718750000,5,-0.3368529975,,,
45.6875000000,5,-0.2720336914,,,
45.7031250000,5,-0.4351500869,,,
45.7187500000,5,-0.8118895888,,,
45.7343750000,5,-1.2620539665,,,
45.7500000000,5,-1.5825810432,,,
45.7656250000,5,-1.6309510469,,,
45.7812500000,5,-1.3723449707,,,
45.7968750000,5,-0.9169005752,,,
45.8125000000,5,-0.4407958984,,,
45.8281250000,5,-0.0967712402,,,
45.8437500000,5,0.0559692383,,,
45.8593750000,5,0.0551757813,,,
45.8750000000,5,-0.0124816904,,,
45.8906250000,5,-0.0679321289,,,
45.9062500000,5,-0.0768127367,,,
45.9218750000,5,-0.0530395508,,,
45.9375000000,5,-0.0319213904,,,
45.9531250000,5,-0.0298156701,,,
45.9687500000,5,-0.0419616699,,,
45.9843750000,5,-0.0525817908,,,
46.0000000000,5,-0.0556945801,,,
46.0156250000,5,-0.0783386230,,,
46.0312500000,5,-0.1555480957,,,
46.0468750000,5,-0.3258056939,,,
46.0625000000,5,-0.5868834853,,,
46.0781250000,5,-0.8804932237,,,
46.0937500000,5,-1.1047359705,,,
46.1093750000,5,-1.1674189568,,,
46.1250000000,5,-1.0353389978,,,
46.1406250000,5,-0.7517700195,,,
46.1562500000,5,-0.3992004097,,,
46.1718750000,5,-0.0703430176,,,
46.1875000000,5,0.2152709961,,,
46.2031250000,5,0.4943847954,,,
46.2187500000,5,0.8256835938,,,
46.2343750000,5,1.2168879509,,,
46.2500000000,5,1.5915529728,,,
46.2656250000,5,1.8215639591,,,
46.2812500000,5,1.8162839413,,,
46.2968750000,5,1.5899660587,,,
46.3125000000,5,1.2528079748,,,
46.3281250000,5,0.9595031738,,,
46.3437500000,5,0.8078002930,,,
46.3593750000,5,0.7932434082,,,
46.3750000000,5,0.8346558213,,,
46.3906250000,5,0.8381652832,,,
46.4062500000,5,0.7575684190,,,
46.4218750000,5,0.5847473145,,,
46.4375000000,5,0.3438416123,,,
46.4531250000,5,0.0362854004,,,
46.4687500000,5,-0.3370055854,,,
46.4843750000,5,-0.7558898926,,,
46.5000000000,5,-1.1422729492,,,
46.5156250000,5,-1.3821719885,,,
46.5312500000,5,-1.3844599724,,,
46.5468750000,5,-1.1408690214,,,
46.5625000000,5,-0.7582092285,,,
46.5781250000,5,-0.3837584853,,,
46.5937500000,5,-0.1505126953,,,
46.6093750000,5,-0.0957641602,,,
46.6250000000,5,-0.1650695950,,,
46.6406250000,5,-0.2733458877,,,
46.6562500000,5,-0.3420409858,,,
46.6718750000,5,-0.3801270127,,,
46.6875000000,5,-0.4235534966,,,
46.7031250000,5,-0.5206604004,,,
46.7187500000,5,-0.6701660156,,,
46.7343750000,5,-0.8140258789,,,
46.7500000000,5,-0.8588256836,,,
46.7656250000,5,-0.7488402724,,,
46.7812500000,5,-0.5155333877,,,
46.7968750000,5,-0.2734679878,,,
46.8125000000,5,-0.1732483059,,,
46.8281250000,5,-0.2997741997,,,
46.8437500000,5,-0.6099547744,,,
46.8593750000,5,-0.9275513291,,,
46.8750000000,5,-1.0410460234,,,
46.8906250000,5,-0.8169860840,,,
46.9062500000,5,-0.2881165147,,,
46.9218750000,5,0.3498840034,,,
46.9375000000,5,0.8629760742,,,
46.9531250000,5,1.1001889706,,,
46.9687500000,5,1.0765990019,,,
46.9843750000,5,0.9071959853,,,
47.0000000000,5,0.7286682129,,,
47.0156250000,5,0.5938416123,,,
47.0312500000,5,0.4635010064,,,
47.0468750000,5,0.2670288086,,,
47.0625000000,5,-0.0347595215,,,
47.0781250000,5,-0.3913573921,,,
47.0937500000,5,-0.7004088759,,,
47.1093750000,5,-0.8693848252,,,
47.1250000000,5,-0.8433532715,,,
47.1406250000,5,-0.6357421875,,,
47.1562500000,5,-0.2982178032,,,
47.1718750000,5,0.0925292969,,,
47.1875000000,5,0.4496155083,,,
47.2031250000,5,0.6866760254,,,
47.2187500000,5,0.7347412109,,,
47.2343750000,5,0.5664368272,,,
47.2500000000,5,0.2174071968,,,
47.2656250000,5,-0.2156372070,,,
47.2812500000,5,-0.6244506836,,,
47.2968750000,5,-0.9244995117,,,
47.3125000000,5,-1.0663150549,,,
47.3281250000,5,-1.0416259766,,,
47.3437500000,5,-0.8541259766,,,
47.3593750000,5,-0.5203552246,,,
47.3750000000,5,-0.0809020996,,,
47.3906250000,5,0.3719482124,,,
47.4062500000,5,0.7193604112,,,
47.4218750000,5,0.8617553711,,,
47.4375000000,5,0.7619323730,,,
47.4531250000,5,0.4869995117,,,
47.4687500000,5,0.1692200005,,,
47.4843750000,5,-0.0726013184,,,
47.5000000000,5,-0.1807861030,,,
47.5156250000,5,-0.1729125977,,,
47.5312500000,5,-0.1014709026,,,
47.5468750000,5,0.0123290997,,,
47.5625000000,5,0.1817626953,,,
47.5781250000,5,0.4557189941,,,
47.5937500000,5,0.8692932129,,,
47.6093750000,5,1.3687130213,,,
47.6250000000,5,1.8311769962,,,
47.6406250000,5,2.1037600040,,,
47.6562500000,5,2.0755620003,,,
47.6718750000,5,1.7383120060,,,
47.6875000000,5,1.1978449821,,,
47.7031250000,5,0.6161804199,,,
47.7187500000,5,0.1375122070,,,
47.7343750000,5,-0.1762389988,,,
47.7500000000,5,-0.3636780083,,,
47.7656250000,5,-0.5238342285,,,
47.7812500000,5,-0.7375488281,,,
47.7968750000,5,-1.0302729607,,,
47.8125000000,5,-1.3415529728,,,
47.8281250000,5,-1.5560610294,,,
47.8437500000,5,-1.5893859863,,,
47.8593750000,5,-1.4214780331,,,
47.8750000000,5,-1.1268010139,,,
47.8906250000,5,-0.8404846191,,,
47.9062500000,5,-0.6958007813,,,
47.9218750000,5,-0.7495421767,,,
47.9375000000,5,-0.9647216797,,,
47.9531250000,5,-1.2160340548,,,
47.9687500000,5,-1.3521120548,,,
47.9843750000,5,-1.2765500546,,,
48.0000000000,6,-1.0013730526,,,
48.0156250000,6,-0.6161499023,,,
48.0312500000,6,-0.2527160943,,,
48.0468750000,6,0.0225524902,,,
48.0625000000,6,0.2077637017,,,
48.0781250000,6,0.3464966118,,,
48.0937500000,6,0.4852904975,,,
48.1093750000,6,0.6047974229,,,
48.1250000000,6,0.6513671875,,,
48.1406250000,6,0.5728455186,,,
48.1562500000,6,0.3789367974,,,
48.1718750000,6,0.1400756985,,,
48.1875000000,6,-0.0527038611,,,
48.2031250000,6,-0.1432799995,,,
48.2187500000,6,-0.1350097954,,,
48.2343750000,6,-0.0758056566,,,
48.2500000000,6,-0.0173339806,,,
48.2656250000,6,0.0202636700,,,
48.2812500000,6,0.0487670898,,,
48.2968750000,6,0.0899047926,,,
48.3125000000,6,0.1474304050,,,
48.3281250000,6,0.2372741997,,,
48.3437500000,6,0.3646545112,,,
48.3593750000,6,0.5454406738,,,
48.3750000000,6,0.7754210830,,,
48.3906250000,6,1.0081180334,,,
48.4062500000,6,1.1648249626,,,
48.4218750000,6,1.1631469727,,,
48.4375000000,6,0.9691162109,,,
48.4531250000,6,0.6105042100,,,
48.4687500000,6,0.1859131008,,,
48.4843750000,6,-0.1994933933,,,
48.5000000000,6,-0.4598999023,,,
48.5156250000,6,-0.5538939834,,,
48.5312500000,6,-0.4816895127,,,
48.5468750000,6,-0.2657166123,,,
48.5625000000,6,0.0468750000,,,
48.5781250000,6,0.3900145888,,,
48.5937500000,6,0.6977539063,,,
48.6093750000,6,0.9061583877,,,
48.6250000000,6,0.9885253906,,,
48.6406250000,6,0.9458007813,,,
48.6562500000,6,0.8095092773,,,
48.6718750000,6,0.6330565810,,,
48.6875000000,6,0.4555358887,,,
48.7031250000,6,0.3283385932,,,
48.7187500000,6,0.2956542969,,,
48.7343750000,6,0.3819274902,,,
48.7500000000,6,0.5611572266,,,
48.7656250000,6,0.7719420791,,,
48.7812500000,6,0.9215393066,,,
48.7968750000,6,0.9245911241,,,
48.8125000000,6,0.7524414063,,,
48.8281250000,6,0.4424743950,,,
48.8437500000,6,0.0790405273,,,
48.8593750000,6,-0.2475585938,,,
48.8750000000,6,-0.4965820014,,,
48.8906250000,6,-0.6739196777,,,
48.9062500000,6,-0.8132324219,,,
48.9218750000,6,-0.9384766221,,,
48.9375000000,6,-1.0324100256,,,
48.9531250000,6,-1.0682979822,,,
48.9687500000,6,-1.0340579748,,,
48.9843750000,6,-0.9770812988,,,
49.0000000000,6,-0.9654541016,,,
49.0156250000,6,-1.0599370003,,,
49.0312500000,6,-1.2567750216,,,
49.0468750000,6,-1.4843139648,,,
49.0625000000,6,-1.6243900061,,,
49.0781250000,6,-1.5867609978,,,
49.0937500000,6,-1.3282469511,,,
49.1093750000,6,-0.8715972900,,,
49.1250000000,6,-0.2909088135,,,
49.1406250000,6,0.3056334853,,,
49.1562500000,6,0.7999420166,,,
49.1718750000,6,1.0885310173,,,
49.1875000000,6,1.0966490507,,,
49.2031250000,6,0.8031005859,,,
49.2187500000,6,0.2830047905,,,
49.2343750000,6,-0.2935791016,,,
49.2500000000,6,-0.7267302871,,,
49.2656250000,6,-0.8495635986,,,
49.2812500000,6,-0.6133118272,,,
49.2968750000,6,-0.1032714993,,,
49.3125000000,6,0.4943085015,,,
49.3281250000,6,0.9918975830,,,
49.3437500000,6,1.2754520178,,,
49.3593750000,6,1.3468320370,,,
49.3750000000,6,1.2712550163,,,
49.3906250000,6,1.1492160559,,,
49.4062500000,6,1.0471500158,,,
49.4218750000,6,0.9895629883,,,
49.4375000000,6,0.9644774795,,,
49.4531250000,6,0.9583281875,,,
49.4687500000,6,0.9824523926,,,
49.4843750000,6,1.0405429602,,,
49.5000000000,6,1.1309200525,,,
49.5156250000,6,1.2076419592,,,
49.5312500000,6,1.1885989904,,,
49.5468750000,6,0.9943695068,,,
49.5625000000,6,0.6043242812,,,
49.5781250000,6,0.0805664137,,,
49.5937500000,6,-0.4544982910,,,
49.6093750000,6,-0.8601837158,,,
49.6250000000,6,-1.0645600557,,,
49.6406250000,6,-1.0697170496,,,
49.6562500000,6,-0.9701079726,,,
49.6718750000,6,-0.8746184707,,,
49.6875000000,6,-0.8518524170,,,
49.7031250000,6,-0.9112244248,,,
49.7187500000,6,-0.9939879775,,,
49.7343750000,6,-1.0245670080,,,
49.7500000000,6,-0.9416046143,,,
49.7656250000,6,-0.7391356826,,,
49.7812500000,6,-0.4623413086,,,
49.7968750000,6,-0.1939544976,,,
49.8125000000,6,-0.0433044396,,,
49.8281250000,6,-0.0948944092,,,
49.8437500000,6,-0.3588866889,,,
49.8593750000,6,-0.7372130752,,,
49.8750000000,6,-1.0574040413,,,
49.8906250000,6,-1.1402440071,,,
49.9062500000,6,-0.8992614746,,,
49.9218750000,6,-0.3911896050,,,
49.9375000000,6,0.1985016018,,,
49.9531250000,6,0.6561126709,,,
49.9687500000,6,0.8565825820,,,
49.9843750000,6,0.7954102159,,,
50.0000000000,6,0.6041870117,,,
50.0156250000,6,0.4225463867,,,
50.0312500000,6,0.3197326958,,,
50.0468750000,6,0.2769623101,,,
50.0625000000,6,0.2168426961,,,
50.0781250000,6,0.0959625170,,,
50.0937500000,6,-0.0536956787,,,
50.1093750000,6,-0.1472014934,,,
50.1250000000,6,-0.1202545017,,,
50.1406250000,6,0.0188446008,,,
50.1562500000,6,0.1826629937,,,
50.1718750000,6,0.2694244087,,,
50.1875000000,6,0.2283325046,,,
50.2031250000,6,0.0948333666,,,
50.2187500000,6,-0.0327453613,,,
50.2343750000,6,-0.0516662598,,,
50.2500000000,6,0.0627288818,,,
50.2656250000,6,0.2397003025,,,
50.2812500000,6,0.3391571045,,,
50.2968750000,6,0.2339935005,,,
50.3125000000,6,-0.1149291992,,,
50.3281250000,6,-0.6324462891,,,
50.3437500000,6,-1.1316829920,,,
50.3593750000,6,-1.4025570154,,,
50.3750000000,6,-1.3007659912,,,
50.3906250000,6,-0.8148040771,,,
50.4062500000,6,-0.0673828125,,,
50.4218750000,6,0.7101746202,,,
50.4375000000,6,1.2890009880,,,
50.4531250000,6,1.5441440344,,,
50.4687500000,6,1.4781490564,,,
50.4843750000,6,1.1875610352,,,
50.5000000000,6,0.8117980957,,,
50.5156250000,6,0.4367065132,,,
50.5312500000,6,0.0923004225,,,
50.5468750000,6,-0.2073058933,,,
50.5625000000,6,-0.4307555854,,,
50.5781250000,6,-0.5244445801,,,
50.5937500000,6,-0.4410705864,,,
50.6093750000,6,-0.2251891941,,,
50.6250000000,6,0.0130615197,,,
50.6406250000,6,0.1035614014,,,
50.6562500000,6,-0.0641479492,,,
50.6718750000,6,-0.4689331055,,,
50.6875000000,6,-0.9476317763,,,
50.7031250000,6,-1.2931059599,,,
50.7187500000,6,-1.3522340059,,,
50.7343750000,6,-1.1068270206,,,
50.7500000000,6,-0.6831665039,,,
50.7656250000,6,-0.2588653862,,,
50.7812500000,6,0.0149383498,,,
50.7968750000,6,0.0829925537,,,
50.8125000000,6,-0.0169220008,,,
50.8281250000,6,-0.1957245022,,,
50.8437500000,6,-0.3443146050,,,
50.8593750000,6,-0.3784331977,,,
50.8750000000,6,-0.2492980957,,,
50.8906250000,6,0.0397338904,,,
50.9062500000,6,0.4429016113,,,
50.9218750000,6,0.8526610732,,,
50.9375000000,6,1.1356960535,,,
50.9531250000,6,1.1908570528,,,
50.9687500000,6,0.9900208116,,,
50.9843750000,6,0.5839843750,,,
51.0000000000,6,0.0945892334,,,
51.0156250000,6,-0.3519591987,,,
51.0312500000,6,-0.6804351807,,,
51.0468750000,6,-0.8666077256,,,
51.0625000000,6,-0.9247283936,,,
51.0781250000,6,-0.8768463135,,,
51.0937500000,6,-0.7283629775,,,
51.1093750000,6,-0.5035247803,,,
51.1250000000,6,-0.2429962009,,,
51.1406250000,6,-0.0025482180,,,
51.1562500000,6,0.1537017971,,,
51.1718750000,6,0.1856537014,,,
51.1875000000,6,0.1142883003,,,
51.2031250000,6,-0.0003967285,,,
51.2187500000,6,-0.0616607703,,,
51.2343750000,6,-0.0001678467,,,
51.2500000000,6,0.1941071004,,,
51.2656250000,6,0.4659881890,,,
51.2812500000,6,0.7087554932,,,
51.2968750000,6,0.8138732910,,,
51.3125000000,6,0.7144774795,,,
51.3281250000,6,0.4277190864,,,
51.3437500000,6,0.0387268104,,,
51.3593750000,6,-0.3287048042,,,
51.3750000000,6,-0.5721892715,,,
51.3906250000,6,-0.6327819824,,,
51.4062500000,6,-0.5238953233,,,
51.4218750000,6,-0.2916870117,,,
51.4375000000,6,0.0057830811,,,
51.4531250000,6,0.3232573867,,,
51.4687500000,6,0.6240233779,,,
51.4843750000,6,0.8659514785,,,
51.5000000000,6,0.9986876845,,,
51.5156250000,6,1.0070650578,,,
51.5312500000,6,0.9015197754,,,
51.5468750000,6,0.7301483154,,,
51.5625000000,6,0.5442656875,,,
51.5781250000,6,0.3614501953,,,
51.5937500000,6,0.1652985066,,,
51.6093750000,6,-0.0689239502,,,
51.6250000000,6,-0.3381499946,,,
51.6406250000,6,-0.5741881728,,,
51.6562500000,6,-0.6842803955,,,
51.6718750000,6,-0.5964813232,,,
51.6875000000,6,-0.3273926079,,,
51.7031250000,6,0.0273132306,,,
51.7187500000,6,0.3240356147,,,
51.7343750000,6,0.4336242974,,,
51.7500000000,6,0.3258666992,,,
51.7656250000,6,0.0742187500,,,
51.7812500000,6,-0.1941833049,,,
51.7968750000,6,-0.3600615859,,,
51.8125000000,6,-0.3810577095,,,
51.8281250000,6,-0.2830047905,,,
51.8437500000,6,-0.1391295940,,,
51.8593750000,6,-0.0139770498,,,
51.8750000000,6,0.0763397217,,,
51.8906250000,6,0.1573029011,,,
51.9062500000,6,0.2777405083,,,
51.9218750000,6,0.4573669136,,,
51.9375000000,6,0.6698914170,,,
51.9531250000,6,0.8590239882,,,
51.9687500000,6,0.9469298720,,,
51.9843750000,6,0.8876953125,,,
52.0000000000,6,0.6656035781,,,
52.0156250000,6,0.3191986084,,,
52.0312500000,6,-0.0978546068,,,
52.0468750000,6,-0.5317382813,,,
52.0625000000,6,-0.9394379258,,,
52.0781250000,6,-1.2821500301,,,
52.0937500000,6,-1.5211490393,,,
52.1093750000,6,-1.6169589758,,,
52.1250000000,6,-1.5533909798,,,
52.1406250000,6,-1.3473509550,,,
52.1562500000,6,-1.0414429903,,,
52.1718750000,6,-0.7005004883,,,
52.1875000000,6,-0.3857268989,,,
52.2031250000,6,-0.1234894022,,,
52.2187500000,6,0.0901641771,,,
52.2343750000,6,0.2563476861,,,
52.2500000000,6,0.3693847954,,,
52.2656250000,6,0.4157257080,,,
52.2812500000,6,0.3840179145,,,
52.2968750000,6,0.3064728081,,,
52.3125000000,6,0.2370605022,,,
52.3281250000,6,0.2314452976,,,
52.3437500000,6,0.2995452881,,,
52.3593750000,6,0.3998717964,,,
52.3750000000,6,0.4606322944,,,
52.3906250000,6,0.4222564995,,,
52.4062500000,6,0.2736052871,,,
52.4218750000,6,0.0390014611,,,
52.4375000000,6,-0.2459716946,,,
52.4531250000,6,-0.5533905029,,,
52.4687500000,6,-0.8478850722,,,
52.4843750000,6,-1.0773160458,,,
52.5000000000,6,-1.1723179817,,,
52.5156250000,6,-1.0749210119,,,
52.5312500000,6,-0.7808837891,,,
52.5468750000,6,-0.3555755913,,,
52.5625000000,6,0.0920410231,,,
52.5781250000,6,0.4570159912,,,
52.5937500000,6,0.6943054199,,,
52.6093750000,6,0.8029174805,,,
52.6250000000,6,0.7978668213,,,
52.6406250000,6,0.6863250732,,,
52.6562500000,6,0.4695892036,,,
52.6718750000,6,0.1529387981,,,
52.6875000000,6,-0.2159575969,,,
52.7031250000,6,-0.5707396865,,,
52.7187500000,6,-0.8513336182,,,
52.7343750000,6,-1.0381929874,,,
52.7500000000,6,-1.1508940458,,,
52.7656250000,6,-1.2264560461,,,
52.7812500000,6,-1.2867280245,,,
52.7968750000,6,-1.3243709803,,,
52.8125000000,6,-1.3068389893,,,
52.8281250000,6,-1.2123260498,,,
52.8437500000,6,-1.0289460421,,,
52.8593750000,6,-0.7509155273,,,
52.8750000000,6,-0.3860625923,,,
52.8906250000,6,0.0472869910,,,
52.9062500000,6,0.4901581109,,,
52.9218750000,6,0.8539428711,,,
52.9375000000,6,1.0338590145,,,
52.9531250000,6,0.9742736816,,,
52.9687500000,6,0.7126464844,,,
52.9843750000,6,0.3850555122,,,
53.0000000000,6,0.1695404053,,,
53.0156250000,6,0.2008666992,,,
53.0312500000,6,0.4988403022,,,
53.0468750000,6,0.9637755752,,,
53.0625000000,6,1.4155730009,,,
53.0781250000,6,1.6803439856,,,
53.0937500000,6,1.6659849882,,,
53.1093750000,6,1.3881989717,,,
53.1250000000,6,0.9490662217,,,
53.1406250000,6,0.4829253852,,,
53.1562500000,6,0.1051940992,,,
53.1718750000,6,-0.1279754937,,,
53.1875000000,6,-0.2006531060,,,
53.2031250000,6,-0.1298065037,,,
53.2187500000,6,0.0503540002,,,
53.2343750000,6,0.2968139946,,,
53.2500000000,6,0.5556945801,,,
53.2656250000,6,0.7592468262,,,
53.2812500000,6,0.8347473145,,,
53.2968750000,6,0.7462615967,,,
53.3125000000,6,0.5163422227,,,
53.3281250000,6,0.2048950046,,,
53.3437500000,6,-0.0849761963,,,
53.3593750000,6,-0.2776794136,,,
53.3750000000,6,-0.3574371040,,,
53.3906250000,6,-0.3645935059,,,
53.4062500000,6,-0.3705292046,,,
53.4218750000,6,-0.4327087104,,,
53.4375000000,6,-0.5483397841,,,
53.4531250000,6,-0.6635437012,,,
53.4687500000,6,-0.7128142715,,,
53.4843750000,6,-0.6515349746,,,
53.5000000000,6,-0.5022429824,,,
53.5156250000,6,-0.3219757080,,,
53.5312500000,6,-0.1775970012,,,
53.5468750000,6,-0.0931701735,,,
53.5625000000,6,-0.0417938195,,,
53.5781250000,6,0.0381622314,,,
53.5937500000,6,0.1982574016,,,
53.6093750000,6,0.4538573921,,,
53.6250000000,6,0.7618712783,,,
53.6406250000,6,1.0506440401,,,
53.6562500000,6,1.2499690056,,,
53.6718750000,6,1.3323210478,,,
53.6875000000,6,1.3189090490,,,
53.7031250000,6,1.2533869743,,,
53.7187500000,6,1.1767430305,,,
53.7343750000,6,1.1039429903,,,
53.7500000000,6,1.0129549503,,,
53.7656250000,6,0.8753510118,,,
53.7812500000,6,0.6713104248,,,
53.7968750000,6,0.4006805122,,,
53.8125000000,6,0.0996856689,,,
53.8281250000,6,-0.1878052056,,,
53.8437500000,6,-0.4115752876,,,
53.8593750000,6,-0.5539246202,,,
53.8750000000,6,-0.6149138808,,,
53.8906250000,6,-0.6291046143,,,
53.9062500000,6,-0.6271514893,,,
53.9218750000,6,-0.6582335830,,,
53.9375000000,6,-0.7318726182,,,
53.9531250000,6,-0.8422698975,,,
53.9687500000,6,-0.9590148926,,,
53.9843750000,6,-1.0428769588,,,
54.0000000000,6,-1.0688170195,,,
54.0156250000,6,-1.0354919434,,,
54.0312500000,6,-0.9421691895,,,
54.0468750000,6,-0.7749176025,,,
54.0625000000,6,-0.5114440918,,,
54.0781250000,6,-0.1490325928,,,
54.0937500000,6,0.2630920112,,,
54.1093750000,6,0.6111907959,,,
54.1250000000,6,0.7495880127,,,
54.1406250000,6,0.5858306885,,,
54.1562500000,6,0.1226807013,,,
54.1718750000,6,-0.5089417100,,,
54.1875000000,6,-1.1103669405,,,
54.2031250000,6,-1.5074460506,,,
54.2187500000,6,-1.6158289909,,,
54.2343750000,6,-1.4574739933,,,
54.2500000000,6,-1.1226040125,,,
54.2656250000,6,-0.7062531114,,,
54.2812500000,6,-0.2537078857,,,
54.2968750000,6,0.2186432034,,,
54.3125000000,6,0.7049102783,,,
54.3281250000,6,1.1682430506,,,
54.3437500000,6,1.5261540413,,,
54.3593750000,6,1.6843260527,,,
54.3750000000,6,1.5797120333,,,
54.3906250000,6,1.2333370447,,,
54.4062500000,6,0.7556151748,,,
54.4218750000,6,0.3144836128,,,
54.4375000000,6,0.0612335205,,,
54.4531250000,6,0.0705413818,,,
54.4687500000,6,0.3024444878,,,
54.4843750000,6,0.6204987168,,,
54.5000000000,6,0.8507689834,,,
54.5156250000,6,0.8457031250,,,
54.5312500000,6,0.5547028184,,,
54.5468750000,6,0.0259857196,,,
54.5625000000,6,-0.6119843125,,,
54.5781250000,6,-1.1960599422,,,
54.5937500000,6,-1.6020200253,,,
54.6093750000,6,-1.7622829676,,,
54.6250000000,6,-1.6893010139,,,
54.6406250000,6,-1.4336400032,,,
54.6562500000,6,-1.0605469942,,,
54.6718750000,6,-0.6312561035,,,
54.6875000000,6,-0.1948547065,,,
54.7031250000,6,0.1941833049,,,
54.7187500000,6,0.4795837104,,,
54.7343750000,6,0.6196746826,,,
54.7500000000,6,0.6146392822,,,
54.7656250000,6,0.5145416260,,,
54.7812500000,6,0.4371795952,,,
54.7968750000,6,0.4835815132,,,
54.8125000000,6,0.6849517822,,,
54.8281250000,6,0.9761046767,,,
54.8437500000,6,1.2084200382,,,
54.8593750000,6,1.2366640568,,,
54.8750000000,6,1.0104520321,,,
54.8906250000,6,0.6123657227,,,
54.9062500000,6,0.2023925930,,,
54.9218750000,6,-0.0594329797,,,
54.9375000000,6,-0.1120453030,,,
54.9531250000,6,-0.0129699698,,,
54.9687500000,6,0.0998382568,,,
54.9843750000,6,0.1060333028,,,
55.0000000000,6,-0.0312194806,,,
55.0156250000,6,-0.2521057129,,,
55.0312500000,6,-0.4353637993,,,
55.0468750000,6,-0.4771575928,,,
55.0625000000,6,-0.3449859917,,,
55.0781250000,6,-0.0955658033,,,
55.0937500000,6,0.1478728950,,,
55.1093750000,6,0.2769927979,,,
55.1250000000,6,0.2309418023,,,
55.1406250000,6,0.0234527607,,,
55.1562500000,6,-0.2808989882,,,
55.1718750000,6,-0.6064605713,,,
55.1875000000,6,-0.8833159804,,,
55.2031250000,6,-1.0592650175,,,
55.2187500000,6,-1.1168210506,,,
55.2343750000,6,-1.0594019890,,,
55.2500000000,6,-0.9259796143,,,
55.2656250000,6,-0.7797393799,,,
55.2812500000,6,-0.6871489882,,,
55.2968750000,6,-0.6934967041,,,
55.3125000000,6,-0.7892150879,,,
55.3281250000,6,-0.9125670791,,,
55.3437500000,6,-0.9660491943,,,
55.3593750000,6,-0.8730773926,,,
55.3750000000,6,-0.6026610732,,,
55.3906250000,6,-0.2055968940,,,
55.4062500000,6,0.2148894966,,,
55.4218750000,6,0.5323944092,,,
55.4375000000,6,0.6588897705,,,
55.4531250000,6,0.5806121826,,,
55.4687500000,6,0.3525848091,,,
55.4843750000,6,0.0678863525,,,
55.5000000000,6,-0.1806641072,,,
55.5156250000,6,-0.3320159912,,,
55.5312500000,6,-0.3772278130,,,
55.5468750000,6,-0.3464354873,,,
55.5625000000,6,-0.2884674072,,,
55.5781250000,6,-0.2456512004,,,
55.5937500000,6,-0.2403258979,,,
55.6093750000,6,-0.2806853950,,,
55.6250000000,6,-0.3803252876,,,
55.6406250000,6,-0.5380554199,,,
55.6562500000,6,-0.7509155273,,,
55.6718750000,6,-0.9920654297,,,
55.6875000000,6,-1.2245789766,,,
55.7031250000,6,-1.3791199923,,,
55.7187500000,6,-1.4015660286,,,
55.7343750000,6,-1.2449949980,,,
55.7500000000,6,-0.9043579102,,,
55.7656250000,6,-0.4197387993,,,
55.7812500000,6,0.1303101033,,,
55.7968750000,6,0.6380004883,,,
55.8125000000,6,1.0032199621,,,
55.8281250000,6,1.1647340059,,,
55.8437500000,6,1.1138149500,,,
55.8593750000,6,0.9061737061,,,
55.8750000000,6,0.6284027100,,,
55.8906250000,6,0.3703612983,,,
55.9062500000,6,0.1334839016,,,
55.9218750000,6,0.1467590034,,,
55.9375000000,6,0.1844788045,,,
55.9531250000,6,0.1992949992,,,
55.9687500000,6,0.1674651951,,,
55.9843750000,6,0.1068115011,,,
56.0000000000,7,0.0691680908,,,
56.0156250000,7,0.1106109992,,,
56.0312500000,7,0.2753753960,,,
56.0468750000,7,0.5660095215,,,
56.0625000000,7,0.9280089736,,,
56.0781250000,7,1.2668000460,,,
56.0937500000,7,1.4928890467,,,
56.1093750000,7,1.5415190458,,,
56.1250000000,7,1.4160159826,,,
56.1406250000,7,1.1789859533,,,
56.1562500000,7,0.9241942763,,,
56.1718750000,7,0.7238311768,,,
56.1875000000,7,0.6227570176,,,
56.2031250000,7,0.5997620225,,,
56.2187500000,7,0.6070557237,,,
