Time:64Hz,Epoch,Channel 1,Event Id,Event Date,Event Duration
0.0000000000,0,-3.2683720589,,,
0.0156250000,0,-6.8762211800,,,
0.0312500000,0,-9.3400878906,,,
0.0468750000,0,-10.4324998856,,,
0.0625000000,0,-10.3015699387,,,
0.0781250000,0,-9.3323364258,,,
0.0937500000,0,-7.9690551758,,,
0.1093750000,0,-6.5377202034,,,
0.1250000000,0,-5.2384028435,,,
0.1406250000,0,-4.1706538200,,,
0.1562500000,0,-3.3920900822,,,
0.1718750000,0,-2.9555659294,,,
0.1875000000,0,-2.8805539608,,,
0.2031250000,0,-3.0955200195,,,
0.2187500000,0,-3.4439089298,,,
0.2343750000,0,-3.7214360237,,,
0.2500000000,0,-3.7687380314,,,
0.2656250000,0,-3.5299680233,,,
0.2812500000,0,-3.0775759220,,,
0.2968750000,0,-2.5581049919,,,
0.3125000000,0,-2.1505739689,,,
0.3281250000,0,-1.9629520178,,,
0.3437500000,0,-2.0151369572,,,
0.3593750000,0,-2.2207639217,,,
0.3750000000,0,-2.4219360352,,,
0.3906250000,0,-2.4569699764,,,
0.4062500000,0,-2.2266850471,,,
0.4218750000,0,-1.7453000546,,,
0.4375000000,0,-1.1113280058,,,
0.4531250000,0,-0.4721069038,,,
0.4687500000,0,0.0443115197,,,
0.4843750000,0,0.3818359077,,,
0.5000000000,0,0.5394896865,,,
0.5156250000,0,0.5677490234,,,
0.5312500000,0,0.5243530273,,,
0.5468750000,0,0.4500732124,,,
0.5625000000,0,0.3692626953,,,
0.5781250000,0,0.2672119141,,,
0.5937500000,0,0.0936889574,,,
0.6093750000,0,-0.2099608928,,,
0.6250000000,0,-0.6770629883,,,
0.6406250000,0,-1.2766720057,,,
0.6562500000,0,-1.8738399744,,,
0.6718750000,0,-2.2911379337,,,
0.6875000000,0,-2.3875119686,,,
0.7031250000,0,-2.1404418945,,,
0.7187500000,0,-1.6658329964,,,
0.7343750000,0,-1.1635739803,,,
0.7500000000,0,-0.8023071289,,,
0.7656250000,0,-0.6491088867,,,
0.7812500000,0,-0.6709594727,,,
0.7968750000,0,-0.7760009766,,,
0.8125000000,0,-0.9227294922,,,
0.8281250000,0,-1.1205439568,,,
0.8437500000,0,-1.3929439783,,,
0.8593750000,0,-1.7258299589,,,
0.8750000000,0,-2.0350339413,,,
0.8906250000,0,-2.2049560547,,,
0.9062500000,0,-2.1677858829,,,
0.9218750000,0,-1.9492800236,,,
0.9375000000,0,-1.6342769861,,,
0.9531250000,0,-1.3156130314,,,
0.9687500000,0,-1.0414429903,,,
0.9843750000,0,-0.7935181260,,,
1.0000000000,0,-0.5440673828,,,
1.0156250000,0,-0.2664184868,,,
1.0312500000,0,0.0371704102,,,
1.0468750000,0,0.3833617866,,,
1.0625000000,0,0.7966309190,,,
1.0781250000,0,1.3078000546,,,
1.0937500000,0,1.8872679472,,,
1.1093750000,0,2.4117429256,,,
1.1250000000,0,2.7023320198,,,
1.1406250000,0,2.5902099609,,,
1.1562500000,0,2.0488889217,,,
1.1718750000,0,1.2250369787,,,
1.1875000000,0,0.4007568061,,,
1.2031250000,0,-0.1471558064,,,
1.2187500000,0,-0.2579956055,,,
1.2343750000,0,0.0285034198,,,
1.2500000000,0,0.5442504883,,,
1.2656250000,0,1.0840450525,,,
1.2812500000,0,1.4954220057,,,
1.2968750000,0,1.7315670252,,,
1.3125000000,0,1.8307499886,,,
1.3281250000,0,1.8439940214,,,
1.3437500000,0,1.8065190315,,,
1.3593750000,0,1.6934809685,,,
1.3750000000,0,1.4672850370,,,
1.3906250000,0,1.0929570198,,,
1.4062500000,0,0.5839843750,,,
1.4218750000,0,0.0112304697,,,
1.4375000000,0,-0.5171508789,,,
1.4531250000,0,-0.8988646865,,,
1.4687500000,0,-1.0915529728,,,
1.4843750000,0,-1.1301269531,,,
1.5000000000,0,-1.1173709631,,,
1.5156250000,0,-1.1447139978,,,
1.5312500000,0,-1.2445069551,,,
1.5468750000,0,-1.3596800566,,,
1.5625000000,0,-1.3945310116,,,
1.5781250000,0,-1.2825319767,,,
1.5937500000,0,-1.0357669592,,,
1.6093750000,0,-0.7435913086,,,
1.6250000000,0,-0.5088500977,,,
1.6406250000,0,-0.3829346001,,,
1.6562500000,0,-0.3230591118,,,
1.6718750000,0,-0.2365722954,,,
1.6875000000,0,-0.0597534217,,,
1.7031250000,0,0.1931152046,,,
1.7187500000,0,0.4188843071,,,
1.7343750000,0,0.4968262017,,,
1.7500000000,0,0.3600463867,,,
1.7656250000,0,0.0557251014,,,
1.7812500000,0,-0.2857055962,,,
1.7968750000,0,-0.5287476182,,,
1.8125000000,0,-0.6256104112,,,
1.8281250000,0,-0.6398314834,,,
1.8437500000,0,-0.7003784180,,,
1.8593750000,0,-0.9118651748,,,
1.8750000000,0,-1.2490839958,,,
1.8906250000,0,-1.5648800135,,,
1.9062500000,0,-1.6408079863,,,
1.9218750000,0,-1.3369749784,,,
1.9375000000,0,-0.6616821289,,,
1.9531250000,0,0.2037353963,,,
1.9687500000,0,1.0124510527,,,
1.9843750000,0,1.5749510527,,,
2.0000000000,0,1.8573000431,,,
2.0156250000,0,1.9716190100,,,
2.0312500000,0,2.1010129452,,,
2.0468750000,0,2.3791499138,,,
2.0625000000,0,2.8363039494,,,
2.0781250000,0,3.4202880859,,,
2.0937500000,0,4.0559692383,,,
2.1093750000,0,4.7100830078,,,
2.1250000000,0,5.3952031136,,,
2.1406250000,0,6.0977778435,,,
2.1562500000,0,6.7192988396,,,
2.1718750000,0,7.0588378906,,,
2.1875000000,0,6.8757319450,,,
2.2031250000,0,5.9995121956,,,
2.2187500000,0,4.4219970703,,,
2.2343750000,0,2.3575439453,,,
2.2500000000,0,0.1514893025,,,
2.2656250000,0,-1.8334959745,,,
2.2812500000,0,-3.3679809570,,,
2.2968750000,0,-4.3944702148,,,
2.3125000000,0,-5.0281372070,,,
2.3281250000,0,-5.4302368164,,,
2.3437500000,0,-5.7142939568,,,
2.3593750000,0,-5.8821411133,,,
2.3750000000,0,-5.8457031250,,,
2.3906250000,0,-5.5222167969,,,
2.4062500000,0,-4.8818969727,,,
2.4218750000,0,-3.9947509766,,,
2.4375000000,0,-2.9840090275,,,
2.4531250000,0,-1.9605710506,,,
2.4687500000,0,-0.9723510742,,,
2.4843750000,0,0.0097045898,,,
2.5000000000,0,1.0686039925,,,
2.5156250000,0,2.2831420898,,,
2.5312500000,0,3.7163090706,,,
2.5468750000,0,5.3738398552,,,
2.5625000000,0,7.1528930664,,,
2.5781250000,0,8.8441772461,,,
2.5937500000,0,10.1299400330,,,
2.6093750000,0,10.6652202606,,,
2.6250000000,0,10.2122802734,,,
2.6406250000,0,8.7501831055,,,
2.6562500000,0,6.5148930550,,,
2.6718750000,0,3.9306640625,,,
2.6875000000,0,1.4709470272,,,
2.7031250000,0,-0.4949341118,,,
2.7187500000,0,-1.8123170137,,,
2.7343750000,0,-2.5172729492,,,
2.7500000000,0,-2.7668459415,,,
2.7656250000,0,-2.7362670898,,,
2.7812500000,0,-2.5664670467,,,
2.7968750000,0,-2.3637080193,,,
2.8125000000,0,-2.2083740234,,,
2.8281250000,0,-2.1722409725,,,
2.8437500000,0,-2.3000490665,,,
2.8593750000,0,-2.5593259335,,,
2.8750000000,0,-2.8417971134,,,
2.8906250000,0,-3.0001831055,,,
2.9062500000,0,-2.8898320198,,,
2.9218750000,0,-2.4574580193,,,
2.9375000000,0,-1.7765500546,,,
2.9531250000,0,-1.0021359921,,,
2.9687500000,0,-0.3331299126,,,
2.9843750000,0,0.0930175781,,,
3.0000000000,0,0.2533569038,,,
3.0156250000,0,0.2274170071,,,
3.0312500000,0,0.1286011040,,,
3.0468750000,0,0.0642089769,,,
3.0625000000,0,0.0784912109,,,
3.0781250000,0,0.1759033054,,,
3.0937500000,0,0.3327026069,,,
3.1093750000,0,0.5097045898,,,
3.1250000000,0,0.6716918945,,,
3.1406250000,0,0.7500609756,,,
3.1562500000,0,0.6687011719,,,
3.1718750000,0,0.3846436143,,,
3.1875000000,0,-0.0892944336,,,
3.2031250000,0,-0.6396483779,,,
3.2187500000,0,-1.1173100471,,,
3.2343750000,0,-1.3852540255,,,
3.2500000000,0,-1.4059449434,,,
3.2656250000,0,-1.2673339844,,,
3.2812500000,0,-1.1107180119,,,
3.2968750000,0,-1.0718380213,,,
3.3125000000,0,-1.1733399630,,,
3.3281250000,0,-1.3154300451,,,
3.3437500000,0,-1.3306269646,,,
3.3593750000,0,-1.1011350155,,,
3.3750000000,0,-0.6055908203,,,
3.3906250000,0,0.0158691406,,,
3.4062500000,0,0.5511475205,,,
3.4218750000,0,0.8190308213,,,
3.4375000000,0,0.7338256836,,,
3.4531250000,0,0.3591918945,,,
3.4687500000,0,-0.1535644978,,,
3.4843750000,0,-0.6469116211,,,
3.5000000000,0,-1.0191650391,,,
3.5156250000,0,-1.2416379452,,,
3.5312500000,0,-1.3414920568,,,
3.5468750000,0,-1.3779300451,,,
3.5625000000,0,-1.3822629452,,,
3.5781250000,0,-1.3714599609,,,
3.5937500000,0,-1.3466190100,,,
3.6093750000,0,-1.3165279627,,,
3.6250000000,0,-1.2791750431,,,
3.6406250000,0,-1.2516479492,,,
3.6562500000,0,-1.2684329748,,,
3.6718750000,0,-1.3533940315,,,
3.6875000000,0,-1.5302729607,,,
3.7031250000,0,-1.7730710506,,,
3.7187500000,0,-2.0183110237,,,
3.7343750000,0,-2.1770019531,,,
3.7500000000,0,-2.1580810547,,,
3.7656250000,0,-1.9313960075,,,
3.7812500000,0,-1.5317989588,,,
3.7968750000,0,-1.0626219511,,,
3.8125000000,0,-0.6442260742,,,
3.8281250000,0,-0.3807983100,,,
3.8437500000,0,-0.3088988960,,,
3.8593750000,0,-0.4151000977,,,
3.8750000000,0,-0.6008300781,,,
3.8906250000,0,-0.7439575195,,,
3.9062500000,0,-0.7320557237,,,
3.9218750000,0,-0.5072020888,,,
3.9375000000,0,-0.0980224609,,,
3.9531250000,0,0.3938598931,,,
3.9687500000,0,0.8592529297,,,
3.9843750000,0,1.2180789709,,,
4.0000000000,0,1.4616700411,,,
4.0156250000,0,1.6311039925,,,
4.0312500000,0,1.7682499886,,,
4.0468750000,0,1.8653559685,,,
4.0625000000,0,1.8715209961,,,
4.0781250000,0,1.7371829748,,,
4.0937500000,0,1.4711910486,,,
4.1093750000,0,1.1406250000,,,
4.1250000000,0,0.8655396104,,,
4.1406250000,0,0.7310181260,,,
4.1562500000,0,0.7380371094,,,
4.1718750000,0,0.8181763291,,,
4.1875000000,0,0.8713989258,,,
4.2031250000,0,0.8345336914,,,
4.2187500000,0,0.7139893174,,,
4.2343750000,0,0.5533447266,,,
4.2500000000,0,0.4121094048,,,
4.2656250000,0,0.3135375977,,,
4.2812500000,0,0.2604979873,,,
4.2968750000,0,0.2419434041,,,
4.3125000000,0,0.2587890923,,,
4.3281250000,0,0.3267211914,,,
4.3437500000,0,0.4441528022,,,
4.3593750000,0,0.5855712891,,,
4.3750000000,0,0.6983032227,,,
4.3906250000,0,0.7305297852,,,
4.4062500000,0,0.6409301758,,,
4.4218750000,0,0.4453735054,,,
4.4375000000,0,0.1771851033,,,
4.4531250000,0,-0.1294555962,,,
4.4687500000,0,-0.4473876953,,,
4.4843750000,0,-0.7573853135,,,
4.5000000000,0,-1.0289310217,,,
4.5156250000,0,-1.2142330408,,,
4.5312500000,0,-1.2747800350,,,
4.5468750000,0,-1.2083129883,,,
4.5625000000,0,-1.0668950081,,,
4.5781250000,0,-0.9296265244,,,
4.5937500000,0,-0.8492432237,,,
4.6093750000,0,-0.8179932237,,,
4.6250000000,0,-0.7749022841,,,
4.6406250000,0,-0.6615601182,,,
4.6562500000,0,-0.4718627930,,,
4.6718750000,0,-0.2800903022,,,
4.6875000000,0,-0.1862792969,,,
4.7031250000,0,-0.2619018853,,,
4.7187500000,0,-0.4749146104,,,
4.7343750000,0,-0.7059937119,,,
4.7500000000,0,-0.8071289063,,,
4.7656250000,0,-0.7196655273,,,
4.7812500000,0,-0.4936523139,,,
4.7968750000,0,-0.2736206055,,,
4.8125000000,0,-0.2070312947,,,
4.8281250000,0,-0.3352661133,,,
4.8437500000,0,-0.5855103135,,,
4.8593750000,0,-0.8127440810,,,
4.8750000000,0,-0.8973389268,,,
4.8906250000,0,-0.8006591797,,,
4.9062500000,0,-0.6088867188,,,
4.9218750000,0,-0.4279784858,,,
4.9375000000,0,-0.3334960938,,,
4.9531250000,0,-0.3128662109,,,
4.9687500000,0,-0.2869262993,,,
4.9843750000,0,-2.5157470703,,,
5.0000000000,0,-1.8894649744,,,
5.0156250000,0,-1.2716059685,,,
5.0312500000,0,-0.6064453125,,,
5.0468750000,0,0.2043457031,,,
5.0625000000,0,1.2369999886,,,
5.0781250000,0,2.4671020508,,,
5.0937500000,0,3.7777099609,,,
5.1093750000,0,4.9970698357,,,
5.1250000000,0,5.9421391487,,,
5.1406250000,0,6.5118408203,,,
5.1562500000,0,6.6907958984,,,
5.1718750000,0,6.5435180664,,,
5.1875000000,0,6.1397089958,,,
5.2031250000,0,5.5443120003,,,
5.2187500000,0,4.7836298943,,,
5.2343750000,0,3.8732299805,,,
5.2500000000,0,2.8464360237,,,
5.2656250000,0,1.7608640194,,,
5.2812500000,0,0.6933593750,,,
5.2968750000,0,-0.2810058892,,,
5.3125000000,0,-1.1209720373,,,
5.3281250000,0,-1.7869869471,,,
5.3437500000,0,-2.2346799374,,,
5.3593750000,0,-2.4224240780,,,
5.3750000000,0,-2.3148798943,,,
5.3906250000,0,-1.9441529512,,,
5.4062500000,0,-1.3880000114,,,
5.4218750000,0,-0.7754517198,,,
5.4375000000,0,-0.2188721001,,,
5.4531250000,0,0.2189331055,,,
5.4687500000,0,0.5418701172,,,
5.4843750000,0,0.8097534180,,,
5.5000000000,0,1.0939329863,,,
5.5156250000,0,1.4409179688,,,
5.5312500000,0,1.8468630314,,,
5.5468750000,0,2.2523190975,,,
5.5625000000,0,2.5687260628,,,
5.5781250000,0,2.7026369572,,,
5.5937500000,0,2.5950319767,,,
5.6093750000,0,2.2270510197,,,
5.6250000000,0,1.6367800236,,,
5.6406250000,0,0.8837891221,,,
5.6562500000,0,0.0427246094,,,
5.6718750000,0,-0.8198242188,,,
5.6875000000,0,-1.6245119572,,,
5.7031250000,0,-2.2917480469,,,
5.7187500000,0,-2.7425539494,,,
5.7343750000,0,-2.9269409180,,,
5.7500000000,0,-2.8458249569,,,
5.7656250000,0,-2.5710449219,,,
5.7812500000,0,-2.2149660587,,,
5.7968750000,0,-1.8919680119,,,
5.8125000000,0,-1.6853640079,,,
5.8281250000,0,-1.5933840275,,,
5.8437500000,0,-1.5455319881,,,
5.8593750000,0,-1.4301149845,,,
5.8750000000,0,-1.1385500431,,,
5.8906250000,0,-0.6490479112,,,
5.9062500000,0,-0.0145873995,,,
5.9218750000,0,0.6431273818,,,
5.9375000000,0,1.2011109591,,,
5.9531250000,0,1.5911870003,,,
5.9687500000,0,1.8084720373,,,
5.9843750000,0,1.8807369471,,,
6.0000000000,0,1.8236080408,,,
6.0156250000,0,1.6235959530,,,
6.0312500000,0,1.2402340174,,,
6.0468750000,0,0.6643065810,,,
6.0625000000,0,-0.0580444299,,,
6.0781250000,0,-0.8001708984,,,
6.0937500000,0,-1.4093019962,,,
6.1093750000,0,-1.7742919922,,,
6.1250000000,0,-1.8715820313,,,
6.1406250000,0,-1.7708740234,,,
6.1562500000,0,-1.5621340275,,,
6.1718750000,0,-1.3330080509,,,
6.1875000000,0,-1.1019289494,,,
6.2031250000,0,-0.8419188857,,,
6.2187500000,0,-0.5031127930,,,
6.2343750000,0,-0.0650024414,,,
6.2500000000,0,0.4536742866,,,
6.2656250000,0,0.9896240234,,,
6.2812500000,0,1.4855959415,,,
6.2968750000,0,1.8865970373,,,
6.3125000000,0,2.1885991096,,,
6.3281250000,0,2.4099729061,,,
6.3437500000,0,2.5627439022,,,
6.3593750000,0,2.6412351131,,,
6.3750000000,0,2.6356809139,,,
6.3906250000,0,2.5227050781,,,
6.4062500000,0,2.3062129021,,,
6.4218750000,0,2.0126340389,,,
6.4375000000,0,1.6701660156,,,
6.4531250000,0,1.3005369902,,,
6.4687500000,0,0.9069213867,,,
6.4843750000,0,0.4857788086,,,
6.5000000000,0,0.0373535194,,,
6.5156250000,0,-0.4243774116,,,
6.5312500000,0,-0.8735961914,,,
6.5468750000,0,-1.2815550566,,,
6.5625000000,0,-1.6224370003,,,
6.5781250000,0,-1.8790279627,,,
6.5937500000,0,-2.0455319881,,,
6.6093750000,0,-2.1252439022,,,
6.6250000000,0,-2.1447141171,,,
6.6406250000,0,-2.1420290470,,,
6.6562500000,0,-2.1334230900,,,
6.6718750000,0,-2.0979609489,,,
6.6875000000,0,-1.9631960392,,,
6.7031250000,0,-1.6538089514,,,
6.7187500000,0,-1.1394040585,,,
6.7343750000,0,-0.4609985054,,,
6.7500000000,0,0.2570190132,,,
6.7656250000,0,0.8658447266,,,
6.7812500000,0,1.2530519962,,,
6.7968750000,0,1.3841550350,,,
6.8125000000,0,1.3190310001,,,
6.8281250000,0,1.1811519861,,,
6.8437500000,0,1.1051640511,,,
6.8593750000,0,1.1690670252,,,
6.8750000000,0,1.3773800135,,,
6.8906250000,0,1.6426390409,,,
6.9062500000,0,1.8497309685,,,
6.9218750000,0,1.8833620548,,,
6.9375000000,0,1.6991579533,,,
6.9531250000,0,1.3063960075,,,
6.9687500000,0,0.7661132813,,,
6.9843750000,0,0.1519165039,,,
7.0000000000,0,-0.4627686143,,,
7.0156250000,0,-1.0297850370,,,
7.0312500000,0,-1.5020749569,,,
7.0468750000,0,-1.8314210176,,,
7.0625000000,0,-1.9705810547,,,
7.0781250000,0,-1.8972779512,,,
7.0937500000,0,-1.6305539608,,,
7.1093750000,0,-1.2197270393,,,
7.1250000000,0,-0.7384644151,,,
7.1406250000,0,-0.2266235054,,,
7.1562500000,0,0.3043822944,,,
7.1718750000,0,0.8634033203,,,
7.1875000000,0,1.4556269646,,,
7.2031250000,0,2.0390629768,,,
7.2187500000,0,2.4925539494,,,
7.2343750000,0,2.6810910702,,,
7.2500000000,0,2.4910280704,,,
7.2656250000,0,1.9078370333,,,
7.2812500000,0,1.0421140194,,,
7.2968750000,0,0.1098633036,,,
7.3125000000,0,-0.6647949219,,,
7.3281250000,0,-1.1204220057,,,
7.3437500000,0,-1.2152709961,,,
7.3593750000,0,-1.0083010197,,,
7.3750000000,0,-0.6110839844,,,
7.3906250000,0,-0.1339111030,,,
7.4062500000,0,0.3538818061,,,
7.4218750000,0,0.7866210938,,,
7.4375000000,0,1.0835570097,,,
7.4531250000,0,1.1599119902,,,
7.4687500000,0,0.9589232802,,,
7.4843750000,0,0.5014038086,,,
7.5000000000,0,-0.0793457031,,,
7.5156250000,0,-0.5880126953,,,
7.5312500000,0,-0.8383178711,,,
7.5468750000,0,-0.7493286133,,,
7.5625000000,0,-0.3446044922,,,
7.5781250000,0,0.2294311970,,,
7.5937500000,0,0.7877808213,,,
7.6093750000,0,1.1826169491,,,
7.6250000000,0,1.3161619902,,,
7.6406250000,0,1.1802370548,,,
7.6562500000,0,0.8500366211,,,
7.6718750000,0,0.4498291016,,,
7.6875000000,0,0.0994872972,,,
7.7031250000,0,-0.1192627028,,,
7.7187500000,0,-0.2033690959,,,
7.7343750000,0,-0.2023314983,,,
7.7500000000,0,-0.2059326023,,,
7.7656250000,0,-0.2903442085,,,
7.7812500000,0,-0.4676513970,,,
7.7968750000,0,-0.6795043945,,,
7.8125000000,0,-0.8359984756,,,
7.8281250000,0,-0.8535156250,,,
7.8437500000,0,-0.7220458984,,,
7.8593750000,0,-0.5139160156,,,
7.8750000000,0,-0.3497925103,,,
7.8906250000,0,-0.3482666016,,,
7.9062500000,0,-0.5379027724,,,
7.9218750000,0,-0.8222656250,,,
7.9375000000,0,-1.0432740450,,,
7.9531250000,0,-1.0450439453,,,
7.9687500000,0,-0.7872924805,,,
7.9843750000,0,-0.3773193061,,,
8.0000000000,1,-0.0314941406,,,
8.0156250000,1,0.0447998010,,,
8.0312500000,1,-0.2115478963,,,
8.0468750000,1,-0.7153931260,,,
8.0625000000,1,-1.2507929802,,,
8.0781250000,1,-1.6421509981,,,
8.0937500000,1,-1.8134770393,,,
8.1093750000,1,-1.8103029728,,,
8.1250000000,1,-1.7314449549,,,
8.1406250000,1,-1.6549069881,,,
8.1562500000,1,-1.5762939453,,,
8.1718750000,1,-1.4445799589,,,
8.1875000000,1,-1.2146610022,,,
8.2031250000,1,-0.9051514268,,,
8.2187500000,1,-0.5882567763,,,
8.2343750000,1,-0.3502196968,,,
8.2500000000,1,-0.2331542969,,,
8.2656250000,1,-0.2364501953,,,
8.2812500000,1,-0.3196411133,,,
8.2968750000,1,-0.4560546875,,,
8.3125000000,1,-0.6392211914,,,
8.3281250000,1,-0.8885498047,,,
8.3437500000,1,-1.1941529512,,,
8.3593750000,1,-1.5127559900,,,
8.3750000000,1,-1.7519530058,,,
8.3906250000,1,-1.8197020292,,,
8.4062500000,1,-1.6529539824,,,
8.4218750000,1,-1.2496949434,,,
8.4375000000,1,-0.6560059190,,,
8.4531250000,1,0.0467529297,,,
8.4687500000,1,0.7648925781,,,
8.4843750000,1,1.4459840059,,,
8.5000000000,1,2.0610959530,,,
8.5156250000,1,2.5848999023,,,
8.5312500000,1,2.9718630314,,,
8.5468750000,1,3.1536250114,,,
8.5625000000,1,3.0784909725,,,
8.5781250000,1,2.7561650276,,,
8.5937500000,1,2.2822880745,,,
8.6093750000,1,1.8087160587,,,
8.6250000000,1,1.4795529842,,,
8.6406250000,1,1.3333740234,,,
8.6562500000,1,1.2949219942,,,
8.6718750000,1,1.2105100155,,,
8.6875000000,1,0.9594116211,,,
8.7031250000,1,0.5225219727,,,
8.7187500000,1,0.0002441406,,,
8.7343750000,1,-0.4420776069,,,
8.7500000000,1,-0.6788939834,,,
8.7656250000,1,-0.6999511719,,,
8.7812500000,1,-0.6116333008,,,
8.7968750000,1,-0.5770264268,,,
8.8125000000,1,-0.7137451172,,,
8.8281250000,1,-1.0398559570,,,
8.8437500000,1,-1.4530030489,,,
8.8593750000,1,-1.7999269962,,,
8.8750000000,1,-1.9475710392,,,
8.8906250000,1,-1.8660889864,,,
8.9062500000,1,-1.6199949980,,,
8.9218750000,1,-1.3444210291,,,
8.9375000000,1,-1.1481930017,,,
8.9531250000,1,-1.0508420467,,,
8.9687500000,1,-0.9959716797,,,
8.9843750000,1,-0.8994750977,,,
9.0000000000,1,-0.7171021104,,,
9.0156250000,1,-0.4871216118,,,
9.0312500000,1,-0.3161011040,,,
9.0468750000,1,-0.3147583008,,,
9.0625000000,1,-0.5235595703,,,
9.0781250000,1,-0.8740233779,,,
9.0937500000,1,-1.2325439453,,,
9.1093750000,1,-1.4586180449,,,
9.1250000000,1,-1.4710689783,,,
9.1406250000,1,-1.2788089514,,,
9.1562500000,1,-0.9618530273,,,
9.1718750000,1,-0.6197509766,,,
9.1875000000,1,-0.2974854112,,,
9.2031250000,1,0.0032348630,,,
9.2187500000,1,0.3314819038,,,
9.2343750000,1,0.7409667969,,,
9.2500000000,1,1.2298580408,,,
9.2656250000,1,1.7376710176,,,
9.2812500000,1,2.1652219296,,,
9.2968750000,1,2.4308469296,,,
9.3125000000,1,2.4920649529,,,
9.3281250000,1,2.3589479923,,,
9.3437500000,1,2.0760500431,,,
9.3593750000,1,1.6742550135,,,
9.3750000000,1,1.1725460291,,,
9.3906250000,1,0.5689697266,,,
9.4062500000,1,-0.1196288988,,,
9.4218750000,1,-0.8364868164,,,
9.4375000000,1,-1.4834589958,,,
9.4531250000,1,-1.9411619902,,,
9.4687500000,1,-2.0994870663,,,
9.4843750000,1,-1.9445799589,,,
9.5000000000,1,-1.5501710176,,,
9.5156250000,1,-1.0677490234,,,
9.5312500000,1,-0.6655883789,,,
9.5468750000,1,-0.4574584961,,,
9.5625000000,1,-0.4471436143,,,
9.5781250000,1,-0.5410156250,,,
9.5937500000,1,-0.5897827148,,,
9.6093750000,1,-0.4699707031,,,
9.6250000000,1,-0.1367798001,,,
9.6406250000,1,0.3544312119,,,
9.6562500000,1,0.8741455078,,,
9.6718750000,1,1.2719119787,,,
9.6875000000,1,1.4448239803,,,
9.7031250000,1,1.3374630213,,,
9.7187500000,1,0.9739379883,,,
9.7343750000,1,0.4550780952,,,
9.7500000000,1,-0.0700073168,,,
9.7656250000,1,-0.4373778999,,,
9.7812500000,1,-0.5330811143,,,
9.7968750000,1,-0.3416748047,,,
9.8125000000,1,0.0534057617,,,
9.8281250000,1,0.5076904297,,,
9.8437500000,1,0.8884276748,,,
9.8593750000,1,1.1155400276,,,
9.8750000000,1,1.1824949980,,,
9.8906250000,1,1.1259160042,,,
9.9062500000,1,0.9849854112,,,
9.9218750000,1,0.7917479873,,,
9.9375000000,1,0.5743408203,,,
9.9531250000,1,0.3541260064,,,
9.9687500000,1,0.1810303032,,,
9.9843750000,1,0.1186522990,,,
10.0000000000,1,0.2110596001,,,
10.0156250000,1,0.4774169922,,,
10.0312500000,1,0.8724365234,,,
10.0468750000,1,1.3030400276,,,
10.0625000000,1,1.6557010412,,,
10.0781250000,1,1.8340450525,,,
10.0937500000,1,1.7923580408,,,
10.1093750000,1,1.5571290255,,,
10.1250000000,1,1.2086180449,,,
10.1406250000,1,0.8568115234,,,
10.1562500000,1,0.5823364258,,,
10.1718750000,1,0.4160155952,,,
10.1875000000,1,0.3418579102,,,
10.2031250000,1,0.3265380859,,,
10.2187500000,1,0.3520508111,,,
10.2343750000,1,0.4255371094,,,
10.2500000000,1,0.5546875000,,,
10.2656250000,1,0.7127686143,,,
10.2812500000,1,0.8295897841,,,
10.2968750000,1,0.8008422852,,,
10.3125000000,1,0.5540770888,,,
10.3281250000,1,0.0764160231,,,
10.3437500000,1,-0.5676879883,,,
10.3593750000,1,-1.2703249454,,,
10.3750000000,1,-1.9147950411,,,
10.3906250000,1,-2.4138178825,,,
10.4062500000,1,-2.7409670353,,,
10.4218750000,1,-2.9015500546,,,
10.4375000000,1,-2.9398190975,,,
10.4531250000,1,-2.8872070313,,,
10.4687500000,1,-2.7739260197,,,
10.4843750000,1,-2.6120610237,,,
10.5000000000,1,-2.4047238827,,,
10.5156250000,1,-2.1406860352,,,
10.5312500000,1,-1.8114620447,,,
10.5468750000,1,-1.4108890295,,,
10.5625000000,1,-0.9471436143,,,
10.5781250000,1,-0.4218750000,,,
10.5937500000,1,0.1333618015,,,
10.6093750000,1,0.6973267198,,,
10.6250000000,1,1.2272950411,,,
10.6406250000,1,1.6808470488,,,
10.6562500000,1,2.0067141056,,,
10.6718750000,1,2.1724851131,,,
10.6875000000,1,2.1787109375,,,
10.7031250000,1,2.0700678825,,,
10.7187500000,1,1.9209589958,,,
10.7343750000,1,1.7989499569,,,
10.7500000000,1,1.7300419807,,,
10.7656250000,1,1.6763919592,,,
10.7812500000,1,1.5576779842,,,
10.7968750000,1,1.2906490564,,,
10.8125000000,1,0.8538208008,,,
10.8281250000,1,0.3000487983,,,
10.8437500000,1,-0.2607421875,,,
10.8593750000,1,-0.7105103135,,,
10.8750000000,1,-0.9730225205,,,
10.8906250000,1,-1.0434570313,,,
10.9062500000,1,-0.9698485732,,,
10.9218750000,1,-0.8056030273,,,
10.9375000000,1,-0.6135253906,,,
10.9531250000,1,-0.4299927056,,,
10.9687500000,1,-0.2869262993,,,
10.9843750000,1,-0.2372436970,,,
11.0000000000,1,-0.3201293945,,,
11.0156250000,1,-0.5405883789,,,
11.0312500000,1,-0.8319091797,,,
11.0468750000,1,-1.0683590174,,,
11.0625000000,1,-1.0991820097,,,
11.0781250000,1,-0.8266602159,,,
11.0937500000,1,-0.2747803032,,,
11.1093750000,1,0.3953857124,,,
11.1250000000,1,0.9608154297,,,
11.1406250000,1,1.2238160372,,,
11.1562500000,1,1.0981450081,,,
11.1718750000,1,0.6489868164,,,
11.1875000000,1,0.0471191406,,,
11.2031250000,1,-0.5051879883,,,
11.2187500000,1,-0.8739624023,,,
11.2343750000,1,-1.0218509436,,,
11.2500000000,1,-0.9903563857,,,
11.2656250000,1,-0.8496704102,,,
11.2812500000,1,-0.6485595703,,,
11.2968750000,1,-0.3905028999,,,
11.3125000000,1,-0.0751342773,,,
11.3281250000,1,0.2723999023,,,
11.3437500000,1,0.5735474229,,,
11.3593750000,1,0.7243041992,,,
11.3750000000,1,0.6661986709,,,
11.3906250000,1,0.4027709961,,,
11.4062500000,1,0.0077514648,,,
11.4218750000,1,-0.4049682915,,,
11.4375000000,1,-0.7291870117,,,
11.4531250000,1,-0.9041138291,,,
11.4687500000,1,-0.8926392198,,,
11.4843750000,1,-0.7052001953,,,
11.5000000000,1,-0.3640137017,,,
11.5156250000,1,0.0861816406,,,
11.5312500000,1,0.5915526748,,,
11.5468750000,1,1.0640259981,,,
11.5625000000,1,1.4047240019,,,
11.5781250000,1,1.5274050236,,,
11.5937500000,1,1.3991090059,,,
11.6093750000,1,1.0482790470,,,
11.6250000000,1,0.5687866211,,,
11.6406250000,1,0.0908813477,,,
11.6562500000,1,-0.2433471978,,,
11.6718750000,1,-0.3519896865,,,
11.6875000000,1,-0.2174071968,,,
11.7031250000,1,0.0783691406,,,
11.7187500000,1,0.3768311143,,,
11.7343750000,1,0.4804688096,,,
11.7500000000,1,0.2489624023,,,
11.7656250000,1,-0.3375853896,,,
11.7812500000,1,-1.1451419592,,,
11.7968750000,1,-1.9241329432,,,
11.8125000000,1,-2.4299929142,,,
11.8281250000,1,-2.5168459415,,,
11.8437500000,1,-2.2150878906,,,
11.8593750000,1,-1.7102659941,,,
11.8750000000,1,-1.2258299589,,,
11.8906250000,1,-0.9046630859,,,
11.9062500000,1,-0.7556151748,,,
11.9218750000,1,-0.6554564834,,,
11.9375000000,1,-0.4564208984,,,
11.9531250000,1,-0.0947875977,,,
11.9687500000,1,0.3631592095,,,
11.9843750000,1,0.7468261719,,,
12.0000000000,1,0.8816527724,,,
12.0156250000,1,0.6846923828,,,
12.0312500000,1,0.2290039063,,,
12.0468750000,1,-0.2882080078,,,
12.0625000000,1,-0.6476439834,,,
12.0781250000,1,-0.7222290039,,,
12.0937500000,1,-0.5294799805,,,
12.1093750000,1,-0.2214965969,,,
12.1250000000,1,0.0085449219,,,
12.1406250000,1,0.0366821289,,,
12.1562500000,1,-0.1320189983,,,
12.1718750000,1,-0.3796997070,,,
12.1875000000,1,-0.5417479873,,,
12.2031250000,1,-0.5189818740,,,
12.2187500000,1,-0.3068847954,,,
12.2343750000,1,0.0167236291,,,
12.2500000000,1,0.3552246094,,,
12.2656250000,1,0.6358032227,,,
12.2812500000,1,0.8347777724,,,
12.2968750000,1,0.9404907227,,,
12.3125000000,1,0.9502562881,,,
12.3281250000,1,0.8496704102,,,
12.3437500000,1,0.4028320014,,,
12.3593750000,1,-0.0016479490,,,
12.3750000000,1,-0.3676146865,,,
12.3906250000,1,-0.4709472954,,,
12.4062500000,1,-0.1975708008,,,
12.4218750000,1,0.3953247070,,,
12.4375000000,1,1.0944210291,,,
12.4531250000,1,1.6211550236,,,
12.4687500000,1,1.7825319767,,,
12.4843750000,1,1.5321660042,,,
12.5000000000,1,0.9854125977,,,
12.5156250000,1,0.3388062119,,,
12.5312500000,1,-0.2164306939,,,
12.5468750000,1,-0.5685424805,,,
12.5625000000,1,-0.6846312881,,,
12.5781250000,1,-0.5951538086,,,
12.5937500000,1,-0.3646850884,,,
12.6093750000,1,-0.0887451172,,,
12.6250000000,1,0.1270142049,,,
12.6406250000,1,0.2023925930,,,
12.6562500000,1,0.1067505032,,,
12.6718750000,1,-0.1072997972,,,
12.6875000000,1,-0.3185425103,,,
12.7031250000,1,-0.4147338867,,,
12.7187500000,1,-0.3425903022,,,
12.7343750000,1,-0.1649170071,,,
12.7500000000,1,-0.0241699200,,,
12.7656250000,1,-0.0629882813,,,
12.7812500000,1,-0.3300170898,,,
12.7968750000,1,-0.7504882813,,,
12.8125000000,1,-1.1697390079,,,
12.8281250000,1,-1.4365229607,,,
12.8437500000,1,-1.4862060547,,,
12.8593750000,1,-1.3468019962,,,
12.8750000000,1,-1.0995479822,,,
12.8906250000,1,-0.8034667969,,,
12.9062500000,1,-0.4736328125,,,
12.9218750000,1,-0.0852050781,,,
12.9375000000,1,0.3799437881,,,
12.9531250000,1,0.8746948242,,,
12.9687500000,1,1.2986450195,,,
12.9843750000,1,1.5552979708,,,
13.0000000000,1,1.6035770178,,,
13.0156250000,1,1.4788819551,,,
13.0312500000,1,1.2822879553,,,
13.0468750000,1,1.1027220488,,,
13.0625000000,1,0.9714354873,,,
13.0781250000,1,0.8578491211,,,
13.0937500000,1,0.7235106826,,,
13.1093750000,1,0.5440673828,,,
13.1250000000,1,0.3399657905,,,
13.1406250000,1,0.1593627930,,,
13.1562500000,1,0.0321655311,,,
13.1718750000,1,-0.0286865197,,,
13.1875000000,1,-0.0421142615,,,
13.2031250000,1,-0.0536498986,,,
13.2187500000,1,-0.0981445313,,,
13.2343750000,1,-0.1962279975,,,
13.2500000000,1,-0.3239136040,,,
13.2656250000,1,-0.4343262017,,,
13.2812500000,1,-0.4479979873,,,
13.2968750000,1,-0.3097533882,,,
13.3125000000,1,-0.0108642597,,,
13.3281250000,1,0.3950195014,,,
13.3437500000,1,0.7948607802,,,
13.3593750000,1,1.0545040369,,,
13.3750000000,1,1.0771479607,,,
13.3906250000,1,0.8557739258,,,
13.4062500000,1,0.4645386040,,,
13.4218750000,1,0.0303955097,,,
13.4375000000,1,-0.3233031929,,,
13.4531250000,1,-0.5260620117,,,
13.4687500000,1,-0.5788574219,,,
13.4843750000,1,-0.5186768174,,,
13.5000000000,1,-0.3878783882,,,
13.5156250000,1,-0.2200316936,,,
13.5312500000,1,-0.0291137695,,,
13.5468750000,1,0.1627808064,,,
13.5625000000,1,0.3158569038,,,
13.5781250000,1,0.3622437119,,,
13.5937500000,1,0.2423096001,,,
13.6093750000,1,-0.0562133789,,,
13.6250000000,1,-0.4730834961,,,
13.6406250000,1,-0.8701171875,,,
13.6562500000,1,-1.0894169807,,,
13.6718750000,1,-1.0057369471,,,
13.6875000000,1,-0.6143798828,,,
13.7031250000,1,-0.0310668908,,,
13.7187500000,1,0.5399780273,,,
13.7343750000,1,0.9203491211,,,
13.7500000000,1,1.0252079964,,,
13.7656250000,1,0.9116821289,,,
13.7812500000,1,0.7324829102,,,
13.7968750000,1,0.6435546875,,,
13.8125000000,1,0.7028809190,,,
13.8281250000,1,0.8308104873,,,
13.8437500000,1,0.8683472276,,,
13.8593750000,1,0.6885375977,,,
13.8750000000,1,0.2820434868,,,
13.8906250000,1,-0.2179564983,,,
13.9062500000,1,-0.6279296875,,,
13.9218750000,1,-0.8281859756,,,
13.9375000000,1,-0.8291016221,,,
13.9531250000,1,-0.7444458008,,,
13.9687500000,1,-0.7066649795,,,
13.9843750000,1,-0.7684937119,,,
14.0000000000,1,-0.8889160156,,,
14.0156250000,1,-0.9816284180,,,
14.0312500000,1,-0.9899901748,,,
14.0468750000,1,-0.9299926758,,,
14.0625000000,1,-0.8698729873,,,
14.0781250000,1,-0.8619995117,,,
14.0937500000,1,-0.8975219727,,,
14.1093750000,1,-0.9118041992,,,
14.1250000000,1,-0.8331298828,,,
14.1406250000,1,-0.6406250000,,,
14.1562500000,1,-0.3792113960,,,
14.1718750000,1,-0.1179810017,,,
14.1875000000,1,0.0936889574,,,
14.2031250000,1,0.2584838867,,,
14.2187500000,1,0.3843994141,,,
14.2343750000,1,0.4824829102,,,
14.2500000000,1,0.5120239258,,,
14.2656250000,1,0.4316405952,,,
14.2812500000,1,0.2333983928,,,
14.2968750000,1,-0.0398559608,,,
14.3125000000,1,-0.3034667969,,,
14.3281250000,1,-0.4771117866,,,
14.3437500000,1,-0.5385742188,,,
14.3593750000,1,-0.5270996094,,,
14.3750000000,1,-0.5280761719,,,
14.3906250000,1,-0.6117553711,,,
14.4062500000,1,-0.7861937881,,,
14.4218750000,1,-1.0081180334,,,
14.4375000000,1,-1.1990970373,,,
14.4531250000,1,-1.3019410372,,,
14.4687500000,1,-1.3256839514,,,
14.4843750000,1,-1.3283079863,,,
14.5000000000,1,-1.3822020292,,,
14.5156250000,1,-1.5060420036,,,
14.5312500000,1,-1.6549069881,,,
14.5468750000,1,-1.7377320528,,,
14.5625000000,1,-1.6717530489,,,
14.5781250000,1,-1.4474489689,,,
14.5937500000,1,-1.1191409826,,,
14.6093750000,1,-0.7998046875,,,
14.6250000000,1,-0.5845336914,,,
14.6406250000,1,-0.5032349229,,,
14.6562500000,1,-0.4960327148,,,
14.6718750000,1,-0.4586181939,,,
14.6875000000,1,-0.2951050103,,,
14.7031250000,1,0.0111694299,,,
14.7187500000,1,0.3900757134,,,
14.7343750000,1,0.7444458008,,,
14.7500000000,1,1.0009770393,,,
14.7656250000,1,1.1574709415,,,
14.7812500000,1,1.2498170137,,,
14.7968750000,1,1.3160400391,,,
14.8125000000,1,1.3541259766,,,
14.8281250000,1,1.3137819767,,,
14.8437500000,1,1.1423950195,,,
14.8593750000,1,0.8499146104,,,
14.8750000000,1,0.5115355849,,,
14.8906250000,1,0.2636719048,,,
14.9062500000,1,0.2411499023,,,
14.9218750000,1,0.5095825195,,,
14.9375000000,1,1.0338749886,,,
14.9531250000,1,1.6968990564,,,
14.9687500000,1,2.3311159611,,,
14.9843750000,1,2.7838749886,,,
15.0000000000,1,2.9500119686,,,
15.0156250000,1,2.7990720272,,,
15.0312500000,1,2.3759770393,,,
15.0468750000,1,1.8107299805,,,
15.0625000000,1,1.2700810432,,,
15.0781250000,1,0.8890380859,,,
15.0937500000,1,0.7315062881,,,
15.1093750000,1,0.7384033203,,,
15.1250000000,1,0.7839354873,,,
15.1406250000,1,0.7319335938,,,
15.1562500000,1,0.5170897841,,,
15.1718750000,1,0.1459960938,,,
15.1875000000,1,-0.3022460938,,,
15.2031250000,1,-0.7460327148,,,
15.2187500000,1,-1.1464840174,,,
15.2343750000,1,-1.4978029728,,,
15.2500000000,1,-1.8026119471,,,
15.2656250000,1,-2.0168459415,,,
15.2812500000,1,-2.0629270077,,,
15.2968750000,1,-1.8706669807,,,
15.3125000000,1,-1.4288330078,,,
15.3281250000,1,-0.8291625977,,,
15.3437500000,1,-0.2426757962,,,
15.3593750000,1,0.1672973931,,,
15.3750000000,1,0.3038940132,,,
15.3906250000,1,0.1717528999,,,
15.4062500000,1,-0.1346435994,,,
15.4218750000,1,-0.5002440810,,,
15.4375000000,1,-0.8437500000,,,
15.4531250000,1,-1.1257319450,,,
15.4687500000,1,-1.3378299475,,,
15.4843750000,1,-1.4711910486,,,
15.5000000000,1,-1.5245970488,,,
15.5156250000,1,-1.4883420467,,,
15.5312500000,1,-1.3853759766,,,
15.5468750000,1,-1.2484129667,,,
15.5625000000,1,-1.1182249784,,,
15.5781250000,1,-1.0099489689,,,
15.5937500000,1,-0.9150391221,,,
15.6093750000,1,-0.8059082031,,,
15.6250000000,1,-0.6836547852,,,
15.6406250000,1,-0.5670775771,,,
15.6562500000,1,-0.4760132134,,,
15.6718750000,1,-0.4199219048,,,
15.6875000000,1,-0.3510132134,,,
15.7031250000,1,-0.2017821968,,,
15.7187500000,1,0.0819702074,,,
15.7343750000,1,0.4990234077,,,
15.7500000000,1,0.9774169922,,,
15.7656250000,1,1.4079589844,,,
15.7812500000,1,1.6876829863,,,
15.7968750000,1,1.7671509981,,,
15.8125000000,1,1.6577759981,,,
15.8281250000,1,1.4161380529,,,
15.8437500000,1,1.0979000330,,,
15.8593750000,1,0.7595825195,,,
15.8750000000,1,0.4421387017,,,
15.8906250000,1,0.1846313030,,,
15.9062500000,1,0.0385742188,,,
15.9218750000,1,0.0769653320,,,
15.9375000000,1,0.3605346978,,,
15.9531250000,1,0.9031981826,,,
15.9687500000,1,1.6433720589,,,
15.9843750000,1,2.4506840706,,,
16.0000000000,2,3.1492309570,,,
16.0156250000,2,3.5806879997,,,
16.0312500000,2,3.6384279728,,,
16.0468750000,2,3.3094480038,,,
16.0625000000,2,2.6639399529,,,
16.0781250000,2,1.8332519531,,,
16.0937500000,2,0.9757689834,,,
16.1093750000,2,0.2540893853,,,
16.1250000000,2,-0.2219237983,,,
16.1406250000,2,-0.4074707031,,,
16.1562500000,2,-0.3438110054,,,
16.1718750000,2,-0.1619873047,,,
16.1875000000,2,-0.0283813495,,,
16.2031250000,2,-0.0739135668,,,
16.2187500000,2,-0.3400878906,,,
16.2343750000,2,-0.7524414063,,,
16.2500000000,2,-1.1667480469,,,
16.2656250000,2,-1.4421390295,,,
16.2812500000,2,-1.5287480354,,,
16.2968750000,2,-1.4747920036,,,
16.3125000000,2,-1.3873900175,,,
16.3281250000,2,-1.3446660042,,,
16.3437500000,2,-1.3378299475,,,
16.3593750000,2,-1.2751460075,,,
16.3750000000,2,-1.0394289494,,,
16.3906250000,2,-0.5668944716,,,
16.4062500000,2,0.0795288086,,,
16.4218750000,2,0.7465209961,,,
16.4375000000,2,1.2369379997,,,
16.4531250000,2,1.4054570198,,,
16.4687500000,2,1.2429200411,,,
16.4843750000,2,0.8703613281,,,
16.5000000000,2,0.4779663086,,,
16.5156250000,2,0.2356566936,,,
16.5312500000,2,0.2081909031,,,
16.5468750000,2,0.3537597954,,,
16.5625000000,2,0.5566406250,,,
16.5781250000,2,0.6829224229,,,
16.5937500000,2,0.6346436143,,,
16.6093750000,2,0.3869018853,,,
16.6250000000,2,-0.0165405292,,,
16.6406250000,2,-0.4881592095,,,
16.6562500000,2,-0.9111937881,,,
16.6718750000,2,-1.1844480038,,,
16.6875000000,2,-1.2523800135,,,
16.7031250000,2,-1.1345210075,,,
16.7187500000,2,-0.9072875977,,,
16.7343750000,2,-0.7053833008,,,
16.7500000000,2,-0.6452025771,,,
16.7656250000,2,-0.7890015244,,,
16.7812500000,2,-1.1134639978,,,
16.7968750000,2,-1.5048830509,,,
16.8125000000,2,-1.8159179688,,,
16.8281250000,2,-1.9400019646,,,
16.8437500000,2,-1.8412480354,,,
16.8593750000,2,-1.5779420137,,,
16.8750000000,2,-1.2529909611,,,
16.8906250000,2,-0.9611206055,,,
16.9062500000,2,-0.7552490234,,,
16.9218750000,2,-0.6163330078,,,
16.9375000000,2,-0.4934692085,,,
16.9531250000,2,-0.3369140923,,,
16.9687500000,2,-0.1186522990,,,
16.9843750000,2,0.1727295071,,,
17.0000000000,2,0.5402832031,,,
17.0156250000,2,0.9815673828,,,
17.0312500000,2,1.4604489803,,,
17.0468750000,2,1.8890990019,,,
17.0625000000,2,2.1428220272,,,
17.0781250000,2,2.1164550781,,,
17.0937500000,2,1.7913210392,,,
17.1093750000,2,1.2646479607,,,
17.1250000000,2,0.7156372070,,,
17.1406250000,2,0.2836304009,,,
17.1562500000,2,0.0075073242,,,
17.1718750000,2,-0.1849976033,,,
17.1875000000,2,-0.4020386040,,,
17.2031250000,2,-0.7081298828,,,
17.2187500000,2,-1.0481569767,,,
17.2343750000,2,-1.3220210075,,,
17.2500000000,2,-1.4433590174,,,
17.2656250000,2,-1.4136350155,,,
17.2812500000,2,-1.3118289709,,,
17.2968750000,2,-1.2361450195,,,
17.3125000000,2,-1.2072750330,,,
17.3281250000,2,-1.1929930449,,,
17.3437500000,2,-1.1098630428,,,
17.3593750000,2,-0.9193726182,,,
17.3750000000,2,-0.6544188857,,,
17.3906250000,2,-0.4110107124,,,
17.4062500000,2,-0.2812500000,,,
17.4218750000,2,-0.2850952148,,,
17.4375000000,2,-0.3539429009,,,
17.4531250000,2,-0.3778687119,,,
17.4687500000,2,-0.2833862007,,,
17.4843750000,2,-0.0792846680,,,
17.5000000000,2,0.1392212063,,,
17.5156250000,2,0.2622680962,,,
17.5312500000,2,0.2269897014,,,
17.5468750000,2,0.0661621094,,,
17.5625000000,2,-0.1070557013,,,
17.5781250000,2,-0.1815796047,,,
17.5937500000,2,-0.0953979492,,,
17.6093750000,2,0.1306762993,,,
17.6250000000,2,0.4262695014,,,
17.6406250000,2,0.7210083008,,,
17.6562500000,2,0.9714965820,,,
17.6718750000,2,1.1794430017,,,
17.6875000000,2,1.3292850256,,,
17.7031250000,2,1.3718869686,,,
17.7187500000,2,1.2312619686,,,
17.7343750000,2,0.8760375977,,,
17.7500000000,2,0.3583374023,,,
17.7656250000,2,-0.1801757962,,,
17.7812500000,2,-0.5775145888,,,
17.7968750000,2,-0.7412108779,,,
17.8125000000,2,-0.6986083984,,,
17.8281250000,2,-0.5901489258,,,
17.8437500000,2,-0.5610352159,,,
17.8593750000,2,-0.6810302734,,,
17.8750000000,2,-0.9058228135,,,
17.8906250000,2,-1.1166989803,,,
17.9062500000,2,-1.2025760412,,,
17.9218750000,2,-1.1271970272,,,
17.9375000000,2,-0.9182739258,,,
17.9531250000,2,-0.6456909180,,,
17.9687500000,2,-0.3514403999,,,
17.9843750000,2,-0.0280761700,,,
18.0000000000,2,0.3335570991,,,
18.0156250000,2,0.7090454102,,,
18.0312500000,2,1.0160520077,,,
18.0468750000,2,1.1480100155,,,
18.0625000000,2,1.0655519962,,,
18.0781250000,2,0.8240355849,,,
18.0937500000,2,0.5670166016,,,
18.1093750000,2,0.4305419922,,,
18.1250000000,2,0.4464111030,,,
18.1406250000,2,0.5317382813,,,
18.1562500000,2,0.5240479112,,,
18.1718750000,2,0.3020020127,,,
18.1875000000,2,-0.1441040039,,,
18.2031250000,2,-0.6900634766,,,
18.2187500000,2,-1.1463010311,,,
18.2343750000,2,-1.3515629768,,,
18.2500000000,2,-1.2648320198,,,
18.2656250000,2,-0.9515380859,,,
18.2812500000,2,-0.5542603135,,,
18.2968750000,2,-0.1705321968,,,
18.3125000000,2,0.1787720025,,,
18.3281250000,2,0.5337523818,,,
18.3437500000,2,0.9413452148,,,
18.3593750000,2,1.3741459846,,,
18.3750000000,2,1.7282710075,,,
18.3906250000,2,1.8899539709,,,
18.4062500000,2,1.8007810116,,,
18.4218750000,2,1.4964599609,,,
18.4375000000,2,1.0932010412,,,
18.4531250000,2,0.7092896104,,,
18.4687500000,2,0.4028320014,,,
18.4843750000,2,0.1682738960,,,
18.5000000000,2,-0.0364379883,,,
18.5156250000,2,-0.2196654975,,,
18.5312500000,2,-0.3307495117,,,
18.5468750000,2,-0.3046264946,,,
18.5625000000,2,-0.1279906929,,,
18.5781250000,2,0.1196898967,,,
18.5937500000,2,0.2935180962,,,
18.6093750000,2,0.2690429986,,,
18.6250000000,2,0.0283203106,,,
18.6406250000,2,-0.3262329102,,,
18.6562500000,2,-0.6468505859,,,
18.6718750000,2,-0.8273925781,,,
18.6875000000,2,-0.8612061143,,,
18.7031250000,2,-0.8447875977,,,
18.7187500000,2,-0.8763427734,,,
18.7343750000,2,-0.9879760742,,,
18.7500000000,2,-1.1154170036,,,
18.7656250000,2,-1.1346440315,,,
18.7812500000,2,-0.9576416016,,,
18.7968750000,2,-0.5795288086,,,
18.8125000000,2,-0.1137695014,,,
18.8281250000,2,0.2879638970,,,
18.8437500000,2,0.4928588867,,,
18.8593750000,2,0.4783324897,,,
18.8750000000,2,0.3141478896,,,
18.8906250000,2,0.1080321968,,,
18.9062500000,2,-0.0452270508,,,
18.9218750000,2,-0.1201172024,,,
18.9375000000,2,-0.1318358928,,,
18.9531250000,2,-0.1206054986,,,
18.9687500000,2,-0.0874023363,,,
18.9843750000,2,0.0074462891,,,
19.0000000000,2,0.2229613960,,,
19.0156250000,2,0.5723267198,,,
19.0312500000,2,1.0069580078,,,
19.0468750000,2,1.4171140194,,,
19.0625000000,2,1.6683349609,,,
19.0781250000,2,1.6737669706,,,
19.0937500000,2,1.4327390194,,,
19.1093750000,2,1.0422359705,,,
19.1250000000,2,0.6395874023,,,
19.1406250000,2,0.3401488960,,,
19.1562500000,2,0.1679687947,,,
19.1718750000,2,0.0560913086,,,
19.1875000000,2,-0.1031493992,,,
19.2031250000,2,-0.3845215142,,,
19.2187500000,2,-0.7523192763,,,
19.2343750000,2,-1.0768430233,,,
19.2500000000,2,-1.1911619902,,,
19.2656250000,2,-1.0286250114,,,
19.2812500000,2,-0.6609497070,,,
19.2968750000,2,-0.2868652046,,,
19.3125000000,2,-0.1090698019,,,
19.3281250000,2,-0.2058715969,,,
19.3437500000,2,-0.5035399795,,,
19.3593750000,2,-0.8176879883,,,
19.3750000000,2,-0.9783936143,,,
19.3906250000,2,-0.9329224229,,,
19.4062500000,2,-0.7652587891,,,
19.4218750000,2,-0.6357421875,,,
19.4375000000,2,-0.6644287109,,,
19.4531250000,2,-0.8845825195,,,
19.4687500000,2,-1.2219849825,,,
19.4843750000,2,-1.5603640079,,,
19.5000000000,2,-1.7816159725,,,
19.5156250000,2,-1.8402099609,,,
19.5312500000,2,-1.7437130213,,,
19.5468750000,2,-1.5219119787,,,
19.5625000000,2,-1.2111209631,,,
19.5781250000,2,-0.8192749023,,,
19.5937500000,2,-0.3643799126,,,
19.6093750000,2,0.1380005032,,,
19.6250000000,2,0.6442871094,,,
19.6406250000,2,1.0912480354,,,
19.6562500000,2,1.4238280058,,,
19.6718750000,2,1.6026610136,,,
19.6875000000,2,1.6425169706,,,
19.7031250000,2,1.5944210291,,,
19.7187500000,2,1.5198969841,,,
19.7343750000,2,1.4577640295,,,
19.7500000000,2,1.4082640409,,,
19.7656250000,2,1.3330689669,,,
19.7812500000,2,1.1997679472,,,
19.7968750000,2,0.9906005859,,,
19.8125000000,2,0.7202147841,,,
19.8281250000,2,0.4159545898,,,
19.8437500000,2,0.0801391602,,,
19.8593750000,2,-0.2879638970,,,
19.8750000000,2,-0.6692504883,,,
19.8906250000,2,-0.9989014268,,,
19.9062500000,2,-1.1790770292,,,
19.9218750000,2,-1.1416020393,,,
19.9375000000,2,-0.8929442763,,,
19.9531250000,2,-0.5206298828,,,
19.9687500000,2,-0.1507568061,,,
19.9843750000,2,0.1187743992,,,
20.0000000000,2,0.2866210938,,,
20.0156250000,2,0.4135741889,,,
20.0312500000,2,0.5829467773,,,
20.0468750000,2,0.8230590820,,,
20.0625000000,2,1.0712889433,,,
20.0781250000,2,0.7097777724,,,
20.0937500000,2,0.5172119141,,,
20.1093750000,2,0.3065186143,,,
20.1250000000,2,0.0863037109,,,
20.1406250000,2,-0.1419678032,,,
20.1562500000,2,-0.3327637017,,,
20.1718750000,2,-0.4060058892,,,
20.1875000000,2,-0.3037109077,,,
20.2031250000,2,-0.0368041992,,,
20.2187500000,2,0.2994385064,,,
20.2343750000,2,0.5699462891,,,
20.2500000000,2,0.6758422852,,,
20.2656250000,2,0.6212158203,,,
20.2812500000,2,0.4832153022,,,
20.2968750000,2,0.3697510064,,,
20.3125000000,2,0.3366698921,,,
20.3281250000,2,0.3613280952,,,
20.3437500000,2,0.3770141900,,,
20.3593750000,2,0.3287963867,,,
20.3750000000,2,0.2175903022,,,
20.3906250000,2,0.1075439006,,,
20.4062500000,2,0.0848999023,,,
20.4218750000,2,0.1983031929,,,
20.4375000000,2,0.4110107124,,,
20.4531250000,2,0.6204833984,,,
20.4687500000,2,0.7086182237,,,
20.4843750000,2,0.6077271104,,,
20.5000000000,2,0.3526611030,,,
20.5156250000,2,0.0325317383,,,
20.5312500000,2,-0.2518311143,,,
20.5468750000,2,-0.4364624023,,,
20.5625000000,2,-0.5087280273,,,
20.5781250000,2,-0.4847412109,,,
20.5937500000,2,-0.3754883111,,,
20.6093750000,2,-0.1805420071,,,
20.6250000000,2,0.0993041992,,,
20.6406250000,2,0.4132080078,,,
20.6562500000,2,0.6564940810,,,
20.6718750000,2,0.7162476182,,,
20.6875000000,2,0.5352172852,,,
20.7031250000,2,0.1525879055,,,
20.7187500000,2,-0.2897948921,,,
20.7343750000,2,-0.6304932237,,,
20.7500000000,2,-0.7636107802,,,
20.7656250000,2,-0.7059326172,,,
20.7812500000,2,-0.5612792969,,,
20.7968750000,2,-0.4423218071,,,
20.8125000000,2,-0.4004516900,,,
20.8281250000,2,-0.4035033882,,,
20.8437500000,2,-0.3513183892,,,
20.8593750000,2,-0.1755370945,,,
20.8750000000,2,0.1119994968,,,
20.8906250000,2,0.3966675103,,,
20.9062500000,2,0.5183715820,,,
20.9218750000,2,0.3616333008,,,
20.9375000000,2,-0.0708007813,,,
20.9531250000,2,-0.6370850205,,,
20.9687500000,2,-1.1319580078,,,
20.9843750000,2,-1.3713990450,,,
21.0000000000,2,-1.3040770292,,,
21.0156250000,2,-1.0037230253,,,
21.0312500000,2,-0.6367188096,,,
21.0468750000,2,-0.3482055962,,,
21.0625000000,2,-0.2108153999,,,
21.0781250000,2,-0.2117310017,,,
21.0937500000,2,-0.2878417969,,,
21.1093750000,2,-0.3840942085,,,
21.1250000000,2,-0.4827880859,,,
21.1406250000,2,-0.5904541016,,,
21.1562500000,2,-0.7141724229,,,
21.1718750000,2,-0.8289185166,,,
21.1875000000,2,-0.8875731826,,,
21.2031250000,2,-0.8341063857,,,
21.2187500000,2,-0.6430664063,,,
21.2343750000,2,-0.3200072944,,,
21.2500000000,2,0.0954589769,,,
21.2656250000,2,0.5257567763,,,
21.2812500000,2,0.8674926758,,,
21.2968750000,2,1.0238649845,,,
21.3125000000,2,0.9447631836,,,
21.3281250000,2,0.6524047852,,,
21.3437500000,2,0.2589721978,,,
21.3593750000,2,-0.1124268025,,,
21.3750000000,2,-0.3393554986,,,
21.3906250000,2,-0.3858031929,,,
21.4062500000,2,-0.2821654975,,,
21.4218750000,2,-0.1068115011,,,
21.4375000000,2,0.0695800781,,,
21.4531250000,2,0.2061768025,,,
21.4687500000,2,0.2744750977,,,
21.4843750000,2,0.2820434868,,,
21.5000000000,2,0.2307129055,,,
21.5156250000,2,0.1394042969,,,
21.5312500000,2,0.0263671894,,,
21.5468750000,2,-0.0684204102,,,
21.5625000000,2,-0.1170044020,,,
21.5781250000,2,-0.1169433966,,,
21.5937500000,2,-0.0829467773,,,
21.6093750000,2,-0.0254516602,,,
21.6250000000,2,0.0767822266,,,
21.6406250000,2,0.2811278999,,,
21.6562500000,2,0.6336669922,,,
21.6718750000,2,1.1052249670,,,
21.6875000000,2,1.5656130314,,,
21.7031250000,2,1.8379520178,,,
21.7187500000,2,1.7644649744,,,
21.7343750000,2,1.3264770508,,,
21.7500000000,2,0.6402587891,,,
21.7656250000,2,-0.0846557617,,,
21.7812500000,2,-0.6408081055,,,
21.7968750000,2,-0.9160767198,,,
21.8125000000,2,-0.9152832031,,,
21.8281250000,2,-0.7618408203,,,
21.8437500000,2,-0.5921021104,,,
21.8593750000,2,-0.5357666016,,,
21.8750000000,2,-0.6406859756,,,
21.8906250000,2,-0.8807982802,,,
21.9062500000,2,-1.1820069551,,,
21.9218750000,2,-1.4530030489,,,
21.9375000000,2,-1.6035770178,,,
21.9531250000,2,-1.5819699764,,,
21.9687500000,2,-1.3862919807,,,
21.9843750000,2,-1.0520629883,,,
22.0000000000,2,-0.6523438096,,,
22.0156250000,2,-0.2618407905,,,
22.0312500000,2,0.0621337891,,,
22.0468750000,2,0.2907103896,,,
22.0625000000,2,0.4093627930,,,
22.0781250000,2,0.4326781929,,,
22.0937500000,2,0.4010620117,,,
22.1093750000,2,0.3759154975,,,
22.1250000000,2,0.4261474907,,,
22.1406250000,2,0.5861206055,,,
22.1562500000,2,0.8430175781,,,
22.1718750000,2,1.1103520393,,,
22.1875000000,2,1.2977910042,,,
22.2031250000,2,1.3229370117,,,
22.2187500000,2,1.1720579863,,,
22.2343750000,2,0.8773192763,,,
22.2500000000,2,0.5192871094,,,
22.2656250000,2,0.1987915039,,,
22.2812500000,2,0.0194091797,,,
22.2968750000,2,0.0607299805,,,
22.3125000000,2,0.3601684868,,,
22.3281250000,2,0.8630371094,,,
22.3437500000,2,1.4293210506,,,
22.3593750000,2,1.8748780489,,,
22.3750000000,2,2.0462648869,,,
22.3906250000,2,1.9249880314,,,
22.4062500000,2,1.6008909941,,,
22.4218750000,2,1.2279659510,,,
22.4375000000,2,0.9188231826,,,
22.4531250000,2,0.6748657227,,,
22.4687500000,2,0.4194335938,,,
22.4843750000,2,0.0758056566,,,
22.5000000000,2,-0.3385010064,,,
22.5156250000,2,-0.7304077148,,,
22.5312500000,2,-1.0061039925,,,
22.5468750000,2,-1.1425169706,,,
22.5625000000,2,-1.2256469727,,,
22.5781250000,2,-1.3723750114,,,
22.5937500000,2,-1.6212769747,,,
22.6093750000,2,-1.8901369572,,,
22.6250000000,2,-2.0076899529,,,
22.6406250000,2,-1.8278809786,,,
22.6562500000,2,-1.3198850155,,,
22.6718750000,2,-0.6044312119,,,
22.6875000000,2,0.1239624023,,,
22.7031250000,2,0.6707764268,,,
22.7187500000,2,0.9550170898,,,
22.7343750000,2,0.9997559190,,,
22.7500000000,2,0.8878784180,,,
22.7656250000,2,0.7234497070,,,
22.7812500000,2,0.5615844727,,,
22.7968750000,2,0.4218139946,,,
22.8125000000,2,0.2924194038,,,
22.8281250000,2,0.1685791016,,,
22.8437500000,2,0.0576782189,,,
22.8593750000,2,-0.0209350605,,,
22.8750000000,2,-0.0399169885,,,
22.8906250000,2,0.0166625995,,,
22.9062500000,2,0.1345825046,,,
22.9218750000,2,0.2625122070,,,
22.9375000000,2,0.3287354112,,,
22.9531250000,2,0.2868652046,,,
22.9687500000,2,0.1420897990,,,
22.9843750000,2,-0.0576171912,,,
23.0000000000,2,-0.2357178032,,,
23.0156250000,2,-0.3314819038,,,
23.0312500000,2,-0.3471679986,,,
23.0468750000,2,-0.3303833008,,,
23.0625000000,2,-0.3470458984,,,
23.0781250000,2,-0.4418334961,,,
23.0937500000,2,-0.5973510742,,,
23.1093750000,2,-0.7600098252,,,
23.1250000000,2,-0.8690186143,,,
23.1406250000,2,-0.9181519151,,,
23.1562500000,2,-0.9483032227,,,
23.1718750000,2,-1.0240479708,,,
23.1875000000,2,-1.1735229492,,,
23.2031250000,2,-1.3622440100,,,
23.2187500000,2,-1.4743649960,,,
23.2343750000,2,-1.3693239689,,,
23.2500000000,2,-0.9664916992,,,
23.2656250000,2,-0.2868041992,,,
23.2812500000,2,0.5257567763,,,
23.2968750000,2,1.2686159611,,,
23.3125000000,2,1.7586669922,,,
23.3281250000,2,1.9066159725,,,
23.3437500000,2,1.7586669922,,,
23.3593750000,2,1.4523320198,,,
23.3750000000,2,1.1472170353,,,
23.3906250000,2,0.9514771104,,,
23.4062500000,2,0.8790283203,,,
23.4218750000,2,0.8519287109,,,
23.4375000000,2,0.7603759766,,,
23.4531250000,2,0.5264282227,,,
23.4687500000,2,0.1436768025,,,
23.4843750000,2,-0.3129271865,,,
23.5000000000,2,-0.7149658203,,,
23.5156250000,2,-0.9418334961,,,
23.5312500000,2,-0.9349976182,,,
23.5468750000,2,-0.7026978135,,,
23.5625000000,2,-0.3309325874,,,
23.5781250000,2,0.0585327111,,,
23.5937500000,2,0.3425292969,,,
23.6093750000,2,0.4331665039,,,
23.6250000000,2,0.3102416992,,,
23.6406250000,2,-0.0024414060,,,
23.6562500000,2,-0.4306640923,,,
23.6718750000,2,-0.8663330078,,,
23.6875000000,2,-1.1905519962,,,
23.7031250000,2,-1.3062740564,,,
23.7187500000,2,-1.1792600155,,,
23.7343750000,2,-0.8659667969,,,
23.7500000000,2,-0.5086060166,,,
23.7656250000,2,-0.2627562881,,,
23.7812500000,2,-0.2333374023,,,
23.7968750000,2,-0.3986816108,,,
23.8125000000,2,-0.6322631836,,,
23.8281250000,2,-0.7723999023,,,
23.8437500000,2,-0.7124633789,,,
23.8593750000,2,-0.4675903022,,,
23.8750000000,2,-0.1569824070,,,
23.8906250000,2,0.0713500977,,,
23.9062500000,2,0.1264647990,,,
23.9218750000,2,0.0141601600,,,
23.9375000000,2,-0.1676024944,,,
23.9531250000,2,-0.2833251953,,,
23.9687500000,2,-0.2485352010,,,
23.9843750000,2,-0.0688476637,,,
24.0000000000,3,0.1923827976,,,
24.0156250000,3,0.4456787109,,,
24.0312500000,3,0.6091309190,,,
24.0468750000,3,0.6478270888,,,
24.0625000000,3,0.5582885742,,,
24.0781250000,3,0.3862915039,,,
24.0937500000,3,0.1865233928,,,
24.1093750000,3,0.0443115197,,,
24.1250000000,3,0.0256958008,,,
24.1406250000,3,0.1503296047,,,
24.1562500000,3,0.3784790039,,,
24.1718750000,3,0.6138916016,,,
24.1875000000,3,0.7492064834,,,
24.2031250000,3,0.7108765244,,,
24.2187500000,3,0.5132446289,,,
24.2343750000,3,0.2575072944,,,
24.2500000000,3,0.0753784180,,,
24.2656250000,3,0.0780029297,,,
24.2812500000,3,0.2873534858,,,
24.2968750000,3,0.6405640244,,,
24.3125000000,3,1.0100710392,,,
24.3281250000,3,1.2833249569,,,
24.3437500000,3,1.3974000216,,,
24.3593750000,3,1.3550419807,,,
24.3750000000,3,1.1791379452,,,
24.3906250000,3,0.9053955078,,,
24.4062500000,3,0.5391845703,,,
24.4218750000,3,0.0711059570,,,
24.4375000000,3,-0.4909667969,,,
24.4531250000,3,-1.0844119787,,,
24.4687500000,3,-1.5975949764,,,
24.4843750000,3,-1.9319460392,,,
24.5000000000,3,-2.0280148983,,,
24.5156250000,3,-1.9044799805,,,
24.5312500000,3,-1.6401369572,,,
24.5468750000,3,-1.3330689669,,,
24.5625000000,3,-1.0408329964,,,
24.5781250000,3,-0.7553710938,,,
24.5937500000,3,-0.4435425103,,,
24.6093750000,3,-0.0704956129,,,
24.6250000000,3,0.3647460938,,,
24.6406250000,3,0.8220214844,,,
24.6562500000,3,1.2344969511,,,
24.6718750000,3,1.5343019962,,,
24.6875000000,3,1.6873170137,,,
24.7031250000,3,1.6720579863,,,
24.7187500000,3,1.4832149744,,,
24.7343750000,3,1.1316529512,,,
24.7500000000,3,0.6463013291,,,
24.7656250000,3,0.0645752028,,,
24.7812500000,3,-0.5671997070,,,
24.7968750000,3,-1.1812130213,,,
24.8125000000,3,-1.7011109591,,,
24.8281250000,3,-2.0342409611,,,
24.8437500000,3,-2.1118769646,,,
24.8593750000,3,-1.9060059786,,,
24.8750000000,3,-1.4839479923,,,
24.8906250000,3,-0.9791870117,,,
24.9062500000,3,-0.5654296875,,,
24.9218750000,3,-0.3713378906,,,
24.9375000000,3,-0.4222412109,,,
24.9531250000,3,-0.6253662109,,,
24.9687500000,3,-0.8223267198,,,
24.9843750000,3,-0.8843994141,,,
25.0000000000,3,-0.7845458984,,,
25.0156250000,3,-0.5960083008,,,
25.0312500000,3,-0.4440307915,,,
25.0468750000,3,-0.4329833984,,,
25.0625000000,3,-0.5725098252,,,
25.0781250000,3,-0.7870482802,,,
25.0937500000,3,-0.9736328125,,,
25.1093750000,3,-1.0588380098,,,
25.1250000000,3,-1.0173339844,,,
25.1406250000,3,-0.8619384766,,,
25.1562500000,3,-0.6107177734,,,
25.1718750000,3,-0.2656250000,,,
25.1875000000,3,0.1842651069,,,
25.2031250000,3,0.7429810166,,,
25.2187500000,3,1.3660889864,,,
25.2343750000,3,1.9758909941,,,
25.2500000000,3,2.4794309139,,,
25.2656250000,3,2.7752690315,,,
25.2812500000,3,2.7813110352,,,
25.2968750000,3,2.4733281136,,,
25.3125000000,3,1.8978270292,,,
25.3281250000,3,1.1897579432,,,
25.3437500000,3,0.5400391221,,,
25.3593750000,3,0.1315917969,,,
25.3750000000,3,0.0498046912,,,
25.3906250000,3,0.2329712063,,,
25.4062500000,3,0.4997558892,,,
25.4218750000,3,0.6439208984,,,
25.4375000000,3,0.5475463867,,,
25.4531250000,3,0.2474364936,,,
25.4687500000,3,-0.0993652269,,,
25.4843750000,3,-0.3147583008,,,
25.5000000000,3,-0.2897338867,,,
25.5156250000,3,-0.0400390588,,,
25.5312500000,3,0.3173828125,,,
25.5468750000,3,0.6239014268,,,
25.5625000000,3,0.7570189834,,,
25.5781250000,3,0.6756591797,,,
25.5937500000,3,0.4272460938,,,
25.6093750000,3,0.1174926981,,,
25.6250000000,3,-0.1322021037,,,
25.6406250000,3,-0.2380370945,,,
25.6562500000,3,-0.1835937947,,,
25.6718750000,3,-0.0325927697,,,
25.6875000000,3,0.1217041016,,,
25.7031250000,3,0.1955565959,,,
25.7187500000,3,0.1408690959,,,
25.7343750000,3,-0.0498657189,,,
25.7500000000,3,-0.3346557915,,,
25.7656250000,3,-0.6673583984,,,
25.7812500000,3,-1.0083620548,,,
25.7968750000,3,-1.2927249670,,,
25.8125000000,3,-1.4461669922,,,
25.8281250000,3,-1.3983759880,,,
25.8437500000,3,-1.1338499784,,,
25.8593750000,3,-0.6989135742,,,
25.8750000000,3,-0.2213744968,,,
25.8906250000,3,0.1525879055,,,
25.9062500000,3,0.3372803032,,,
25.9218750000,3,0.3498534858,,,
25.9375000000,3,0.3095093071,,,
25.9531250000,3,0.3530273139,,,
25.9687500000,3,0.5615844727,,,
25.9843750000,3,0.8964843750,,,
26.0000000000,3,1.2601929903,,,
26.0156250000,3,1.5305180550,,,
26.0312500000,3,1.6512449980,,,
26.0468750000,3,1.6435550451,,,
26.0625000000,3,1.5621949434,,,
26.0781250000,3,1.4650880098,,,
26.0937500000,3,1.3808590174,,,
26.1093750000,3,1.2896729708,,,
26.1250000000,3,1.1496579647,,,
26.1406250000,3,0.9313353896,,,
26.1562500000,3,0.6277465820,,,
26.1718750000,3,0.2675170898,,,
26.1875000000,3,-0.0991821289,,,
26.2031250000,3,-0.4153442085,,,
26.2187500000,3,-0.6159058213,,,
26.2343750000,3,-0.6741942763,,,
26.2500000000,3,-0.5836791992,,,
26.2656250000,3,-0.3807983100,,,
26.2812500000,3,-0.1422729045,,,
26.2968750000,3,0.0527343787,,,
26.3125000000,3,0.1396483928,,,
26.3281250000,3,0.1010131985,,,
26.3437500000,3,-0.0639648363,,,
26.3593750000,3,-0.3309937119,,,
26.3750000000,3,-0.6734008789,,,
26.3906250000,3,-1.0518800020,,,
26.4062500000,3,-1.4160159826,,,
26.4218750000,3,-1.6817020178,,,
26.4375000000,3,-1.7808229923,,,
26.4531250000,3,-1.6810300350,,,
26.4687500000,3,-1.4228520393,,,
26.4843750000,3,-1.1276860237,,,
26.5000000000,3,-0.9319458008,,,
26.5156250000,3,-0.9293823242,,,
26.5312500000,3,-1.1182860136,,,
26.5468750000,3,-1.3914790154,,,
26.5625000000,3,-1.6022950411,,,
26.5781250000,3,-1.6229250431,,,
26.5937500000,3,-1.4088749886,,,
26.6093750000,3,-1.0215450525,,,
26.6250000000,3,-0.5507202148,,,
26.6406250000,3,-0.0906982422,,,
26.6562500000,3,0.3072510064,,,
26.6718750000,3,0.6326904297,,,
26.6875000000,3,0.8763427734,,,
26.7031250000,3,1.0081180334,,,
26.7187500000,3,0.9790648818,,,
26.7343750000,3,0.7584229112,,,
26.7500000000,3,0.3793945014,,,
26.7656250000,3,-0.0714721680,,,
26.7812500000,3,-0.4820556939,,,
26.7968750000,3,-0.7510375977,,,
26.8125000000,3,-0.8461914063,,,
26.8281250000,3,-0.7914428711,,,
26.8437500000,3,-0.6566162109,,,
26.8593750000,3,-0.5154418945,,,
26.8750000000,3,-0.4166870117,,,
26.8906250000,3,-0.3676758111,,,
26.9062500000,3,-0.3469237983,,,
26.9218750000,3,-0.3095093071,,,
26.9375000000,3,-0.2179564983,,,
26.9531250000,3,-0.0584106408,,,
26.9687500000,3,0.1463012993,,,
26.9843750000,3,0.3509520888,,,
27.0000000000,3,0.4935913086,,,
27.0156250000,3,0.5379027724,,,
27.0312500000,3,0.4788818061,,,
27.0468750000,3,0.3595581055,,,
27.0625000000,3,0.2407227010,,,
27.0781250000,3,0.2024535984,,,
27.0937500000,3,0.2877807915,,,
27.1093750000,3,0.4780884087,,,
27.1250000000,3,0.6998900771,,,
27.1406250000,3,0.8430175781,,,
27.1562500000,3,0.8337401748,,,
27.1718750000,3,0.6710205078,,,
27.1875000000,3,0.4190674126,,,
27.2031250000,3,0.1818237007,,,
27.2187500000,3,0.0305786096,,,
27.2343750000,3,-0.0429687500,,,
27.2500000000,3,-0.0770263672,,,
27.2656250000,3,-0.1117554009,,,
27.2812500000,3,-0.1395263970,,,
27.2968750000,3,-0.1068726033,,,
27.3125000000,3,0.0357055701,,,
27.3281250000,3,0.2725220025,,,
27.3437500000,3,0.5060424805,,,
27.3593750000,3,0.6055297852,,,
27.3750000000,3,0.4869995117,,,
27.3906250000,3,0.1679076999,,,
27.4062500000,3,-0.2381591946,,,
27.4218750000,3,-0.5943604112,,,
27.4375000000,3,-0.7986450195,,,
27.4531250000,3,-0.8291016221,,,
27.4687500000,3,-0.7213745117,,,
27.4843750000,3,-0.5134276748,,,
27.5000000000,3,-0.2123412937,,,
27.5156250000,3,0.1931152046,,,
27.5312500000,3,0.7064818740,,,
27.5468750000,3,1.2794799805,,,
27.5625000000,3,1.8095699549,,,
27.5781250000,3,2.1751101017,,,
27.5937500000,3,2.2803339958,,,
27.6093750000,3,2.1087648869,,,
27.6250000000,3,1.7261350155,,,
27.6406250000,3,1.2619019747,,,
27.6562500000,3,0.8372802734,,,
27.6718750000,3,0.5274047852,,,
27.6875000000,3,0.2951659858,,,
27.7031250000,3,0.0363769494,,,
27.7187500000,3,-0.3528442085,,,
27.7343750000,3,-0.9099121094,,,
27.7500000000,3,-1.5527340174,,,
27.7656250000,3,-2.1017460823,,,
27.7812500000,3,-2.3801269531,,,
27.7968750000,3,-2.2863769531,,,
27.8125000000,3,-1.8485720158,,,
27.8281250000,3,-1.2088619471,,,
27.8437500000,3,-0.5549926758,,,
27.8593750000,3,-0.0413208008,,,
27.8750000000,3,0.2521362007,,,
27.8906250000,3,0.3300780952,,,
27.9062500000,3,0.2553100884,,,
27.9218750000,3,0.1018676981,,,
27.9375000000,3,-0.0568847694,,,
27.9531250000,3,-0.1838379055,,,
27.9687500000,3,-0.2669067085,,,
27.9843750000,3,-0.3347167969,,,
28.0000000000,3,-0.4194335938,,,
28.0156250000,3,-0.5341187119,,,
28.0312500000,3,-0.6788330078,,,
28.0468750000,3,-0.8356323242,,,
28.0625000000,3,-0.9984741211,,,
28.0781250000,3,-1.1784060001,,,
28.0937500000,3,-1.3989870548,,,
28.1093750000,3,-1.6384890079,,,
28.1250000000,3,-1.8227540255,,,
28.1406250000,3,-1.8519289494,,,
28.1562500000,3,-1.6740109921,,,
28.1718750000,3,-1.3123170137,,,
28.1875000000,3,-0.8747559190,,,
28.2031250000,3,-0.4938965142,,,
28.2187500000,3,-0.2108153999,,,
28.2343750000,3,0.0130004901,,,
28.2500000000,3,0.2723999023,,,
28.2656250000,3,0.6276245117,,,
28.2812500000,3,1.0383299589,,,
28.2968750000,3,1.3826899529,,,
28.3125000000,3,1.5402829647,,,
28.3281250000,3,1.4877320528,,,
28.3437500000,3,1.2922970057,,,
28.3593750000,3,1.0984499454,,,
28.3750000000,3,0.9943848252,,,
28.3906250000,3,0.9847412109,,,
28.4062500000,3,0.9803466797,,,
28.4218750000,3,0.8641967773,,,
28.4375000000,3,0.5722045898,,,
28.4531250000,3,0.1119994968,,,
28.4687500000,3,-0.4384154975,,,
28.4843750000,3,-0.9588013291,,,
28.5000000000,3,-1.3307499886,,,
28.5156250000,3,-1.4690550566,,,
28.5312500000,3,-1.3545529842,,,
28.5468750000,3,-1.0414429903,,,
28.5625000000,3,-0.6408081055,,,
28.5781250000,3,-0.2639159858,,,
28.5937500000,3,-0.0060424800,,,
28.6093750000,3,0.1175537035,,,
28.6250000000,3,0.1773070991,,,
28.6406250000,3,0.2554320991,,,
28.6562500000,3,0.4119873047,,,
28.6718750000,3,0.6347656250,,,
28.6875000000,3,0.8441162109,,,
28.7031250000,3,0.9372559190,,,
28.7187500000,3,0.8488770127,,,
28.7343750000,3,0.5854492188,,,
28.7500000000,3,0.2400512993,,,
28.7656250000,3,-0.0459594689,,,
28.7812500000,3,-0.1537476033,,,
28.7968750000,3,-0.0386352502,,,
28.8125000000,3,0.2394409031,,,
28.8281250000,3,0.5446776748,,,
28.8437500000,3,0.7256469727,,,
28.8593750000,3,0.6970214844,,,
28.8750000000,3,0.4770508111,,,
28.8906250000,3,0.1758423001,,,
28.9062500000,3,-0.0643310472,,,
28.9218750000,3,-0.1677245945,,,
28.9375000000,3,-0.1369629055,,,
28.9531250000,3,-0.0545654297,,,
28.9687500000,3,-0.0491943397,,,
28.9843750000,3,-0.2083130032,,,
29.0000000000,3,-0.5281372070,,,
29.0156250000,3,-0.9157714844,,,
29.0312500000,3,-1.2270510197,,,
29.0468750000,3,-1.3375849724,,,
29.0625000000,3,-1.2083740234,,,
29.0781250000,3,-0.8864135742,,,
29.0937500000,3,-0.5085449219,,,
29.1093750000,3,-0.2164916992,,,
29.1250000000,3,-0.0880127028,,,
29.1406250000,3,-0.1083374023,,,
29.1562500000,3,-0.1819458008,,,
29.1718750000,3,-0.1883545071,,,
29.1875000000,3,-0.0469360389,,,
29.2031250000,3,0.2642211914,,,
29.2187500000,3,0.7066649795,,,
29.2343750000,3,1.2114260197,,,
29.2500000000,3,1.6955569983,,,
29.2656250000,3,2.0705571175,,,
29.2812500000,3,2.2567141056,,,
29.2968750000,3,2.1821289063,,,
29.3125000000,3,1.8422850370,,,
29.3281250000,3,1.2879639864,,,
29.3437500000,3,0.6475830078,,,
29.3593750000,3,0.0679931566,,,
29.3750000000,3,-0.3444823921,,,
29.3906250000,3,-0.5682373047,,,
29.4062500000,3,-0.6272583008,,,
29.4218750000,3,-0.5735474229,,,
29.4375000000,3,-0.4394530952,,,
29.4531250000,3,-0.2380980998,,,
29.4687500000,3,0.0057373052,,,
29.4843750000,3,0.2292480022,,,
29.5000000000,3,0.3480224907,,,
29.5156250000,3,0.3130492866,,,
29.5312500000,3,0.1347655952,,,
29.5468750000,3,-0.0852661133,,,
29.5625000000,3,-0.2276000977,,,
29.5781250000,3,-0.2227783054,,,
29.5937500000,3,-0.0761108398,,,
29.6093750000,3,0.1191406026,,,
29.6250000000,3,0.2444458008,,,
29.6406250000,3,0.2337646037,,,
29.6562500000,3,0.0966796875,,,
29.6718750000,3,-0.0948486328,,,
29.6875000000,3,-0.2592773139,,,
29.7031250000,3,-0.3577880859,,,
29.7187500000,3,-0.4024047852,,,
29.7343750000,3,-0.4068604112,,,
29.7500000000,3,-0.3976440132,,,
29.7656250000,3,-0.3599854112,,,
29.7812500000,3,-0.2880859077,,,
29.7968750000,3,-0.2045897990,,,
29.8125000000,3,-0.1489257962,,,
29.8281250000,3,-0.1727904975,,,
29.8437500000,3,-0.3060303032,,,
29.8593750000,3,-0.5277100205,,,
29.8750000000,3,-0.7504271865,,,
29.8906250000,3,-0.8683472276,,,
29.9062500000,3,-0.7832031250,,,
29.9218750000,3,-0.4596557915,,,
29.9375000000,3,0.0494995117,,,
29.9531250000,3,0.6251220703,,,
29.9687500000,3,1.1160889864,,,
29.9843750000,3,1.4113769531,,,
30.0000000000,3,1.4819949865,,,
30.0156250000,3,1.3958740234,,,
30.0312500000,3,1.2752690315,,,
30.0468750000,3,1.2419430017,,,
30.0625000000,3,1.3510739803,,,
30.0781250000,3,1.5386960506,,,
30.0937500000,3,1.6713869572,,,
30.1093750000,3,1.6127929688,,,
30.1250000000,3,1.2868039608,,,
30.1406250000,3,0.7359619141,,,
30.1562500000,3,0.0911865234,,,
30.1718750000,3,-0.4940186143,,,
30.1875000000,3,-0.9013671875,,,
30.2031250000,3,-1.1089479923,,,
30.2187500000,3,-1.1840209961,,,
30.2343750000,3,-1.2125240564,,,
30.2500000000,3,-1.2822270393,,,
30.2656250000,3,-1.3933110237,,,
30.2812500000,3,-1.4805300236,,,
30.2968750000,3,-1.4394530058,,,
30.3125000000,3,-1.2029420137,,,
30.3281250000,3,-0.7669066787,,,
30.3437500000,3,-0.2371215969,,,
30.3593750000,3,0.2279662937,,,
30.3750000000,3,0.4903563857,,,
30.3906250000,3,0.4862670898,,,
30.4062500000,3,0.2650145888,,,
30.4218750000,3,-0.0469360389,,,
30.4375000000,3,-0.3128662109,,,
30.4531250000,3,-0.4490356147,,,
30.4687500000,3,-0.4444580078,,,
30.4843750000,3,-0.3519896865,,,
30.5000000000,3,-0.2251587063,,,
30.5156250000,3,-0.0830078125,,,
30.5312500000,3,0.0954589769,,,
30.5468750000,3,0.3256835938,,,
30.5625000000,3,0.6029052734,,,
30.5781250000,3,0.8665770888,,,
30.5937500000,3,1.0250849724,,,
30.6093750000,3,1.0098270178,,,
30.6250000000,3,0.8054199219,,,
30.6406250000,3,0.4675292969,,,
30.6562500000,3,0.1052855998,,,
30.6718750000,3,-0.1749877930,,,
30.6875000000,3,-0.3132323921,,,
30.7031250000,3,-0.3128052056,,,
30.7187500000,3,-0.2432250977,,,
30.7343750000,3,-0.1756591946,,,
30.7500000000,3,-0.1536255032,,,
30.7656250000,3,-0.1623535007,,,
30.7812500000,3,-0.1579589993,,,
30.7968750000,3,-0.1342772990,,,
30.8125000000,3,-0.1423950046,,,
30.8281250000,3,-0.2598876953,,,
30.8437500000,3,-0.5520020127,,,
30.8593750000,3,-0.9873657227,,,
30.8750000000,3,-1.4532469511,,,
30.8906250000,3,-1.7872920036,,,
30.9062500000,3,-1.8786009550,,,
30.9218750000,3,-1.7301640511,,,
30.9375000000,3,-1.4421390295,,,
30.9531250000,3,-1.1475219727,,,
30.9687500000,3,-0.9432373047,,,
30.9843750000,3,-0.8432617188,,,
31.0000000000,3,-0.8083496094,,,
31.0156250000,3,-0.7699584961,,,
31.0312500000,3,-0.6815795898,,,
31.0468750000,3,-0.5250853896,,,
31.0625000000,3,-0.3070679009,,,
31.0781250000,3,-0.0411376990,,,
31.0937500000,3,0.2474976033,,,
31.1093750000,3,0.5281372070,,,
31.1250000000,3,0.7784423828,,,
31.1406250000,3,0.9734497070,,,
31.1562500000,3,1.1011960506,,,
31.1718750000,3,1.1519780159,,,
31.1875000000,3,1.1065670252,,,
31.2031250000,3,0.9515380859,,,
31.2187500000,3,0.7034912109,,,
31.2343750000,3,0.4267578125,,,
31.2500000000,3,0.2124633938,,,
31.2656250000,3,0.1341553032,,,
31.2812500000,3,0.1946410984,,,
31.2968750000,3,0.3060303032,,,
31.3125000000,3,0.3506470025,,,
31.3281250000,3,0.2476195991,,,
31.3437500000,3,0.0004272461,,,
31.3593750000,3,-0.2993774116,,,
31.3750000000,3,-0.5437622070,,,
31.3906250000,3,-0.6525269151,,,
31.4062500000,3,-0.5968018174,,,
31.4218750000,3,-0.3958739936,,,
31.4375000000,3,-0.1003417969,,,
31.4531250000,3,0.2567138970,,,
31.4687500000,3,0.6143798828,,,
31.4843750000,3,0.9102783203,,,
31.5000000000,3,1.0737919807,,,
31.5156250000,3,1.0565190315,,,
31.5312500000,3,0.8570557237,,,
31.5468750000,3,0.5462036133,,,
31.5625000000,3,0.2204589993,,,
31.5781250000,3,-0.0220947303,,,
31.5937500000,3,-0.1304931939,,,
31.6093750000,3,-0.1213378981,,,
31.6250000000,3,-0.0472412109,,,
31.6406250000,3,0.0304565392,,,
31.6562500000,3,0.0724487305,,,
31.6718750000,3,0.0767211914,,,
31.6875000000,3,0.0497436486,,,
31.7031250000,3,-0.0015258790,,,
31.7187500000,3,-0.0772705078,,,
31.7343750000,3,-0.1860962063,,,
31.7500000000,3,-0.3320922852,,,
31.7656250000,3,-0.4911499023,,,
31.7812500000,3,-0.6293944716,,,
31.7968750000,3,-0.7110595703,,,
31.8125000000,3,-0.7296752930,,,
31.8281250000,3,-0.7072144151,,,
31.8437500000,3,-0.6943969727,,,
31.8593750000,3,-0.7210083008,,,
31.8750000000,3,-0.7731323242,,,
31.8906250000,3,-0.7980957031,,,
31.9062500000,3,-0.7112426758,,,
31.9218750000,3,-0.4565429986,,,
31.9375000000,3,-0.0614013709,,,
31.9531250000,3,0.3789672852,,,
31.9687500000,3,0.7416992188,,,
31.9843750000,3,0.9390869141,,,
32.0000000000,4,0.9606934190,,,
32.0156250000,4,0.8640136719,,,
32.0312500000,4,0.7454833984,,,
32.0468750000,4,0.6670532227,,,
32.0625000000,4,0.6147460938,,,
32.0781250000,4,0.5383300781,,,
32.0937500000,4,0.3810425103,,,
32.1093750000,4,0.1629028022,,,
32.1250000000,4,-0.0496826209,,,
32.1406250000,4,-0.1840209961,,,
32.1562500000,4,-0.2184447944,,,
32.1718750000,4,-0.2119750977,,,
32.1875000000,4,-0.2546997070,,,
32.2031250000,4,-0.3883056939,,,
32.2187500000,4,-0.5735474229,,,
32.2343750000,4,-0.6850585938,,,
32.2500000000,4,-0.6018676758,,,
32.2656250000,4,-0.2799682915,,,
32.2812500000,4,0.1831665039,,,
32.2968750000,4,0.6160889268,,,
32.3125000000,4,0.8618773818,,,
32.3281250000,4,0.8789063096,,,
32.3437500000,4,0.7530518174,,,
32.3593750000,4,0.6646729112,,,
32.3750000000,4,0.7452393174,,,
32.3906250000,4,0.9970703125,,,
32.4062500000,4,1.2894899845,,,
32.4218750000,4,1.4372559786,,,
32.4375000000,4,1.3044430017,,,
32.4531250000,4,0.8838500977,,,
32.4687500000,4,0.2886962891,,,
32.4843750000,4,-0.3005371094,,,
32.5000000000,4,-0.7510375977,,,
32.5156250000,4,-1.0251460075,,,
32.5312500000,4,-1.1580200195,,,
32.5468750000,4,-1.2289429903,,,
32.5625000000,4,-1.2856450081,,,
32.5781250000,4,-1.3150019646,,,
32.5937500000,4,-1.2955930233,,,
32.6093750000,4,-1.2130130529,,,
32.6250000000,4,-1.0900269747,,,
32.6406250000,4,-0.9783936143,,,
32.6562500000,4,-0.9019774795,,,
32.6718750000,4,-0.8502808213,,,
32.6875000000,4,-0.7565917969,,,
32.7031250000,4,-0.5363159180,,,
32.7187500000,4,-0.1689452976,,,
32.7343750000,4,0.2903442085,,,
32.7500000000,4,0.7132567763,,,
32.7656250000,4,0.9771118164,,,
32.7812500000,4,1.0232540369,,,
32.7968750000,4,0.8781127930,,,
32.8125000000,4,0.6403809190,,,
32.8281250000,4,0.4032593071,,,
32.8437500000,4,0.2058105022,,,
32.8593750000,4,0.0298461895,,,
32.8750000000,4,-0.1774902046,,,
32.8906250000,4,-0.4238280952,,,
32.9062500000,4,-0.6427611709,,,
32.9218750000,4,-0.7116088867,,,
32.9375000000,4,-0.5438231826,,,
32.9531250000,4,-0.1404418945,,,
32.9687500000,4,0.3706054986,,,
32.9843750000,4,0.8012084961,,,
33.0000000000,4,0.9664307237,,,
33.0156250000,4,0.7859497070,,,
33.0312500000,4,0.3179320991,,,
33.0468750000,4,-0.2772827148,,,
33.0625000000,4,-0.7994995117,,,
33.0781250000,4,-1.0761719942,,,
33.0937500000,4,-1.0311280489,,,
33.1093750000,4,-0.7124022841,,,
33.1250000000,4,-0.2350464016,,,
33.1406250000,4,0.2484131008,,,
33.1562500000,4,0.6287230849,,,
33.1718750000,4,0.8412476182,,,
33.1875000000,4,0.8860474229,,,
33.2031250000,4,0.8151854873,,,
33.2187500000,4,0.6798095703,,,
33.2343750000,4,0.5194091797,,,
33.2500000000,4,0.3637695014,,,
33.2656250000,4,0.2313843071,,,
33.2812500000,4,0.1571045071,,,
33.2968750000,4,0.1684570014,,,
33.3125000000,4,0.2722167969,,,
33.3281250000,4,0.4326781929,,,
33.3437500000,4,0.5850830078,,,
33.3593750000,4,0.6417235732,,,
33.3750000000,4,0.5429688096,,,
33.3906250000,4,0.2827759087,,,
33.4062500000,4,-0.0809936523,,,
33.4218750000,4,-0.4463500977,,,
33.4375000000,4,-0.7210692763,,,
33.4531250000,4,-0.8551635742,,,
33.4687500000,4,-0.8510131836,,,
33.4843750000,4,-0.7385253906,,,
33.5000000000,4,-0.5404663086,,,
33.5156250000,4,-0.2487792969,,,
33.5312500000,4,0.1397095025,,,
33.5468750000,4,0.5911254883,,,
33.5625000000,4,1.0173339844,,,
33.5781250000,4,1.3043819666,,,
33.5937500000,4,1.3736569881,,,
33.6093750000,4,1.2340699434,,,
33.6250000000,4,0.9860228896,,,
33.6406250000,4,0.7808837891,,,
33.6562500000,4,0.7404785156,,,
33.6718750000,4,0.8657836914,,,
33.6875000000,4,1.0502320528,,,
33.7031250000,4,1.1352540255,,,
33.7187500000,4,0.9992675781,,,
33.7343750000,4,0.6490479112,,,
33.7500000000,4,0.2039185017,,,
33.7656250000,4,-0.1758423001,,,
33.7812500000,4,-0.3860473931,,,
33.7968750000,4,-0.4249877930,,,
33.8125000000,4,-0.4049071968,,,
33.8281250000,4,-0.4613646865,,,
33.8437500000,4,-0.6510009766,,,
33.8593750000,4,-0.9197388291,,,
33.8750000000,4,-1.1448359489,,,
33.8906250000,4,-1.2144169807,,,
33.9062500000,4,-1.1016240120,,,
33.9218750000,4,-0.8955687881,,,
33.9375000000,4,-0.7135620117,,,
33.9531250000,4,-0.6549683213,,,
33.9687500000,4,-0.7051392198,,,
33.9843750000,4,-0.7797241211,,,
34.0000000000,4,-0.7766724229,,,
34.0156250000,4,-0.6441649795,,,
34.0312500000,4,-0.3990479112,,,
34.0468750000,4,-0.1051025018,,,
34.0625000000,4,0.1558838040,,,
34.0781250000,4,0.3323974907,,,
34.0937500000,4,0.3824462891,,,
34.1093750000,4,0.2973633111,,,
34.1250000000,4,0.0859375000,,,
34.1406250000,4,-0.2020874023,,,
34.1562500000,4,-0.4890747070,,,
34.1718750000,4,-0.7171630859,,,
34.1875000000,4,-0.8749390244,,,
34.2031250000,4,-1.0046999454,,,
34.2187500000,4,-1.1464840174,,,
34.2343750000,4,-1.2908940315,,,
34.2500000000,4,-1.3562619686,,,
34.2656250000,4,-1.2376710176,,,
34.2812500000,4,-0.9024658203,,,
34.2968750000,4,-0.4389648139,,,
34.3125000000,4,-0.0239868201,,,
34.3281250000,4,0.1619262993,,,
34.3437500000,4,0.0469360389,,,
34.3593750000,4,-0.2777099907,,,
34.3750000000,4,-0.6071776748,,,
34.3906250000,4,-0.7390136719,,,
34.4062500000,4,-0.5841063857,,,
34.4218750000,4,-0.2138061970,,,
34.4375000000,4,0.2102050930,,,
34.4531250000,4,0.5049437881,,,
34.4687500000,4,0.5784301758,,,
34.4843750000,4,0.4605712891,,,
34.5000000000,4,0.2674561143,,,
34.5156250000,4,0.1126099005,,,
34.5312500000,4,0.0518188514,,,
34.5468750000,4,0.0614013709,,,
34.5625000000,4,0.0509033203,,,
34.5781250000,4,-0.0437011681,,,
34.5937500000,4,-0.2208862007,,,
34.6093750000,4,-0.3786011040,,,
34.6250000000,4,-0.4074096978,,,
34.6406250000,4,-0.2458495945,,,
34.6562500000,4,0.0440063514,,,
34.6718750000,4,0.3023070991,,,
34.6875000000,4,0.3671875000,,,
34.7031250000,4,0.1836548001,,,
34.7187500000,4,-0.1453856975,,,
34.7343750000,4,-0.4428100884,,,
34.7500000000,4,-0.5494384766,,,
34.7656250000,4,-0.4331054986,,,
34.7812500000,4,-0.1947021037,,,
34.7968750000,4,-0.0042114258,,,
34.8125000000,4,0.0244140606,,,
34.8281250000,4,-0.1168823019,,,
34.8437500000,4,-0.3432616889,,,
34.8593750000,4,-0.5335692763,,,
34.8750000000,4,-0.6218872070,,,
34.8906250000,4,-0.6040039063,,,
34.9062500000,4,-0.5095214844,,,
34.9218750000,4,-0.3530884087,,,
34.9375000000,4,-0.1057128981,,,
34.9531250000,4,0.2566528022,,,
34.9687500000,4,0.7015380859,,,
34.9843750000,4,1.1058349609,,,
35.0000000000,4,1.3134770393,,,
35.0156250000,4,1.1967159510,,,
35.0312500000,4,0.7449340820,,,
35.0468750000,4,0.0965576172,,,
35.0625000000,4,-0.5250853896,,,
35.0781250000,4,-0.9197388291,,,
35.0937500000,4,-0.9965819716,,,
35.1093750000,4,-0.7975463867,,,
35.1250000000,4,-0.4822998047,,,
35.1406250000,4,-0.2193603963,,,
35.1562500000,4,-0.1098022014,,,
35.1718750000,4,-0.1431273967,,,
35.1875000000,4,-0.2362671047,,,
35.2031250000,4,-0.2956542969,,,
35.2187500000,4,-0.2730103135,,,
35.2343750000,4,-0.1822510064,,,
35.2500000000,4,-0.0628051832,,,
35.2656250000,4,0.0625610426,,,
35.2812500000,4,0.2225951999,,,
35.2968750000,4,0.4653320014,,,
35.3125000000,4,0.8147583008,,,
35.3281250000,4,1.2320560217,,,
35.3437500000,4,1.6137080193,,,
35.3593750000,4,1.8583979607,,,
35.3750000000,4,1.9058840275,,,
35.3906250000,4,1.7716059685,,,
35.4062500000,4,1.5372309685,,,
35.4218750000,4,1.3039549589,,,
35.4375000000,4,1.1373289824,,,
35.4531250000,4,1.0532230139,,,
35.4687500000,4,1.0177609921,,,
35.4843750000,4,0.9686890244,,,
35.5000000000,4,0.8638916016,,,
35.5156250000,4,0.6967163086,,,
35.5312500000,4,0.4897460938,,,
35.5468750000,4,0.2719726861,,,
35.5625000000,4,0.0587158203,,,
35.5781250000,4,-0.1652832031,,,
35.5937500000,4,-0.4086914063,,,
35.6093750000,4,-0.6514893174,,,
35.6250000000,4,-0.8303223252,,,
35.6406250000,4,-0.8463134766,,,
35.6562500000,4,-0.6350708008,,,
35.6718750000,4,-0.2147826999,,,
35.6875000000,4,0.2901611030,,,
35.7031250000,4,0.7019042969,,,
35.7187500000,4,0.8778076172,,,
35.7343750000,4,0.7927246094,,,
35.7500000000,4,0.5207520127,,,
35.7656250000,4,0.1826781929,,,
35.7812500000,4,-0.1456909031,,,
35.7968750000,4,-0.4571532905,,,
35.8125000000,4,-0.7696533203,,,
35.8281250000,4,-1.0560300350,,,
35.8437500000,4,-1.2491459846,,,
35.8593750000,4,-1.2619630098,,,
35.8750000000,4,-1.0699460506,,,
35.8906250000,4,-0.7489624023,,,
35.9062500000,4,-0.4339599907,,,
35.9218750000,4,-0.2356566936,,,
35.9375000000,4,-0.1878052056,,,
35.9531250000,4,-0.2385863960,,,
35.9687500000,4,-0.3075562119,,,
35.9843750000,4,-0.3348388970,,,
36.0000000000,4,-0.2880249023,,,
36.0156250000,4,-0.1533813030,,,
36.0312500000,4,0.0944824219,,,
36.0468750000,4,0.4664306939,,,
36.0625000000,4,0.9083861709,,,
36.0781250000,4,1.2683720589,,,
36.0937500000,4,1.3700560331,,,
36.1093750000,4,1.1116939783,,,
36.1250000000,4,0.5366210938,,,
36.1406250000,4,-0.1687622070,,,
36.1562500000,4,-0.7707520127,,,
36.1718750000,4,-1.1121220589,,,
36.1875000000,4,-1.1829830408,,,
36.2031250000,4,-1.0949100256,,,
36.2187500000,4,-0.9860839844,,,
36.2343750000,4,-0.9242553711,,,
36.2500000000,4,-0.8938599229,,,
36.2656250000,4,-0.8093872070,,,
36.2812500000,4,-0.5994263291,,,
36.2968750000,4,-0.2381591946,,,
36.3125000000,4,0.2298583984,,,
36.3281250000,4,0.7482299805,,,
36.3437500000,4,1.2354739904,,,
36.3593750000,4,1.6240229607,,,
36.3750000000,4,1.8545529842,,,
36.3906250000,4,1.8797609806,,,
36.4062500000,4,1.6849370003,,,
36.4218750000,4,1.2872920036,,,
36.4375000000,4,0.7357177734,,,
36.4531250000,4,0.0811157227,,,
36.4687500000,4,-0.6175537109,,,
36.4843750000,4,-1.2910770178,,,
36.5000000000,4,-1.8502199650,,,
36.5156250000,4,-2.2020869255,,,
36.5312500000,4,-2.2915649414,,,
36.5468750000,4,-2.1336669922,,,
36.5625000000,4,-1.8244630098,,,
36.5781250000,4,-1.5177609921,,,
36.5937500000,4,-1.3411250114,,,
36.6093750000,4,-1.3414920568,,,
36.6250000000,4,-1.4396359921,,,
36.6406250000,4,-1.4857180119,,,
36.6562500000,4,-1.3338619471,,,
36.6718750000,4,-0.9227294922,,,
36.6875000000,4,-0.3105469048,,,
36.7031250000,4,0.3299561143,,,
36.7187500000,4,0.8248291016,,,
36.7343750000,4,1.0558470488,,,
36.7500000000,4,1.0098880529,,,
36.7656250000,4,0.7723389268,,,
36.7812500000,4,0.4749755859,,,
36.7968750000,4,0.2240601033,,,
36.8125000000,4,0.0615844689,,,
36.8281250000,4,-0.0187377892,,,
36.8437500000,4,-0.0597534217,,,
36.8593750000,4,-0.0911254883,,,
36.8750000000,4,-0.1007080004,,,
36.8906250000,4,-0.0497436486,,,
36.9062500000,4,0.1103515998,,,
36.9218750000,4,0.3950805962,,,
36.9375000000,4,0.7689818740,,,
36.9531250000,4,1.1414790154,,,
36.9687500000,4,1.4025269747,,,
36.9843750000,4,1.4970090389,,,
37.0000000000,4,1.4085079432,,,
37.0156250000,4,1.2178339958,,,
37.0312500000,4,1.0315550566,,,
37.0468750000,4,0.9520874023,,,
37.0625000000,4,1.0311280489,,,
37.0781250000,4,1.2490229607,,,
37.0937500000,4,1.5299069881,,,
37.1093750000,4,1.7570799589,,,
37.1250000000,4,1.8300780058,,,
37.1406250000,4,1.6981199980,,,
37.1562500000,4,1.3654789925,,,
37.1718750000,4,0.8966063857,,,
37.1875000000,4,0.3952637017,,,
37.2031250000,4,-0.0349121094,,,
37.2187500000,4,-0.2940062881,,,
37.2343750000,4,-0.3407593071,,,
37.2500000000,4,-0.2006226033,,,
37.2656250000,4,0.0370483398,,,
37.2812500000,4,0.2645874023,,,
37.2968750000,4,0.3928222954,,,
37.3125000000,4,0.3886108100,,,
37.3281250000,4,0.2618407905,,,
37.3437500000,4,0.0575561486,,,
37.3593750000,4,-0.1698607951,,,
37.3750000000,4,-0.3601684868,,,
37.3906250000,4,-0.4885863960,,,
37.4062500000,4,-0.5191649795,,,
37.4218750000,4,-0.4544678032,,,
37.4375000000,4,-0.3121337891,,,
37.4531250000,4,-0.1296387017,,,
37.4687500000,4,0.0399780311,,,
37.4843750000,4,0.1641235054,,,
37.5000000000,4,0.2106934041,,,
37.5156250000,4,0.1836548001,,,
37.5312500000,4,0.0972289965,,,
37.5468750000,4,-0.0310668908,,,
37.5625000000,4,-0.1884766072,,,
37.5781250000,4,-0.3555297852,,,
37.5937500000,4,-0.5034180284,,,
37.6093750000,4,-0.5967407227,,,
37.6250000000,4,-0.6168212891,,,
37.6406250000,4,-0.5902709961,,,
37.6562500000,4,-0.5888062119,,,
37.6718750000,4,-0.6931151748,,,
37.6875000000,4,-0.9470214844,,,
37.7031250000,4,-1.3036500216,,,
37.7187500000,4,-1.6301879883,,,
37.7343750000,4,-1.7624510527,,,
37.7500000000,4,-1.6084589958,,,
37.7656250000,4,-1.2090450525,,,
37.7812500000,4,-0.7282714844,,,
37.7968750000,4,-0.3869018853,,,
37.8125000000,4,-0.3378905952,,,
37.8281250000,4,-0.6159667969,,,
37.8437500000,4,-1.1313480139,,,
37.8593750000,4,-1.7319339514,,,
37.8750000000,4,-2.2545170784,,,
37.8906250000,4,-2.5914309025,,,
37.9062500000,4,-2.6557009220,,,
37.9218750000,4,-2.4129641056,,,
37.9375000000,4,-1.8837889433,,,
37.9531250000,4,-1.1538089514,,,
37.9687500000,4,-0.3732909858,,,
37.9843750000,4,0.2777099907,,,
38.0000000000,4,0.6611328125,,,
38.0156250000,4,0.7529296875,,,
38.0312500000,4,0.6477050781,,,
38.0468750000,4,0.5023192763,,,
38.0625000000,4,0.4581908882,,,
38.0781250000,4,0.5711669922,,,
38.0937500000,4,0.7904052734,,,
38.1093750000,4,1.0017700195,,,
38.1250000000,4,1.0869749784,,,
38.1406250000,4,0.9677733779,,,
38.1562500000,4,0.6406250000,,,
38.1718750000,4,0.1662597954,,,
38.1875000000,4,-0.3370361030,,,
38.2031250000,4,-0.7451171875,,,
38.2187500000,4,-0.9553833008,,,
38.2343750000,4,-0.9100952148,,,
38.2500000000,4,-0.6109008789,,,
38.2656250000,4,-0.1110228971,,,
38.2812500000,4,0.5130004883,,,
38.2968750000,4,1.1589970589,,,
38.3125000000,4,1.7000119686,,,
38.3281250000,4,1.9987790585,,,
38.3437500000,4,1.9390870333,,,
38.3593750000,4,1.4957890511,,,
38.3750000000,4,0.7697144151,,,
38.3906250000,4,-0.0115356399,,,
38.4062500000,4,-0.5716552734,,,
38.4218750000,4,-0.7203978896,,,
38.4375000000,4,-0.4462279975,,,
38.4531250000,4,0.0744628906,,,
38.4687500000,4,0.5664063096,,,
38.4843750000,4,0.8112183213,,,
38.5000000000,4,0.7368164063,,,
38.5156250000,4,0.4399414063,,,
38.5312500000,4,0.1042480022,,,
38.5468750000,4,-0.1188964993,,,
38.5625000000,4,-0.1943970025,,,
38.5781250000,4,-0.1690063030,,,
38.5937500000,4,-0.1285399944,,,
38.6093750000,4,-0.1119384989,,,
38.6250000000,4,-0.1013794020,,,
38.6406250000,4,-0.0519409217,,,
38.6562500000,4,0.0475463904,,,
38.6718750000,4,0.1159667969,,,
38.6875000000,4,0.0414428711,,,
38.7031250000,4,-0.2664184868,,,
38.7187500000,4,-0.7783203125,,,
38.7343750000,4,-1.3306879997,,,
38.7500000000,4,-1.6866459846,,,
38.7656250000,4,-1.6701660156,,,
38.7812500000,4,-1.2743530273,,,
38.7968750000,4,-0.6732177734,,,
38.8125000000,4,-0.1454468071,,,
38.8281250000,4,0.0819702074,,,
38.8437500000,4,-0.0534057617,,,
38.8593750000,4,-0.4216308892,,,
38.8750000000,4,-0.7957152724,,,
38.8906250000,4,-0.9758300781,,,
38.9062500000,4,-0.8835449219,,,
38.9218750000,4,-0.5817260742,,,
38.9375000000,4,-0.2039185017,,,
38.9531250000,4,0.1430054009,,,
38.9687500000,4,0.4121094048,,,
38.9843750000,4,0.6243895888,,,
39.0000000000,4,0.8071898818,,,
39.0156250000,4,0.9738770127,,,
39.0312500000,4,1.0981450081,,,
39.0468750000,4,1.1567989588,,,
39.0625000000,4,1.1310420036,,,
39.0781250000,4,1.0380250216,,,
39.0937500000,4,0.9217529297,,,
39.1093750000,4,0.8140258789,,,
39.1250000000,4,0.7348021865,,,
39.1406250000,4,0.6776732802,,,
39.1562500000,4,0.6220703125,,,
39.1718750000,4,0.5523682237,,,
39.1875000000,4,0.4685668945,,,
39.2031250000,4,0.3982543945,,,
39.2187500000,4,0.3663330078,,,
39.2343750000,4,0.4063721001,,,
39.2500000000,4,0.5125731826,,,
39.2656250000,4,0.6613159180,,,
39.2812500000,4,0.8157958984,,,
39.2968750000,4,0.9346923828,,,
39.3125000000,4,0.9993286133,,,
39.3281250000,4,1.0092769861,,,
39.3437500000,4,0.9791870117,,,
39.3593750000,4,0.9301146865,,,
39.3750000000,4,0.8764038086,,,
39.3906250000,4,0.8068848252,,,
39.4062500000,4,0.6928101182,,,
39.4218750000,4,0.4970093071,,,
39.4375000000,4,0.1987304986,,,
39.4531250000,4,-0.1924438030,,,
39.4687500000,4,-0.6196898818,,,
39.4843750000,4,-0.9994506836,,,
39.5000000000,4,-1.2602540255,,,
39.5156250000,4,-1.3673100471,,,
39.5312500000,4,-1.3342289925,,,
39.5468750000,4,-1.1928709745,,,
39.5625000000,4,-0.9917603135,,,
39.5781250000,4,-0.7758178711,,,
39.5937500000,4,-0.5883178711,,,
39.6093750000,4,-0.4682007134,,,
39.6250000000,4,-0.4085693061,,,
39.6406250000,4,-0.3380737007,,,
39.6562500000,4,-0.1353148967,,,
39.6718750000,4,0.3152466118,,,
39.6875000000,4,1.0210570097,,,
39.7031250000,4,1.8404539824,,,
39.7187500000,4,2.4972529411,,,
39.7343750000,4,2.7251589298,,,
39.7500000000,4,2.3732299805,,,
39.7656250000,4,1.5055539608,,,
39.7812500000,4,0.3610840142,,,
39.7968750000,4,-0.7722167969,,,
39.8125000000,4,-1.6636350155,,,
39.8281250000,4,-2.2307739258,,,
39.8437500000,4,-2.4971919060,,,
39.8593750000,4,-2.5211789608,,,
39.8750000000,4,-2.3403930664,,,
39.8906250000,4,-1.9646610022,,,
39.9062500000,4,-1.4329220057,,,
39.9218750000,4,-0.8355103135,,,
39.9375000000,4,-0.2838745117,,,
39.9531250000,4,0.1406860054,,,
39.9687500000,4,0.4440307915,,,
39.9843750000,4,0.6868286133,,,
40.0000000000,5,0.9475098252,,,
40.0156250000,5,1.2244869471,,,
40.0312500000,5,1.4304200411,,,
40.0468750000,5,1.4509279728,,,
40.0625000000,5,1.2093509436,,,
40.0781250000,5,0.7343750000,,,
40.0937500000,5,0.1658325046,,,
40.1093750000,5,-0.3396606147,,,
40.1250000000,5,-0.6507567763,,,
40.1406250000,5,-0.7258300781,,,
40.1562500000,5,-0.5897827148,,,
40.1718750000,5,-0.2960815132,,,
40.1875000000,5,0.1078490987,,,
40.2031250000,5,0.5930786133,,,
40.2187500000,5,1.1192020178,,,
40.2343750000,5,1.6334229708,,,
40.2500000000,5,2.0370481014,,,
40.2656250000,5,2.2564699650,,,
40.2812500000,5,2.2443850040,,,
40.2968750000,5,2.0109250546,,,
40.3125000000,5,1.6270749569,,,
40.3281250000,5,1.2010500431,,,
40.3437500000,5,0.8350830078,,,
40.3593750000,5,0.6027222276,,,
40.3750000000,5,0.5165405273,,,
40.3906250000,5,0.5348510742,,,
40.4062500000,5,0.5732421875,,,
40.4218750000,5,0.5465087891,,,
40.4375000000,5,0.3779296875,,,
40.4531250000,5,0.0357055701,,,
40.4687500000,5,-0.4643554986,,,
40.4843750000,5,-1.0627440214,,,
40.5000000000,5,-1.6653439999,,,
40.5156250000,5,-2.1618649960,,,
40.5312500000,5,-2.4613039494,,,
40.5468750000,5,-2.5092160702,,,
40.5625000000,5,-2.3302609921,,,
40.5781250000,5,-2.0125730038,,,
40.5937500000,5,-1.6522829533,,,
40.6093750000,5,-1.3365479708,,,
40.6250000000,5,-1.0914920568,,,
40.6406250000,5,-0.9012451172,,,
40.6562500000,5,-0.7302246094,,,
40.6718750000,5,-0.5496215820,,,
40.6875000000,5,-0.3568114936,,,
40.7031250000,5,-0.1552733928,,,
40.7187500000,5,0.0588378906,,,
40.7343750000,5,0.3103027046,,,
40.7500000000,5,0.6079711914,,,
40.7656250000,5,0.9234619141,,,
40.7812500000,5,1.1598509550,,,
40.7968750000,5,1.1958010197,,,
40.8125000000,5,0.9542235732,,,
40.8281250000,5,0.4730834961,,,
40.8437500000,5,-0.0747070313,,,
40.8593750000,5,-0.4547728896,,,
40.8750000000,5,-0.4802856147,,,
40.8906250000,5,-0.0990600586,,,
40.9062500000,5,0.5559691787,,,
40.9218750000,5,1.2550050020,,,
40.9375000000,5,1.7549439669,,,
40.9531250000,5,1.8871459961,,,
40.9687500000,5,1.6137080193,,,
40.9843750000,5,1.0120849609,,,
41.0000000000,5,0.2351074070,,,
41.0156250000,5,-0.5623168945,,,
41.0312500000,5,-1.2636109591,,,
41.0468750000,5,-1.8010250330,,,
41.0625000000,5,-2.1649169922,,,
41.0781250000,5,-2.3676760197,,,
41.0937500000,5,-2.4177858829,,,
41.1093750000,5,-2.3167719841,,,
41.1250000000,5,-2.0723879337,,,
41.1406250000,5,-1.7261350155,,,
41.1562500000,5,-1.3641359806,,,
41.1718750000,5,-1.0878909826,,,
41.1875000000,5,-0.9643555284,,,
41.2031250000,5,-0.9804688096,,,
41.2187500000,5,-1.0377199650,,,
41.2343750000,5,-0.9913939834,,,
41.2500000000,5,-0.7351685166,,,
41.2656250000,5,-0.2647705078,,,
41.2812500000,5,0.3097533882,,,
41.2968750000,5,0.8052979112,,,
41.3125000000,5,1.0705569983,,,
41.3281250000,5,1.0413819551,,,
41.3437500000,5,0.7630004883,,,
41.3593750000,5,0.3588866889,,,
41.3750000000,5,-0.0576171912,,,
41.3906250000,5,-0.4024047852,,,
41.4062500000,5,-0.6555175781,,,
41.4218750000,5,-0.8269042969,,,
41.4375000000,5,-0.9230347276,,,
41.4531250000,5,-0.9290161133,,,
41.4687500000,5,-0.8189697266,,,
41.4843750000,5,-0.5762938857,,,
41.5000000000,5,-0.2092285007,,,
41.5156250000,5,0.2243652046,,,
41.5312500000,5,0.6569824219,,,
41.5468750000,5,1.0319210291,,,
41.5625000000,5,1.3152470589,,,
41.5781250000,5,1.5014040470,,,
41.5937500000,5,1.6011350155,,,
41.6093750000,5,1.6256099939,,,
41.6250000000,5,1.5814820528,,,
41.6406250000,5,1.4673459530,,,
41.6562500000,5,1.2728270292,,,
41.6718750000,5,0.9884033203,,,
41.6875000000,5,0.6264647841,,,
41.7031250000,5,0.2308959961,,,
41.7187500000,5,-0.1513672024,,,
41.7343750000,5,-0.4658812881,,,
41.7500000000,5,-0.6964722276,,,
41.7656250000,5,-0.8708496094,,,
41.7812500000,5,-1.0237430334,,,
41.7968750000,5,-1.2211910486,,,
41.8125000000,5,-1.4852290154,,,
41.8281250000,5,-1.8190310001,,,
41.8437500000,5,-2.1707758904,,,
41.8593750000,5,-2.4417719841,,,
41.8750000000,5,-2.5172119141,,,
41.8906250000,5,-2.2864990234,,,
41.9062500000,5,-1.7012330294,,,
41.9218750000,5,-0.8068848252,,,
41.9375000000,5,0.2468262017,,,
41.9531250000,5,1.2239990234,,,
41.9687500000,5,1.8918459415,,,
41.9843750000,5,2.0926508904,,,
42.0000000000,5,1.8388060331,,,
42.0156250000,5,1.2727659941,,,
42.0312500000,5,0.6397705078,,,
42.0468750000,5,0.1781006008,,,
42.0625000000,5,0.0270385705,,,
42.0781250000,5,0.1893310994,,,
42.0937500000,5,0.5579833984,,,
42.1093750000,5,0.9602661133,,,
42.1250000000,5,1.2429809570,,,
42.1406250000,5,1.3063349724,,,
42.1562500000,5,1.1459959745,,,
42.1718750000,5,0.8107299805,,,
42.1875000000,5,0.3601684868,,,
42.2031250000,5,-0.1392821968,,,
42.2187500000,5,-0.6477661133,,,
42.2343750000,5,-1.1231080294,,,
42.2500000000,5,-1.5022579432,,,
42.2656250000,5,-1.7293699980,,,
42.2812500000,5,-1.7567750216,,,
42.2968750000,5,-1.5964360237,,,
42.3125000000,5,-1.3046259880,,,
42.3281250000,5,-0.9941406250,,,
42.3437500000,5,-0.7655640244,,,
42.3593750000,5,-0.6765747070,,,
42.3750000000,5,-0.7064208984,,,
42.3906250000,5,-0.7630615234,,,
42.4062500000,5,-0.7509766221,,,
42.4218750000,5,-0.6022949219,,,
42.4375000000,5,-0.3286133111,,,
42.4531250000,5,-0.0167236291,,,
42.4687500000,5,0.2217406929,,,
42.4843750000,5,0.2940062881,,,
42.5000000000,5,0.2141723931,,,
42.5156250000,5,0.0429077111,,,
42.5312500000,5,-0.1161499023,,,
42.5468750000,5,-0.1747436970,,,
42.5625000000,5,-0.0975952074,,,
42.5781250000,5,0.0975341797,,,
42.5937500000,5,0.3685303032,,,
42.6093750000,5,0.6638184190,,,
42.6250000000,5,0.9373779297,,,
42.6406250000,5,1.1337280273,,,
42.6562500000,5,1.2247920036,,,
42.6718750000,5,1.2123409510,,,
42.6875000000,5,1.1083979607,,,
42.7031250000,5,0.9464722276,,,
42.7187500000,5,0.7507935166,,,
42.7343750000,5,0.5394287109,,,
42.7500000000,5,0.3290404975,,,
42.7656250000,5,0.1568603963,,,
42.7812500000,5,0.0602416992,,,
42.7968750000,5,0.0620727502,,,
42.8125000000,5,0.1470946968,,,
42.8281250000,5,0.2449340969,,,
42.8437500000,5,0.2880249023,,,
42.8593750000,5,0.2433471978,,,
42.8750000000,5,0.1459960938,,,
42.8906250000,5,0.0941162109,,,
42.9062500000,5,0.1564331055,,,
42.9218750000,5,0.3563843071,,,
42.9375000000,5,0.6198120117,,,
42.9531250000,5,0.8621826172,,,
42.9687500000,5,1.0031130314,,,
42.9843750000,5,1.0349730253,,,
43.0000000000,5,1.0052490234,,,
43.0156250000,5,0.9721680284,,,
43.0312500000,5,0.9357910156,,,
43.0468750000,5,0.8411865234,,,
43.0625000000,5,0.5957031250,,,
43.0781250000,5,0.1186522990,,,
43.0937500000,5,-0.6004639268,,,
43.1093750000,5,-1.4848020077,,,
43.1250000000,5,-2.3651731014,,,
43.1406250000,5,-3.0435180664,,,
43.1562500000,5,-3.3522949219,,,
43.1718750000,5,-3.1950070858,,,
43.1875000000,5,-2.5927729607,,,
43.2031250000,5,-1.6657099724,,,
43.2187500000,5,-0.5947266221,,,
43.2343750000,5,0.4340820014,,,
43.2500000000,5,1.2695310116,,,
43.2656250000,5,1.8264160156,,,
43.2812500000,5,2.0900270939,,,
43.2968750000,5,2.0941770077,,,
43.3125000000,5,1.8929439783,,,
43.3281250000,5,1.5453490019,,,
43.3437500000,5,1.1212769747,,,
43.3593750000,5,0.6798095703,,,
43.3750000000,5,0.2762450874,,,
43.3906250000,5,-0.0699462891,,,
43.4062500000,5,-0.3933104873,,,
43.4218750000,5,-0.7384033203,,,
43.4375000000,5,-1.1523439884,,,
43.4531250000,5,-1.5926510096,,,
43.4687500000,5,-1.9447629452,,,
43.4843750000,5,-2.0510249138,,,
43.5000000000,5,-1.7957760096,,,
43.5156250000,5,-1.1828000546,,,
43.5312500000,5,-0.3626098931,,,
43.5468750000,5,0.4362182915,,,
43.5625000000,5,1.0148930550,,,
43.5781250000,5,1.3088990450,,,
43.5937500000,5,1.3923339844,,,
43.6093750000,5,1.3989870548,,,
43.6250000000,5,1.4374389648,,,
43.6406250000,5,1.5209959745,,,
43.6562500000,5,1.5748289824,,,
43.6718750000,5,1.5272829533,,,
43.6875000000,5,1.3560789824,,,
43.7031250000,5,1.1081540585,,,
43.7187500000,5,0.8585814834,,,
43.7343750000,5,0.6537476182,,,
43.7500000000,5,0.4998778999,,,
43.7656250000,5,0.3685303032,,,
43.7812500000,5,0.2456054986,,,
43.7968750000,5,0.1599730998,,,
43.8125000000,5,0.1494141072,,,
43.8281250000,5,0.2499389946,,,
43.8437500000,5,0.4556274116,,,
43.8593750000,5,0.6948853135,,,
43.8750000000,5,0.8746337891,,,
43.8906250000,5,0.9348754883,,,
43.9062500000,5,0.8541870117,,,
43.9218750000,5,0.6730957031,,,
43.9375000000,5,0.4498291016,,,
43.9531250000,5,0.2412720025,,,
43.9687500000,5,0.0800781325,,,
43.9843750000,5,-0.0313720703,,,
44.0000000000,5,-0.0773315430,,,
44.0156250000,5,-0.0299682599,,,
44.0312500000,5,0.1258545071,,,
44.0468750000,5,0.3897705078,,,
44.0625000000,5,0.7059937119,,,
44.0781250000,5,0.9910889268,,,
44.0937500000,5,1.1618649960,,,
44.1093750000,5,1.1848750114,,,
44.1250000000,5,1.0836180449,,,
44.1406250000,5,0.9188842773,,,
44.1562500000,5,0.7282714844,,,
44.1718750000,5,0.4990234077,,,
44.1875000000,5,0.1857299954,,,
44.2031250000,5,-0.2313843071,,,
44.2187500000,5,-0.6877440810,,,
44.2343750000,5,-1.0524899960,,,
44.2500000000,5,-1.1831049919,,,
44.2656250000,5,-1.0042719841,,,
44.2812500000,5,-0.5709229112,,,
44.2968750000,5,-0.0548706092,,,
44.3125000000,5,0.3247070014,,,
44.3281250000,5,0.4092406929,,,
44.3437500000,5,0.1528320014,,,
44.3593750000,5,-0.3396606147,,,
44.3750000000,5,-0.8945922852,,,
44.3906250000,5,-1.3430789709,,,
44.4062500000,5,-1.6080319881,,,
44.4218750000,5,-1.7184449434,,,
44.4375000000,5,-1.7684329748,,,
44.4531250000,5,-1.8573000431,,,
44.4687500000,5,-2.0088500977,,,
44.4843750000,5,-2.1818239689,,,
44.5000000000,5,-2.2863769531,,,
44.5156250000,5,-2.2583620548,,,
44.5312500000,5,-2.1070559025,,,
44.5468750000,5,-1.9116820097,,,
44.5625000000,5,-1.7492070198,,,
44.5781250000,5,-1.6447750330,,,
44.5937500000,5,-1.5590209961,,,
44.6093750000,5,-1.4390870333,,,
44.6250000000,5,-1.2628170252,,,
44.6406250000,5,-1.0694580078,,,
44.6562500000,5,-0.9070435166,,,
44.6718750000,5,-0.7780761719,,,
44.6875000000,5,-0.6165161133,,,
44.7031250000,5,-0.3505859077,,,
44.7187500000,5,0.0305175800,,,
44.7343750000,5,0.4337157905,,,
44.7500000000,5,0.7028198242,,,
44.7656250000,5,0.7296752930,,,
44.7812500000,5,0.5161743164,,,
44.7968750000,5,0.1988524944,,,
44.8125000000,5,-0.0265502892,,,
44.8281250000,5,-0.0184326209,,,
44.8437500000,5,0.2186278999,,,
44.8593750000,5,0.5764160156,,,
44.8750000000,5,0.8885498047,,,
44.8906250000,5,1.0715939999,,,
44.9062500000,5,1.1407469511,,,
44.9218750000,5,1.1849980354,,,
44.9375000000,5,1.2812500000,,,
44.9531250000,5,1.4328609705,,,
44.9687500000,5,1.5794069767,,,
44.9843750000,5,1.6402590275,,,
45.0000000000,5,1.5685420036,,,
45.0156250000,5,1.3867189884,,,
45.0312500000,5,1.1528320313,,,
45.0468750000,5,0.9316406250,,,
45.0625000000,5,0.7636107802,,,
45.0781250000,5,0.6442871094,,,
45.0937500000,5,0.5538330078,,,
45.1093750000,5,0.4508056939,,,
45.1250000000,5,0.3242797852,,,
45.1406250000,5,0.1863403022,,,
45.1562500000,5,0.0729980469,,,
45.1718750000,5,0.0167236291,,,
45.1875000000,5,0.0289306603,,,
45.2031250000,5,0.0814819336,,,
45.2187500000,5,0.1051635966,,,
45.2343750000,5,0.0225219708,,,
45.2500000000,5,-0.2200316936,,,
45.2656250000,5,-0.6119384766,,,
45.2812500000,5,-1.0896610022,,,
45.2968750000,5,-1.5594480038,,,
45.3125000000,5,-1.9218750000,,,
45.3281250000,5,-2.1218869686,,,
45.3437500000,5,-2.1272580624,,,
45.3593750000,5,-1.9140009880,,,
45.3750000000,5,-1.4874880314,,,
45.3906250000,5,-0.8901978135,,,
45.4062500000,5,-0.2243041992,,,
45.4218750000,5,0.3482055962,,,
45.4375000000,5,0.6683350205,,,
45.4531250000,5,0.6519165039,,,
45.4687500000,5,0.3568725884,,,
45.4843750000,5,-0.0429687500,,,
45.5000000000,5,-0.3373413086,,,
45.5156250000,5,-0.3750610054,,,
45.5312500000,5,-0.1707153022,,,
45.5468750000,5,0.1229858026,,,
45.5625000000,5,0.3074341118,,,
45.5781250000,5,0.2471313030,,,
45.5937500000,5,-0.0319824181,,,
45.6093750000,5,-0.3565674126,,,
45.6250000000,5,-0.5203247070,,,
45.6406250000,5,-0.3980103135,,,
45.6562500000,5,-0.0263061505,,,
45.6718750000,5,0.4266357124,,,
45.6875000000,5,0.7703247070,,,
45.7031250000,5,0.8969116211,,,
45.7187500000,5,0.8148192763,,,
45.7343750000,5,0.6213378906,,,
45.7500000000,5,0.4007568061,,,
45.7656250000,5,0.1900635064,,,
45.7812500000,5,-0.0335083008,,,
45.7968750000,5,-0.2985840142,,,
45.8125000000,5,-0.5784301758,,,
45.8281250000,5,-0.8034667969,,,
45.8437500000,5,-0.9193115234,,,
45.8593750000,5,-0.9174193740,,,
45.8750000000,5,-0.8505858779,,,
45.8906250000,5,-0.7979735732,,,
45.9062500000,5,-0.7855834961,,,
45.9218750000,5,-0.7979735732,,,
45.9375000000,5,-0.7789307237,,,
45.9531250000,5,-0.6853638291,,,
45.9687500000,5,-0.5140991211,,,
45.9843750000,5,-0.2910155952,,,
46.0000000000,5,-0.0521850586,,,
46.0156250000,5,0.2055664063,,,
46.0312500000,5,0.4934082031,,,
46.0468750000,5,0.8338013291,,,
46.0625000000,5,1.2199100256,,,
46.0781250000,5,1.6105959415,,,
46.0937500000,5,1.9397579432,,,
46.1093750000,5,2.1547849178,,,
46.1250000000,5,2.2117919922,,,
46.1406250000,5,2.0959470272,,,
46.1562500000,5,1.8227540255,,,
46.1718750000,5,1.4349980354,,,
46.1875000000,5,1.0076290369,,,
46.2031250000,5,0.6286621094,,,
46.2187500000,5,0.3777466118,,,
46.2343750000,5,0.3148804009,,,
46.2500000000,5,0.4397583008,,,
46.2656250000,5,0.7185668945,,,
46.2812500000,5,1.0614010096,,,
46.2968750000,5,1.3686519861,,,
46.3125000000,5,1.5095829964,,,
46.3281250000,5,1.3945310116,,,
46.3437500000,5,0.9885864258,,,
46.3593750000,5,0.3495483100,,,
46.3750000000,5,-0.3776245117,,,
46.3906250000,5,-1.0232540369,,,
46.4062500000,5,-1.4561769962,,,
46.4218750000,5,-1.6375119686,,,
46.4375000000,5,-1.6095579863,,,
46.4531250000,5,-1.4563599825,,,
46.4687500000,5,-1.2355959415,,,
46.4843750000,5,-0.9452515244,,,
46.5000000000,5,-0.5499877930,,,
46.5156250000,5,-0.0238647498,,,
46.5312500000,5,0.5959473252,,,
46.5468750000,5,1.2170410156,,,
46.5625000000,5,1.7142330408,,,
46.5781250000,5,1.9815670252,,,
46.5937500000,5,1.9805300236,,,
46.6093750000,5,1.7332760096,,,
46.6250000000,5,1.3215939999,,,
46.6406250000,5,0.8300170898,,,
46.6562500000,5,0.3409424126,,,
46.6718750000,5,-0.0946655273,,,
46.6875000000,5,-0.4308471978,,,
46.7031250000,5,-0.6560059190,,,
46.7187500000,5,-0.7751464844,,,
46.7343750000,5,-0.8289185166,,,
46.7500000000,5,-0.8782958984,,,
46.7656250000,5,-0.9725341797,,,
46.7812500000,5,-1.1511230469,,,
46.7968750000,5,-1.3753050566,,,
46.8125000000,5,-1.5628050566,,,
46.8281250000,5,-1.6141970158,,,
46.8437500000,5,-1.4730219841,,,
46.8593750000,5,-1.1552729607,,,
46.8750000000,5,-0.7519531250,,,
46.8906250000,5,-0.3842163086,,,
46.9062500000,5,-0.1299438030,,,
46.9218750000,5,-0.0070190430,,,
46.9375000000,5,0.0354003906,,,
46.9531250000,5,0.0336303711,,,
46.9687500000,5,-0.0113525400,,,
46.9843750000,5,-0.1457519978,,,
47.0000000000,5,-0.4017944038,,,
47.0156250000,5,-0.7601928711,,,
47.0312500000,5,-1.1212769747,,,
47.0468750000,5,-1.3468019962,,,
47.0625000000,5,-1.3377079964,,,
47.0781250000,5,-1.0902099609,,,
47.0937500000,5,-0.6942749023,,,
47.1093750000,5,-0.2869873047,,,
47.1250000000,5,0.0154418899,,,
47.1406250000,5,0.1616820991,,,
47.1562500000,5,0.1716309041,,,
47.1718750000,5,0.1105957031,,,
47.1875000000,5,0.0375976600,,,
47.2031250000,5,0.0036010740,,,
47.2187500000,5,0.0465087891,,,
47.2343750000,5,0.1930541992,,,
47.2500000000,5,0.4368895888,,,
47.2656250000,5,0.7426757813,,,
47.2812500000,5,1.0511469841,,,
47.2968750000,5,1.2895510197,,,
47.3125000000,5,1.4226069450,,,
47.3281250000,5,1.4512939453,,,
47.3437500000,5,1.4007569551,,,
47.3593750000,5,1.2839970589,,,
47.3750000000,5,1.0924680233,,,
47.3906250000,5,0.8167725205,,,
47.4062500000,5,0.4630126953,,,
47.4218750000,5,0.0998535231,,,
47.4375000000,5,-0.1776732951,,,
47.4531250000,5,-0.3071899116,,,
47.4687500000,5,-0.2841187119,,,
47.4843750000,5,-0.1910399944,,,
47.5000000000,5,-0.1394042969,,,
47.5156250000,5,-0.2084351033,,,
47.5312500000,5,-0.4015502930,,,
47.5468750000,5,-0.6551514268,,,
47.5625000000,5,-0.8652343750,,,
47.5781250000,5,-0.9632567763,,,
47.5937500000,5,-0.9354248047,,,
47.6093750000,5,-0.8238524795,,,
47.6250000000,5,-0.7095336914,,,
47.6406250000,5,-0.6632080078,,,
47.6562500000,5,-0.7256469727,,,
47.6718750000,5,-0.8788452148,,,
47.6875000000,5,-1.0827640295,,,
47.7031250000,5,-1.2639160156,,,
47.7187500000,5,-1.3800050020,,,
47.7343750000,5,-1.3992309570,,,
47.7500000000,5,-1.3281250000,,,
47.7656250000,5,-1.1911009550,,,
47.7812500000,5,-1.0130620003,,,
47.7968750000,5,-0.8287354112,,,
47.8125000000,5,-0.6565551758,,,
47.8281250000,5,-0.5330200195,,,
47.8437500000,5,-0.4792479873,,,
47.8593750000,5,-0.5051879883,,,
47.8750000000,5,-0.6051024795,,,
47.8906250000,5,-0.7518311143,,,
47.9062500000,5,-0.9341431260,,,
47.9218750000,5,-1.1108399630,,,
47.9375000000,5,-1.2152709961,,,
47.9531250000,5,-1.1724239588,,,
47.9687500000,5,-0.9091187119,,,
47.9843750000,5,-0.4159545898,,,
48.0000000000,6,0.2128296047,,,
48.0156250000,6,0.8062744141,,,
48.0312500000,6,1.2033690214,,,
48.0468750000,6,1.3211059570,,,
48.0625000000,6,1.2109990120,,,
48.0781250000,6,1.0183720589,,,
48.0937500000,6,0.8831176758,,,
48.1093750000,6,0.8688353896,,,
48.1250000000,6,0.9360961914,,,
48.1406250000,6,0.9926757813,,,
48.1562500000,6,0.9791259766,,,
48.1718750000,6,0.9203491211,,,
48.1875000000,6,0.8735961914,,,
48.2031250000,6,0.8894652724,,,
48.2187500000,6,0.9451904297,,,
48.2343750000,6,0.9688720703,,,
48.2500000000,6,0.8876953125,,,
48.2656250000,6,0.7108154297,,,
48.2812500000,6,0.5336303711,,,
48.2968750000,6,0.4876098931,,,
48.3125000000,6,0.6532592773,,,
48.3281250000,6,0.9805908203,,,
48.3437500000,6,1.2918699980,,,
48.3593750000,6,1.3814090490,,,
48.3750000000,6,1.1207890511,,,
48.3906250000,6,0.5642700195,,,
48.4062500000,6,-0.0819091797,,,
48.4218750000,6,-0.5791016221,,,
48.4375000000,6,-0.7747191787,,,
48.4531250000,6,-0.6965332031,,,
48.4687500000,6,-0.5147094727,,,
48.4843750000,6,-0.4186401069,,,
48.5000000000,6,-0.4787597954,,,
48.5156250000,6,-0.6138916016,,,
48.5312500000,6,-0.6438599229,,,
48.5468750000,6,-0.4231567085,,,
48.5625000000,6,0.0497436486,,,
48.5781250000,6,0.6240844727,,,
48.5937500000,6,1.0700680017,,,
48.6093750000,6,1.2325439453,,,
48.6250000000,6,1.1010129452,,,
48.6406250000,6,0.7930908203,,,
48.6562500000,6,0.4558716118,,,
48.6718750000,6,0.1868285984,,,
48.6875000000,6,-0.0075073242,,,
48.7031250000,6,-0.1848755032,,,
48.7187500000,6,-0.3820190132,,,
48.7343750000,6,-0.6026000977,,,
48.7500000000,6,-0.8026123047,,,
48.7656250000,6,-0.9552001953,,,
48.7812500000,6,-1.0502320528,,,
48.7968750000,6,-1.1154789925,,,
48.8125000000,6,-1.1566159725,,,
48.8281250000,6,-1.1351319551,,,
48.8437500000,6,-1.0104980469,,,
48.8593750000,6,-0.7454833984,,,
48.8750000000,6,-0.3755492866,,,
48.8906250000,6,0.0274047907,,,
48.9062500000,6,0.3794555962,,,
48.9218750000,6,0.6399536133,,,
48.9375000000,6,0.8152465820,,,
48.9531250000,6,0.9634398818,,,
48.9687500000,6,1.1331789494,,,
48.9843750000,6,1.3386839628,,,
49.0000000000,6,1.5651860237,,,
49.0156250000,6,1.7760620117,,,
49.0312500000,6,1.9209589958,,,
49.0468750000,6,1.9505000114,,,
49.0625000000,6,1.8164670467,,,
49.0781250000,6,1.5050660372,,,
49.0937500000,6,1.0283199549,,,
49.1093750000,6,0.4569702148,,,
49.1250000000,6,-0.1141967997,,,
49.1406250000,6,-0.5776367188,,,
49.1562500000,6,-0.8723145127,,,
49.1718750000,6,-0.9797363281,,,
49.1875000000,6,-0.9412841797,,,
49.2031250000,6,-0.8433228135,,,
49.2187500000,6,-0.7764282227,,,
49.2343750000,6,-0.8274536133,,,
49.2500000000,6,-1.0292359591,,,
49.2656250000,6,-1.3422850370,,,
49.2812500000,6,-1.6461789608,,,
49.2968750000,6,-1.8317869902,,,
49.3125000000,6,-1.8262939453,,,
49.3281250000,6,-1.6494749784,,,
49.3437500000,6,-1.4019169807,,,
49.3593750000,6,-1.2126460075,,,
49.3750000000,6,-1.1409300566,,,
49.3906250000,6,-1.1709589958,,,
49.4062500000,6,-1.2119139433,,,
49.4218750000,6,-1.1762700081,,,
49.4375000000,6,-1.0336300135,,,
49.4531250000,6,-0.7977294922,,,
49.4687500000,6,-0.5062866211,,,
49.4843750000,6,-0.1882935017,,,
49.5000000000,6,0.1412964016,,,
49.5156250000,6,0.4688721001,,,
49.5312500000,6,0.7406005859,,,
49.5468750000,6,0.8901367188,,,
49.5625000000,6,0.8745728135,,,
49.5781250000,6,0.7333983779,,,
49.5937500000,6,0.5816649795,,,
49.6093750000,6,0.5568848252,,,
49.6250000000,6,0.7292479873,,,
49.6406250000,6,1.0618900061,,,
49.6562500000,6,1.4223020077,,,
49.6718750000,6,1.6803590059,,,
49.6875000000,6,1.7717289925,,,
49.7031250000,6,1.7252810001,,,
49.7187500000,6,1.6113890409,,,
49.7343750000,6,1.4742430449,,,
49.7500000000,6,1.2774050236,,,
49.7656250000,6,0.9387816787,,,
49.7812500000,6,0.3970946968,,,
49.7968750000,6,-0.3201293945,,,
49.8125000000,6,-1.0838619471,,,
49.8281250000,6,-1.6936650276,,,
49.8437500000,6,-1.9743649960,,,
49.8593750000,6,-1.8794560432,,,
49.8750000000,6,-1.4870610237,,,
49.8906250000,6,-0.9913330078,,,
49.9062500000,6,-0.5850219727,,,
49.9218750000,6,-0.3891601861,,,
49.9375000000,6,-0.4113770127,,,
49.9531250000,6,-0.5731201172,,,
49.9687500000,6,-0.7407227159,,,
49.9843750000,6,-0.8094481826,,,
50.0000000000,6,-0.7399291992,,,
50.0156250000,6,-0.5484619141,,,
50.0312500000,6,-0.2985840142,,,
50.0468750000,6,-0.0395507813,,,
50.0625000000,6,0.2130126953,,,
50.0781250000,6,0.4845581055,,,
50.0937500000,6,0.7996826172,,,
50.1093750000,6,1.1535639763,,,
50.1250000000,6,1.4923100471,,,
50.1406250000,6,1.7171629667,,,
50.1562500000,6,1.7286380529,,,
50.1718750000,6,1.4890749454,,,
50.1875000000,6,1.0405269861,,,
50.2031250000,6,0.5139160156,,,
50.2187500000,6,0.0679931566,,,
50.2343750000,6,-0.1571045071,,,
50.2500000000,6,-0.1151122972,,,
50.2656250000,6,0.1345214993,,,
50.2812500000,6,0.4528808892,,,
50.2968750000,6,0.7139282227,,,
50.3125000000,6,0.8320313096,,,
50.3281250000,6,0.8055419922,,,
50.3437500000,6,0.6939697266,,,
50.3593750000,6,0.5660399795,,,
50.3750000000,6,0.4718627930,,,
50.3906250000,6,0.4089966118,,,
50.4062500000,6,0.3321532905,,,
50.4218750000,6,0.1865845025,,,
50.4375000000,6,-0.0402831994,,,
50.4531250000,6,-0.3154296875,,,
50.4687500000,6,-0.5571898818,,,
50.4843750000,6,-0.7041625977,,,
50.5000000000,6,-0.7398071289,,,
50.5156250000,6,-0.7227172852,,,
50.5312500000,6,-0.7450562119,,,
50.5468750000,6,-0.8651123047,,,
50.5625000000,6,-1.0775150061,,,
50.5781250000,6,-1.2932130098,,,
50.5937500000,6,-1.4051510096,,,
50.6093750000,6,-1.3339840174,,,
50.6250000000,6,-1.0811159611,,,
50.6406250000,6,-0.7327880859,,,
50.6562500000,6,-0.3911742866,,,
50.6718750000,6,-0.1176758036,,,
50.6875000000,6,0.1043701023,,,
50.7031250000,6,0.3286742866,,,
50.7187500000,6,0.5822753906,,,
50.7343750000,6,0.8262329102,,,
50.7500000000,6,0.9783936143,,,
50.7656250000,6,0.9708251953,,,
50.7812500000,6,0.8034058213,,,
50.7968750000,6,0.5543212891,,,
50.8125000000,6,0.3425903022,,,
50.8281250000,6,0.2514038086,,,
50.8437500000,6,0.2889403999,,,
50.8593750000,6,0.3865356147,,,
50.8750000000,6,0.4420166016,,,
50.8906250000,6,0.3967284858,,,
50.9062500000,6,0.2711181939,,,
50.9218750000,6,0.1525879055,,,
50.9375000000,6,0.1191406026,,,
50.9531250000,6,0.1909790039,,,
50.9687500000,6,0.3096924126,,,
50.9843750000,6,0.3675537109,,,
51.0000000000,6,0.2948608100,,,
51.0156250000,6,0.0787963867,,,
51.0312500000,6,-0.2224120945,,,
51.0468750000,6,-0.5367432237,,,
51.0625000000,6,-0.8287963867,,,
51.0781250000,6,-1.1221309900,,,
51.0937500000,6,-1.4690550566,,,
51.1093750000,6,-1.8698120117,,,
51.1250000000,6,-2.2428588867,,,
51.1406250000,6,-2.4484250546,,,
51.1562500000,6,-2.3686521053,,,
51.1718750000,6,-1.9880369902,,,
51.1875000000,6,-1.4108279943,,,
51.2031250000,6,-0.8109130859,,,
51.2187500000,6,-0.3237304986,,,
51.2343750000,6,0.0093383789,,,
51.2500000000,6,0.2372436970,,,
51.2656250000,6,0.4229736030,,,
51.2812500000,6,0.6096190810,,,
51.2968750000,6,0.7707520127,,,
51.3125000000,6,0.9035645127,,,
51.3281250000,6,1.0261839628,,,
51.3437500000,6,1.1916500330,,,
51.3593750000,6,1.4240109921,,,
51.3750000000,6,1.6877440214,,,
51.3906250000,6,1.8833620548,,,
51.4062500000,6,1.8978270292,,,
51.4218750000,6,1.6902470589,,,
51.4375000000,6,1.3014529943,,,
51.4531250000,6,0.8215941787,,,
51.4687500000,6,0.3230591118,,,
51.4843750000,6,-0.1707763970,,,
51.5000000000,6,-0.6566162109,,,
51.5156250000,6,-1.0922240019,,,
51.5312500000,6,-1.3684079647,,,
51.5468750000,6,-1.3619999886,,,
51.5625000000,6,-1.0102540255,,,
51.5781250000,6,-0.4055176079,,,
51.5937500000,6,0.2185668945,,,
51.6093750000,6,0.6004027724,,,
51.6250000000,6,0.5851439834,,,
51.6406250000,6,0.2097778022,,,
51.6562500000,6,-0.3418579102,,,
51.6718750000,6,-0.8377686143,,,
51.6875000000,6,-1.1258540154,,,
51.7031250000,6,-1.1706540585,,,
51.7187500000,6,-1.0410159826,,,
51.7343750000,6,-0.8447266221,,,
51.7500000000,6,-0.6650391221,,,
51.7656250000,6,-0.5274047852,,,
51.7812500000,6,-0.4429931939,,,
51.7968750000,6,-0.4203490913,,,
51.8125000000,6,-0.4684447944,,,
51.8281250000,6,-0.5878295898,,,
51.8437500000,6,-0.7176514268,,,
51.8593750000,6,-0.7559813857,,,
51.8750000000,6,-0.5919188857,,,
51.8906250000,6,-0.1521605998,,,
51.9062500000,6,0.5381469727,,,
51.9218750000,6,1.3580930233,,,
51.9375000000,6,2.1145019531,,,
51.9531250000,6,2.6239008904,,,
51.9687500000,6,2.7796020508,,,
51.9843750000,6,2.5744628906,,,
52.0000000000,6,2.1149899960,,,
52.0156250000,6,1.5543819666,,,
52.0312500000,6,1.0355830193,,,
52.0468750000,6,0.6408081055,,,
52.0625000000,6,0.3775635064,,,
52.0781250000,6,0.1983031929,,,
52.0937500000,6,0.0396118201,,,
52.1093750000,6,-0.1531981975,,,
52.1250000000,6,-0.3897095025,,,
52.1406250000,6,-0.6523438096,,,
52.1562500000,6,-0.9015502930,,,
52.1718750000,6,-1.0950930119,,,
52.1875000000,6,-1.2237550020,,,
52.2031250000,6,-1.2999880314,,,
52.2187500000,6,-1.3472290039,,,
52.2343750000,6,-1.3795169592,,,
52.2500000000,6,-1.3981930017,,,
52.2656250000,6,-1.3716429472,,,
52.2812500000,6,-1.2823489904,,,
52.2968750000,6,-1.1265870333,,,
52.3125000000,6,-0.9330443740,,,
52.3281250000,6,-0.7570800781,,,
52.3437500000,6,-0.6334229112,,,
52.3593750000,6,-0.5599365234,,,
52.3750000000,6,-0.5094603896,,,
52.3906250000,6,-0.4454346001,,,
52.4062500000,6,-0.3538208008,,,
52.4218750000,6,-0.2627562881,,,
52.4375000000,6,-0.2145995945,,,
52.4531250000,6,-0.2333983928,,,
52.4687500000,6,-0.2862549126,,,
52.4843750000,6,-0.2901611030,,,
52.5000000000,6,-0.1403809041,,,
52.5156250000,6,0.2286987007,,,
52.5312500000,6,0.8117064834,,,
52.5468750000,6,1.5055539608,,,
52.5625000000,6,2.1595458984,,,
52.5781250000,6,2.6213989258,,,
52.5937500000,6,2.8049929142,,,
52.6093750000,6,2.6847529411,,,
52.6250000000,6,2.3257451057,,,
52.6406250000,6,1.8215939999,,,
52.6562500000,6,1.2627559900,,,
52.6718750000,6,0.7182617188,,,
52.6875000000,6,0.2387084961,,,
52.7031250000,6,-0.1546020955,,,
52.7187500000,6,-0.4534302056,,,
52.7343750000,6,-0.6744995117,,,
52.7500000000,6,-0.8664550781,,,
52.7656250000,6,-1.1001590490,,,
52.7812500000,6,-1.4361569881,,,
52.7968750000,6,-1.8996579647,,,
52.8125000000,6,-2.4523930550,,,
52.8281250000,6,-2.9888920784,,,
52.8437500000,6,-3.3754270077,,,
52.8593750000,6,-3.5034179688,,,
52.8750000000,6,-3.3295900822,,,
52.8906250000,6,-2.8887939453,,,
52.9062500000,6,-2.2738039494,,,
52.9218750000,6,-1.5817259550,,,
52.9375000000,6,-0.8834229112,,,
52.9531250000,6,-0.2090453953,,,
52.9687500000,6,0.4212645888,,,
52.9843750000,6,0.9764404297,,,
53.0000000000,6,1.4003909826,,,
53.0156250000,6,1.6475219727,,,
53.0312500000,6,1.7097779512,,,
53.0468750000,6,1.6296999454,,,
53.0625000000,6,1.4873050451,,,
53.0781250000,6,1.3654789925,,,
53.0937500000,6,1.3044430017,,,
53.1093750000,6,1.2941279411,,,
53.1250000000,6,1.2880250216,,,
53.1406250000,6,1.2427979708,,,
53.1562500000,6,1.1306760311,,,
53.1718750000,6,0.9490355849,,,
53.1875000000,6,0.7175902724,,,
53.2031250000,6,0.4752196968,,,
53.2187500000,6,0.2752074897,,,
53.2343750000,6,0.1683350056,,,
53.2500000000,6,0.1796875000,,,
53.2656250000,6,0.2702026069,,,
53.2812500000,6,0.3648070991,,,
53.2968750000,6,0.3773193061,,,
53.3125000000,6,0.2689819038,,,
53.3281250000,6,0.0745239332,,,
53.3437500000,6,-0.1147461012,,,
53.3593750000,6,-0.2384644002,,,
53.3750000000,6,-0.2990722954,,,
53.3906250000,6,-0.3653563857,,,
53.4062500000,6,-0.5142211914,,,
53.4218750000,6,-0.7622681260,,,
53.4375000000,6,-1.0433959961,,,
53.4531250000,6,-1.2369379997,,,
53.4687500000,6,-1.2681879997,,,
53.4843750000,6,-1.1359859705,,,
53.5000000000,6,-0.9319458008,,,
53.5156250000,6,-0.7630615234,,,
53.5312500000,6,-0.6689453125,,,
53.5468750000,6,-0.6141967773,,,
53.5625000000,6,-0.5128784180,,,
53.5781250000,6,-0.2951050103,,,
53.5937500000,6,0.0186157208,,,
53.6093750000,6,0.3247070014,,,
53.6250000000,6,0.4764403999,,,
53.6406250000,6,0.3894042969,,,
53.6562500000,6,0.0780639574,,,
53.6718750000,6,-0.3014526069,,,
53.6875000000,6,-0.5651854873,,,
53.7031250000,6,-0.5576171875,,,
53.7187500000,6,-0.2662354112,,,
53.7343750000,6,0.1817017049,,,
53.7500000000,6,0.6007080078,,,
53.7656250000,6,0.8424072266,,,
53.7812500000,6,0.9234008789,,,
53.7968750000,6,0.9837036133,,,
53.8125000000,6,1.2260129452,,,
53.8281250000,6,1.7676999569,,,
53.8437500000,6,2.5825200081,,,
53.8593750000,6,3.4818730354,,,
53.8750000000,6,4.2225952148,,,
53.8906250000,6,4.6082758904,,,
53.9062500000,6,4.5672612190,,,
53.9218750000,6,4.1314091682,,,
53.9375000000,6,3.4043579102,,,
53.9531250000,6,2.5181269646,,,
53.9687500000,6,1.5669560432,,,
53.9843750000,6,0.6480712891,,,
54.0000000000,6,-0.1614989936,,,
54.0156250000,6,-0.7898560166,,,
54.0312500000,6,-1.1785279512,,,
54.0468750000,6,-1.3181760311,,,
54.0625000000,6,-1.2588499784,,,
54.0781250000,6,-1.1010129452,,,
54.0937500000,6,-0.9620972276,,,
54.1093750000,6,-0.9279785156,,,
54.1250000000,6,-1.0300290585,,,
54.1406250000,6,-1.2273559570,,,
54.1562500000,6,-1.4575200081,,,
54.1718750000,6,-1.6357419491,,,
54.1875000000,6,-1.7150269747,,,
54.2031250000,6,-1.6659549475,,,
54.2187500000,6,-1.5021970272,,,
54.2343750000,6,-1.2491459846,,,
54.2500000000,6,-0.9566040039,,,
54.2656250000,6,-0.6817626953,,,
54.2812500000,6,-0.4645996094,,,
54.2968750000,6,-0.3296509087,,,
54.3125000000,6,-0.2811278999,,,
54.3281250000,6,-0.3046264946,,,
54.3437500000,6,-0.3814696968,,,
54.3593750000,6,-0.5228881836,,,
54.3750000000,6,-0.7280272841,,,
54.3906250000,6,-1.0010379553,,,
54.4062500000,6,-1.3020019531,,,
54.4218750000,6,-1.5668330193,,,
54.4375000000,6,-1.7258909941,,,
54.4531250000,6,-1.7257080078,,,
54.4687500000,6,-1.5812989473,,,
54.4843750000,6,-1.3602910042,,,
54.5000000000,6,-1.1704709530,,,
54.5156250000,6,-1.1068730354,,,
54.5312500000,6,-1.2006230354,,,
54.5468750000,6,-1.4193730354,,,
54.5625000000,6,-1.6679079533,,,
54.5781250000,6,-1.8221440315,,,
54.5937500000,6,-1.7865600586,,,
54.6093750000,6,-1.5308229923,,,
54.6250000000,6,-1.0749510527,,,
54.6406250000,6,-0.4989013970,,,
54.6562500000,6,0.1084595025,,,
54.6718750000,6,0.6580200195,,,
54.6875000000,6,1.0711669922,,,
54.7031250000,6,1.2990109921,,,
54.7187500000,6,1.3217769861,,,
54.7343750000,6,1.1909179688,,,
54.7500000000,6,1.0131839514,,,
54.7656250000,6,0.9023438096,,,
54.7812500000,6,0.9157714844,,,
54.7968750000,6,1.0277709961,,,
54.8125000000,6,1.1118160486,,,
54.8281250000,6,1.0429079533,,,
54.8437500000,6,0.7590941787,,,
54.8593750000,6,0.2913818061,,,
54.8750000000,6,-0.2254028022,,,
54.8906250000,6,-0.6428833008,,,
54.9062500000,6,-0.8460692763,,,
54.9218750000,6,-0.8092041016,,,
54.9375000000,6,-0.5808715820,,,
54.9531250000,6,-0.2433471978,,,
54.9687500000,6,0.1270142049,,,
54.9843750000,6,0.4948729873,,,
55.0000000000,6,0.8668823242,,,
55.0156250000,6,1.2530519962,,,
55.0312500000,6,1.6296390295,,,
55.0468750000,6,1.9306639433,,,
55.0625000000,6,2.0292971134,,,
55.0781250000,6,1.8303829432,,,
55.0937500000,6,1.3013310432,,,
55.1093750000,6,0.5197144151,,,
55.1250000000,6,-0.3278808892,,,
55.1406250000,6,-1.0274050236,,,
55.1562500000,6,-1.4177249670,,,
55.1718750000,6,-1.4675899744,,,
55.1875000000,6,-1.2687989473,,,
55.2031250000,6,-0.9729003906,,,
55.2187500000,6,-0.6979979873,,,
55.2343750000,6,-0.4897460938,,,
55.2500000000,6,-0.3168945014,,,
55.2656250000,6,-0.1248778999,,,
55.2812500000,6,0.1011962965,,,
55.2968750000,6,0.3178710938,,,
55.3125000000,6,0.4371947944,,,
55.3281250000,6,0.3925170898,,,
55.3437500000,6,0.1832274944,,,
55.3593750000,6,-0.1076050028,,,
55.3750000000,6,-0.3709717095,,,
55.3906250000,6,-0.5037841797,,,
55.4062500000,6,-0.4700317085,,,
55.4218750000,6,-0.3152466118,,,
55.4375000000,6,-0.1089477986,,,
55.4531250000,6,0.0898437500,,,
55.4687500000,6,0.2648926079,,,
55.4843750000,6,0.4165649116,,,
55.5000000000,6,0.5482177734,,,
55.5156250000,6,0.6364135742,,,
55.5312500000,6,0.6289063096,,,
55.5468750000,6,0.5095825195,,,
55.5625000000,6,0.2934570014,,,
55.5781250000,6,0.0739135668,,,
55.5937500000,6,-0.0435180701,,,
55.6093750000,6,0.0213622991,,,
55.6250000000,6,0.2609252930,,,
55.6406250000,6,0.5898438096,,,
55.6562500000,6,0.8931273818,,,
55.6718750000,6,1.0803829432,,,
55.6875000000,6,1.1113280058,,,
55.7031250000,6,0.9951171875,,,
55.7187500000,6,0.7807617188,,,
55.7343750000,6,0.5162963867,,,
55.7500000000,6,0.2457274944,,,
55.7656250000,6,-0.0103149395,,,
55.7812500000,6,-0.2507323921,,,
55.7968750000,6,-0.4919433892,,,
55.8125000000,6,-0.7615355849,,,
55.8281250000,6,-1.0700680017,,,
55.8437500000,6,-1.3807979822,,,
55.8593750000,6,-1.5945429802,,,
55.8750000000,6,-1.6158449650,,,
55.8906250000,6,-1.3831180334,,,
55.9062500000,6,-0.9328002930,,,
55.9218750000,6,-0.4070434868,,,
55.9375000000,6,0.0300903302,,,
55.9531250000,6,0.2489013970,,,
55.9687500000,6,0.2406616062,,,
55.9843750000,6,0.0955200195,,,
56.0000000000,7,-0.0451049805,,,
56.0156250000,7,-0.0865478516,,,
56.0312500000,7,-0.0195312500,,,
56.0468750000,7,0.0788574219,,,
56.0625000000,7,0.0895385668,,,
56.0781250000,7,-0.0606689490,,,
56.0937500000,7,-0.3627319038,,,
56.1093750000,7,-0.7296752930,,,
56.1250000000,7,-1.0368039608,,,
56.1406250000,7,-1.1893919706,,,
56.1562500000,7,-1.1747440100,,,
56.1718750000,7,-1.0538940430,,,
