Time:64Hz,Epoch,Channel 1,Event Id,Event Date,Event Duration
0.0000000000,0,-1.4106450081,,,
0.0156250000,0,-1.2670899630,,,
0.0312500000,0,-0.9879149795,,,
0.0468750000,0,-0.5739746094,,,
0.0625000000,0,-0.0480956994,,,
0.0781250000,0,0.5401610732,,,
0.0937500000,0,1.1154789925,,,
0.1093750000,0,1.5969239473,,,
0.1250000000,0,1.9016109705,,,
0.1406250000,0,1.9718019962,,,
0.1562500000,0,1.8000489473,,,
0.1718750000,0,1.4421390295,,,
0.1875000000,0,0.9985352159,,,
0.2031250000,0,0.5595703125,,,
0.2187500000,0,0.1839600056,,,
0.2343750000,0,-0.1208496019,,,
0.2500000000,0,-0.3823241889,,,
0.2656250000,0,-0.6044921875,,,
0.2812500000,0,-0.7496337891,,,
0.2968750000,0,-0.7486572266,,,
0.3125000000,0,-0.5496826172,,,
0.3281250000,0,-0.1785888970,,,
0.3437500000,0,0.2384033054,,,
0.3593750000,0,0.5223389268,,,
0.3750000000,0,0.5019531250,,,
0.3906250000,0,0.1243895963,,,
0.4062500000,0,-0.5440673828,,,
0.4218750000,0,-1.3073730469,,,
0.4375000000,0,-1.9173580408,,,
0.4531250000,0,-2.1822509766,,,
0.4687500000,0,-2.0511469841,,,
0.4843750000,0,-1.6202390194,,,
0.5000000000,0,-1.0919189453,,,
0.5156250000,0,-0.6750488281,,,
0.5312500000,0,-0.4757080078,,,
0.5468750000,0,-0.4625244141,,,
0.5625000000,0,-0.4910888970,,,
0.5781250000,0,-0.3778075874,,,
0.5937500000,0,-0.0151367197,,,
0.6093750000,0,0.5788574219,,,
0.6250000000,0,1.2557369471,,,
0.6406250000,0,1.8178709745,,,
0.6562500000,0,2.0996088982,,,
0.6718750000,0,2.0455319881,,,
0.6875000000,0,1.7171629667,,,
0.7031250000,0,1.2397459745,,,
0.7187500000,0,0.7457274795,,,
0.7343750000,0,0.3179931939,,,
0.7500000000,0,-0.0225830097,,,
0.7656250000,0,-0.2747803032,,,
0.7812500000,0,-0.4530028999,,,
0.7968750000,0,-0.5418701172,,,
0.8125000000,0,-0.5399169922,,,
0.8281250000,0,-0.4593505859,,,
0.8437500000,0,-0.3426513970,,,
0.8593750000,0,-0.2336425930,,,
0.8750000000,0,-0.1723632962,,,
0.8906250000,0,-0.1632079929,,,
0.9062500000,0,-0.2076416016,,,
0.9218750000,0,-0.3217773139,,,
0.9375000000,0,-0.5268555284,,,
0.9531250000,0,-0.8380126953,,,
0.9687500000,0,-1.2144780159,,,
0.9843750000,0,-1.5561519861,,,
1.0000000000,0,-1.7293699980,,,
1.0156250000,0,-1.6373289824,,,
1.0312500000,0,-1.2860109806,,,
1.0468750000,0,-0.8004149795,,,
1.0625000000,0,-0.3846436143,,,
1.0781250000,0,-0.2298583984,,,
1.0937500000,0,-0.4187012017,,,
1.1093750000,0,-0.8759766221,,,
1.1250000000,0,-1.3973389864,,,
1.1406250000,0,-1.7404789925,,,
1.1562500000,0,-1.7431639433,,,
1.1718750000,0,-1.3834229708,,,
1.1875000000,0,-0.7924805284,,,
1.2031250000,0,-0.1879882962,,,
1.2187500000,0,0.2526854873,,,
1.2343750000,0,0.4544678032,,,
1.2500000000,0,0.4699707031,,,
1.2656250000,0,0.4147948921,,,
1.2812500000,0,0.4017333984,,,
1.2968750000,0,0.4901123047,,,
1.3125000000,0,0.6578369141,,,
1.3281250000,0,0.8660889268,,,
1.3437500000,0,1.0615229607,,,
1.3593750000,0,1.2375489473,,,
1.3750000000,0,1.3763430119,,,
1.3906250000,0,1.4732669592,,,
1.4062500000,0,1.5076899529,,,
1.4218750000,0,1.4619139433,,,
1.4375000000,0,1.3306879997,,,
1.4531250000,0,1.1416020393,,,
1.4687500000,0,0.9458007813,,,
1.4843750000,0,0.7767333984,,,
1.5000000000,0,0.6346436143,,,
1.5156250000,0,0.4877929986,,,
1.5312500000,0,0.3121337891,,,
1.5468750000,0,0.1101073995,,,
1.5625000000,0,-0.0487060510,,,
1.5781250000,0,-0.0589599609,,,
1.5937500000,0,0.1640625000,,,
1.6093750000,0,0.6368408203,,,
1.6250000000,0,1.2569580078,,,
1.6406250000,0,1.8465579748,,,
1.6562500000,0,2.2286379337,,,
1.6718750000,0,2.3255620003,,,
1.6875000000,0,2.1855471134,,,
1.7031250000,0,1.9361569881,,,
1.7187500000,0,1.6923830509,,,
1.7343750000,0,1.4715579748,,,
1.7500000000,0,1.2072750330,,,
1.7656250000,0,0.8037108779,,,
1.7812500000,0,0.2592773139,,,
1.7968750000,0,-0.3114013970,,,
1.8125000000,0,-0.7280272841,,,
1.8281250000,0,-0.8522949219,,,
1.8437500000,0,-0.6768798828,,,
1.8593750000,0,-0.3270263970,,,
1.8750000000,0,-0.0251464806,,,
1.8906250000,0,0.0507812500,,,
1.9062500000,0,-0.1566161960,,,
1.9218750000,0,-0.5649414063,,,
1.9375000000,0,-1.0332030058,,,
1.9531250000,0,-1.4305419922,,,
1.9687500000,0,-1.7091059685,,,
1.9843750000,0,-1.8833010197,,,
2.0000000000,0,-2.0034179688,,,
2.0156250000,0,-2.0936279297,,,
2.0312500000,0,-2.1416020393,,,
2.0468750000,0,-2.1292719841,,,
2.0625000000,0,-2.0515139103,,,
2.0781250000,0,-1.9392089844,,,
2.0937500000,0,-1.8479000330,,,
2.1093750000,0,-1.8109129667,,,
2.1250000000,0,-1.8066409826,,,
2.1406250000,0,-1.7937010527,,,
2.1562500000,0,-1.7185059786,,,
2.1718750000,0,-1.5463869572,,,
2.1875000000,0,-1.2651369572,,,
2.2031250000,0,-0.8510742188,,,
2.2187500000,0,-0.2696532905,,,
2.2343750000,0,0.5008544922,,,
2.2500000000,0,1.4083249569,,,
2.2656250000,0,2.2884519100,,,
2.2812500000,0,2.9079589844,,,
2.2968750000,0,3.0544428825,,,
2.3125000000,0,2.6638178825,,,
2.3281250000,0,1.8424069881,,,
2.3437500000,0,0.8475341797,,,
2.3593750000,0,-0.0416259803,,,
2.3750000000,0,-0.6418457031,,,
2.3906250000,0,-0.9243164063,,,
2.4062500000,0,-0.9645996094,,,
2.4218750000,0,-0.8720703125,,,
2.4375000000,0,-0.7370604873,,,
2.4531250000,0,-0.5947266221,,,
2.4687500000,0,-0.4693604112,,,
2.4843750000,0,-0.3784179986,,,
2.5000000000,0,-0.3598633111,,,
2.5156250000,0,-0.4266357124,,,
2.5312500000,0,-0.5590819716,,,
2.5468750000,0,-0.6839600205,,,
2.5625000000,0,-0.6990966797,,,
2.5781250000,0,-0.5203856826,,,
2.5937500000,0,-0.1182861030,,,
2.6093750000,0,0.4392090142,,,
2.6250000000,0,1.0225830078,,,
2.6406250000,0,1.4633790255,,,
2.6562500000,0,1.6391600370,,,
2.6718750000,0,1.5203859806,,,
2.6875000000,0,1.1779789925,,,
2.7031250000,0,0.7551270127,,,
2.7187500000,0,0.3941650093,,,
2.7343750000,0,0.2032471001,,,
2.7500000000,0,0.1885986030,,,
2.7656250000,0,0.2736816108,,,
2.7812500000,0,0.3315429986,,,
2.7968750000,0,0.2469481975,,,
2.8125000000,0,-0.0270996094,,,
2.8281250000,0,-0.4410400093,,,
2.8437500000,0,-0.8696289063,,,
2.8593750000,0,-1.1750489473,,,
2.8750000000,0,-1.2475589514,,,
2.8906250000,0,-1.1101069450,,,
2.9062500000,0,-0.8624268174,,,
2.9218750000,0,-0.6658936143,,,
2.9375000000,0,-0.6389160156,,,
2.9531250000,0,-0.7937011719,,,
2.9687500000,0,-1.0310059786,,,
2.9843750000,0,-1.1862790585,,,
3.0000000000,0,-1.1165770292,,,
3.0156250000,0,-0.7683104873,,,
3.0312500000,0,-0.2060547024,,,
3.0468750000,0,0.4383544922,,,
3.0625000000,0,1.0142819881,,,
3.0781250000,0,1.4064940214,,,
3.0937500000,0,1.5531009436,,,
3.1093750000,0,1.4558110237,,,
3.1250000000,0,1.1793210506,,,
3.1406250000,0,0.8255615234,,,
3.1562500000,0,0.5106201172,,,
3.1718750000,0,0.3253174126,,,
3.1875000000,0,0.3065186143,,,
3.2031250000,0,0.4232178032,,,
3.2187500000,0,0.5930175781,,,
3.2343750000,0,0.7430419922,,,
3.2500000000,0,0.8488770127,,,
3.2656250000,0,0.9338378906,,,
3.2812500000,0,1.0346679688,,,
3.2968750000,0,1.1536870003,,,
3.3125000000,0,1.2293699980,,,
3.3281250000,0,1.1805419922,,,
3.3437500000,0,0.9539794922,,,
3.3593750000,0,0.5716552734,,,
3.3750000000,0,0.1369629055,,,
3.3906250000,0,-0.2468262017,,,
3.4062500000,0,-0.5141602159,,,
3.4218750000,0,-0.6903076172,,,
3.4375000000,0,-0.8437500000,,,
3.4531250000,0,-1.0206300020,,,
3.4687500000,0,-1.1988530159,,,
3.4843750000,0,-1.2918699980,,,
3.5000000000,0,-1.1989749670,,,
3.5156250000,0,-0.8831787109,,,
3.5312500000,0,-0.4093017876,,,
3.5468750000,0,0.0765380934,,,
3.5625000000,0,0.4105224907,,,
3.5781250000,0,0.4788818061,,,
3.5937500000,0,0.2650145888,,,
3.6093750000,0,-0.1458739936,,,
3.6250000000,0,-0.5930175781,,,
3.6406250000,0,-0.9204102159,,,
3.6562500000,0,-1.0130620003,,,
3.6718750000,0,-0.8706055284,,,
3.6875000000,0,-0.5848389268,,,
3.7031250000,0,-0.3090820014,,,
3.7187500000,0,-0.1826172024,,,
3.7343750000,0,-0.2777099907,,,
3.7500000000,0,-0.5501708984,,,
3.7656250000,0,-0.8878173828,,,
3.7812500000,0,-1.1538089514,,,
3.7968750000,0,-1.2563480139,,,
3.8125000000,0,-1.1785889864,,,
3.8281250000,0,-0.9448242188,,,
3.8437500000,0,-0.5964354873,,,
3.8593750000,0,-0.1422118992,,,
3.8750000000,0,0.4138183892,,,
3.8906250000,0,1.0435789824,,,
3.9062500000,0,1.6680910587,,,
3.9218750000,0,2.1765139103,,,
3.9375000000,0,2.4595949650,,,
3.9531250000,0,2.4655759335,,,
3.9687500000,0,2.2241210938,,,
3.9843750000,0,1.8123780489,,,
4.0000000000,0,1.3134770393,,,
4.0156250000,0,0.7689208984,,,
4.0312500000,0,0.2056885064,,,
4.0468750000,0,-0.3677979112,,,
4.0625000000,0,-0.8894042969,,,
4.0781250000,0,-1.2590329647,,,
4.0937500000,0,-1.3642580509,,,
4.1093750000,0,-1.1595460176,,,
4.1250000000,0,-0.7056884766,,,
4.1406250000,0,-0.1489257962,,,
4.1562500000,0,0.3636474907,,,
4.1718750000,0,0.7338867188,,,
4.1875000000,0,0.9592285156,,,
4.2031250000,0,1.0878909826,,,
4.2187500000,0,1.1667480469,,,
4.2343750000,0,1.1860350370,,,
4.2500000000,0,1.1053470373,,,
4.2656250000,0,0.8942871094,,,
4.2812500000,0,0.5983886719,,,
4.2968750000,0,0.3283691108,,,
4.3125000000,0,0.2167969048,,,
4.3281250000,0,0.3120116889,,,
4.3437500000,0,0.5521240234,,,
4.3593750000,0,0.8006591797,,,
4.3750000000,0,0.9160156250,,,
4.3906250000,0,0.8487548828,,,
4.4062500000,0,0.6369628906,,,
4.4218750000,0,0.3660888970,,,
4.4375000000,0,0.0917968825,,,
4.4531250000,0,-0.1888428032,,,
4.4687500000,0,-0.5032958984,,,
4.4843750000,0,-0.8470458984,,,
4.5000000000,0,-1.1741939783,,,
4.5156250000,0,-1.4281009436,,,
4.5312500000,0,-1.5715329647,,,
4.5468750000,0,-1.6358640194,,,
4.5625000000,0,-1.6895749569,,,
4.5781250000,0,-1.7917480469,,,
4.5937500000,0,-1.9344480038,,,
4.6093750000,0,-2.0364990234,,,
4.6250000000,0,-2.0144040585,,,
4.6406250000,0,-1.8366700411,,,
4.6562500000,0,-1.5487060547,,,
4.6718750000,0,-1.2425539494,,,
4.6875000000,0,-0.9757080078,,,
4.7031250000,0,-0.7479248047,,,
4.7187500000,0,-0.5042725205,,,
4.7343750000,0,-0.1992187947,,,
4.7500000000,0,0.1516112983,,,
4.7656250000,0,0.4604491889,,,
4.7812500000,0,0.6286621094,,,
4.7968750000,0,0.5876464844,,,
4.8125000000,0,0.3651123047,,,
4.8281250000,0,0.0600585900,,,
4.8437500000,0,-0.1976318061,,,
4.8593750000,0,-0.3127441108,,,
4.8750000000,0,-0.2690429986,,,
4.8906250000,0,-0.1112060994,,,
4.9062500000,0,0.0823974609,,,
4.9218750000,0,0.2536621094,,,
4.9375000000,0,0.3900145888,,,
4.9531250000,0,0.5025634766,,,
4.9687500000,0,0.6088867188,,,
4.9843750000,0,0.7008057237,,,
5.0000000000,0,0.7303466797,,,
5.0156250000,0,0.6503906250,,,
5.0312500000,0,0.4418945014,,,
5.0468750000,0,0.1353760064,,,
5.0625000000,0,-0.1977539063,,,
5.0781250000,0,-0.4932861030,,,
5.0937500000,0,-0.7247313857,,,
5.1093750000,0,-0.9069824219,,,
5.1250000000,0,-1.0556639433,,,
5.1406250000,0,-1.1596679688,,,
5.1562500000,0,-1.1646729708,,,
5.1718750000,0,-1.0272220373,,,
5.1875000000,0,-0.7358397841,,,
5.2031250000,0,-0.3583984077,,,
5.2187500000,0,0.0054931641,,,
5.2343750000,0,0.2788085938,,,
5.2500000000,0,0.4438476861,,,
5.2656250000,0,0.5352783203,,,
5.2812500000,0,0.6282958984,,,
5.2968750000,0,0.7720947266,,,
5.3125000000,0,0.9680175781,,,
5.3281250000,0,1.1818850040,,,
5.3437500000,0,1.3576660156,,,
5.3593750000,0,1.4420169592,,,
5.3750000000,0,1.3892819881,,,
5.3906250000,0,1.1781009436,,,
5.4062500000,0,0.8217772841,,,
5.4218750000,0,0.3948974907,,,
5.4375000000,0,0.0004882813,,,
5.4531250000,0,-0.2700195014,,,
5.4687500000,0,-0.3907471001,,,
5.4843750000,0,-0.4207763970,,,
5.5000000000,0,-0.4661864936,,,
5.5156250000,0,-0.6038817763,,,
5.5312500000,0,-0.8164063096,,,
5.5468750000,0,-0.9970703125,,,
5.5625000000,0,-1.0069580078,,,
5.5781250000,0,-0.7435302734,,,
5.5937500000,0,-0.2075195014,,,
5.6093750000,0,0.4960938096,,,
5.6250000000,0,1.2155760527,,,
5.6406250000,0,1.7978520393,,,
5.6562500000,0,2.1647949219,,,
5.6718750000,0,2.2982180119,,,
5.6875000000,0,2.2548830509,,,
5.7031250000,0,2.0855710506,,,
5.7187500000,0,1.8184809685,,,
5.7343750000,0,1.4444580078,,,
5.7500000000,0,0.9488524795,,,
5.7656250000,0,0.3465575874,,,
5.7812500000,0,-0.2856445014,,,
5.7968750000,0,-0.8228759766,,,
5.8125000000,0,-1.1351319551,,,
5.8281250000,0,-1.1602779627,,,
5.8437500000,0,-0.9349365234,,,
5.8593750000,0,-0.5753173828,,,
5.8750000000,0,-0.2290039063,,,
5.8906250000,0,-0.0079345703,,,
5.9062500000,0,0.0389404297,,,
5.9218750000,0,-0.0794677734,,,
5.9375000000,0,-0.3094482124,,,
5.9531250000,0,-0.5529785156,,,
5.9687500000,0,-0.7064208984,,,
5.9843750000,0,-0.6702880859,,,
6.0000000000,0,-0.4067383111,,,
6.0156250000,0,0.0357666016,,,
6.0312500000,0,0.5217285156,,,
6.0468750000,0,0.9063720703,,,
6.0625000000,0,1.0880130529,,,
6.0781250000,0,1.0634770393,,,
6.0937500000,0,0.9068604112,,,
6.1093750000,0,0.7061768174,,,
6.1250000000,0,0.5057373047,,,
6.1406250000,0,0.2764892876,,,
6.1562500000,0,-0.0250244103,,,
6.1718750000,0,-0.4007568061,,,
6.1875000000,0,-0.7766113281,,,
6.2031250000,0,-1.0489499569,,,
6.2187500000,0,-1.1461180449,,,
6.2343750000,0,-1.0864260197,,,
6.2500000000,0,-0.9575194716,,,
6.2656250000,0,-0.8276367188,,,
6.2812500000,0,-0.7158203125,,,
6.2968750000,0,-0.5611572266,,,
6.3125000000,0,-0.2972412109,,,
6.3281250000,0,0.0666503906,,,
6.3437500000,0,0.4212645888,,,
6.3593750000,0,0.6099854112,,,
6.3750000000,0,0.5235595703,,,
6.3906250000,0,0.1524658054,,,
6.4062500000,0,-0.3739013970,,,
6.4218750000,0,-0.8983154297,,,
6.4375000000,0,-1.2993160486,,,
6.4531250000,0,-1.5438230038,,,
6.4687500000,0,-1.6687010527,,,
6.4843750000,0,-1.7210689783,,,
6.5000000000,0,-1.7158199549,,,
6.5156250000,0,-1.6416020393,,,
6.5312500000,0,-1.5014649630,,,
6.5468750000,0,-1.3283690214,,,
6.5625000000,0,-1.1801760197,,,
6.5781250000,0,-1.0854489803,,,
6.5937500000,0,-1.0144040585,,,
6.6093750000,0,-0.8853759766,,,
6.6250000000,0,-0.6297606826,,,
6.6406250000,0,-0.2679443061,,,
6.6562500000,0,0.0731201172,,,
6.6718750000,0,0.2341309041,,,
6.6875000000,0,0.1278076023,,,
6.7031250000,0,-0.1604004055,,,
6.7187500000,0,-0.3979491889,,,
6.7343750000,0,-0.3193359077,,,
6.7500000000,0,0.2032471001,,,
6.7656250000,0,1.0510250330,,,
6.7812500000,0,1.8925780058,,,
6.7968750000,0,2.3571779728,,,
6.8125000000,0,2.2464599609,,,
6.8281250000,0,1.6411130428,,,
6.8437500000,0,0.8455811143,,,
6.8593750000,0,0.2121582031,,,
6.8750000000,0,-0.0489501990,,,
6.8906250000,0,0.0308837909,,,
6.9062500000,0,0.2604979873,,,
6.9218750000,0,0.4353027046,,,
6.9375000000,0,0.4840087891,,,
6.9531250000,0,0.4888916016,,,
6.9687500000,0,0.5919188857,,,
6.9843750000,0,0.8583983779,,,
7.0000000000,0,1.2138669491,,,
7.0156250000,0,1.4697270393,,,
7.0312500000,0,1.4566650391,,,
7.0468750000,0,1.1359859705,,,
7.0625000000,0,0.6215819716,,,
7.0781250000,0,0.1083984002,,,
7.0937500000,0,-0.2298583984,,,
7.1093750000,0,-0.3175049126,,,
7.1250000000,0,-0.1976318061,,,
7.1406250000,0,0.0216064509,,,
7.1562500000,0,0.2060547024,,,
7.1718750000,0,0.2675780952,,,
7.1875000000,0,0.1632079929,,,
7.2031250000,0,-0.0919189528,,,
7.2187500000,0,-0.4595946968,,,
7.2343750000,0,-0.8857421875,,,
7.2500000000,0,-1.3111569881,,,
7.2656250000,0,-1.6853029728,,,
7.2812500000,0,-1.9444580078,,,
7.2968750000,0,-2.0347900391,,,
7.3125000000,0,-1.9129639864,,,
7.3281250000,0,-1.5766600370,,,
7.3437500000,0,-1.0892330408,,,
7.3593750000,0,-0.5714110732,,,
7.3750000000,0,-0.1857910007,,,
7.3906250000,0,-0.0650634766,,,
7.4062500000,0,-0.2474364936,,,
7.4218750000,0,-0.6580811143,,,
7.4375000000,0,-1.1228029728,,,
7.4531250000,0,-1.4532469511,,,
7.4687500000,0,-1.5152590275,,,
7.4843750000,0,-1.2757569551,,,
7.5000000000,0,-0.7935791016,,,
7.5156250000,0,-0.1782227010,,,
7.5312500000,0,0.4577637017,,,
7.5468750000,0,1.0206300020,,,
7.5625000000,0,1.4456789494,,,
7.5781250000,0,1.6912839413,,,
7.5937500000,0,1.7598880529,,,
7.6093750000,0,1.6956789494,,,
7.6250000000,0,1.5609129667,,,
7.6406250000,0,1.4199219942,,,
7.6562500000,0,1.3032230139,,,
7.6718750000,0,1.1983640194,,,
7.6875000000,0,1.0791020393,,,
7.7031250000,0,0.9246826172,,,
7.7187500000,0,0.7376708984,,,
7.7343750000,0,0.5482177734,,,
7.7500000000,0,0.3864746094,,,
7.7656250000,0,0.2742919922,,,
7.7812500000,0,0.2255858928,,,
7.7968750000,0,0.2453612983,,,
7.8125000000,0,0.3306885064,,,
7.8281250000,0,0.4577637017,,,
7.8437500000,0,0.5848389268,,,
7.8593750000,0,0.6563720703,,,
7.8750000000,0,0.6110839844,,,
7.8906250000,0,0.4238280952,,,
7.9062500000,0,0.1368408054,,,
7.9218750000,0,-0.1538085938,,,
7.9375000000,0,-0.3200683892,,,
7.9531250000,0,-0.2758789063,,,
7.9687500000,0,-0.0307617206,,,
7.9843750000,0,0.3089599907,,,
8.0000000000,1,0.5727539063,,,
8.0156250000,1,0.6038817763,,,
8.0312500000,1,0.3402099907,,,
8.0468750000,1,-0.1497803032,,,
8.0625000000,1,-0.6990966797,,,
8.0781250000,1,-1.1418459415,,,
8.0937500000,1,-1.3875730038,,,
8.1093750000,1,-1.4583740234,,,
8.1250000000,1,-1.4600830078,,,
8.1406250000,1,-1.4860839844,,,
8.1562500000,1,-1.5357669592,,,
8.1718750000,1,-1.5185550451,,,
8.1875000000,1,-1.3028559685,,,
8.2031250000,1,-0.8359375000,,,
8.2187500000,1,-0.2000731975,,,
8.2343750000,1,0.4145508111,,,
8.2500000000,1,0.8006591797,,,
8.2656250000,1,0.8416748047,,,
8.2812500000,1,0.5758057237,,,
8.2968750000,1,0.1694335938,,,
8.3125000000,1,-0.1789550930,,,
8.3281250000,1,-0.3471679986,,,
8.3437500000,1,-0.3316650093,,,
8.3593750000,1,-0.2489013970,,,
8.3750000000,1,-0.2307129055,,,
8.3906250000,1,-0.3610840142,,,
8.4062500000,1,-0.6121826172,,,
8.4218750000,1,-0.8675537109,,,
8.4375000000,1,-0.9957274795,,,
8.4531250000,1,-0.9173583984,,,
8.4687500000,1,-0.6605225205,,,
8.4843750000,1,-0.3286133111,,,
8.5000000000,1,-0.0357666016,,,
8.5156250000,1,0.1602783054,,,
8.5312500000,1,0.2958984077,,,
8.5468750000,1,0.4703369141,,,
8.5625000000,1,0.7777100205,,,
8.5781250000,1,1.2180180550,,,
8.5937500000,1,1.6975100040,,,
8.6093750000,1,2.0782470703,,,
8.6250000000,1,2.2429199219,,,
8.6406250000,1,2.1643071175,,,
8.6562500000,1,1.9228520393,,,
8.6718750000,1,1.6424560547,,,
8.6875000000,1,1.4233399630,,,
8.7031250000,1,1.2800290585,,,
8.7187500000,1,1.1199949980,,,
8.7343750000,1,0.8433837891,,,
8.7500000000,1,0.3875732124,,,
8.7656250000,1,-0.2052001953,,,
8.7812500000,1,-0.8046875000,,,
8.7968750000,1,-1.2646479607,,,
8.8125000000,1,-1.4982910156,,,
8.8281250000,1,-1.5256350040,,,
8.8437500000,1,-1.4622800350,,,
8.8593750000,1,-1.4322509766,,,
8.8750000000,1,-1.4685059786,,,
8.8906250000,1,-1.5234379768,,,
8.9062500000,1,-1.4766850471,,,
8.9218750000,1,-1.2427979708,,,
8.9375000000,1,-0.8562011719,,,
8.9531250000,1,-0.4576416016,,,
8.9687500000,1,-0.2213135064,,,
8.9843750000,1,-0.2413329929,,,
9.0000000000,1,-0.4692383111,,,
9.0156250000,1,-0.7480468750,,,
9.0312500000,1,-0.9039307237,,,
9.0468750000,1,-0.8233643174,,,
9.0625000000,1,-0.5036621094,,,
9.0781250000,1,-0.0493164100,,,
9.0937500000,1,0.3807373047,,,
9.1093750000,1,0.6466063857,,,
9.1250000000,1,0.6651610732,,,
9.1406250000,1,0.4204101861,,,
9.1562500000,1,-0.0164794903,,,
9.1718750000,1,-0.5123291016,,,
9.1875000000,1,-0.9013671875,,,
9.2031250000,1,-1.0405269861,,,
9.2187500000,1,-0.8881835938,,,
9.2343750000,1,-0.5012207031,,,
9.2500000000,1,-0.0345458984,,,
9.2656250000,1,0.3450928032,,,
9.2812500000,1,0.5523682237,,,
9.2968750000,1,0.6104735732,,,
9.3125000000,1,0.6276854873,,,
9.3281250000,1,0.7174072266,,,
9.3437500000,1,0.9036865234,,,
9.3593750000,1,1.1289060116,,,
9.3750000000,1,1.2973630428,,,
9.3906250000,1,1.3267819881,,,
9.4062500000,1,1.2277829647,,,
9.4218750000,1,1.0854489803,,,
9.4375000000,1,1.0015870333,,,
9.4531250000,1,1.0490720272,,,
9.4687500000,1,1.2080080509,,,
9.4843750000,1,1.3862299919,,,
9.5000000000,1,1.4481199980,,,
9.5156250000,1,1.2683110237,,,
9.5312500000,1,0.7911376953,,,
9.5468750000,1,0.0599365197,,,
9.5625000000,1,-0.7934569716,,,
9.5781250000,1,-1.5759279728,,,
9.5937500000,1,-2.1129150391,,,
9.6093750000,1,-2.3015139103,,,
9.6250000000,1,-2.1510009766,,,
9.6406250000,1,-1.7747800350,,,
9.6562500000,1,-1.3399660587,,,
9.6718750000,1,-0.9776610732,,,
9.6875000000,1,-0.7274169922,,,
9.7031250000,1,-0.5622559190,,,
9.7187500000,1,-0.4287109077,,,
9.7343750000,1,-0.2990722954,,,
9.7500000000,1,-0.1990966946,,,
9.7656250000,1,-0.1883545071,,,
9.7812500000,1,-0.2895508111,,,
9.7968750000,1,-0.4858398139,,,
9.8125000000,1,-0.7021483779,,,
9.8281250000,1,-0.8558350205,,,
9.8437500000,1,-0.8928223252,,,
9.8593750000,1,-0.8046875000,,,
9.8750000000,1,-0.6140136719,,,
9.8906250000,1,-0.3864746094,,,
9.9062500000,1,-0.1772460938,,,
9.9218750000,1,-0.0406494103,,,
9.9375000000,1,-0.0078125000,,,
9.9531250000,1,-0.0520019494,,,
9.9687500000,1,-0.1083984002,,,
9.9843750000,1,-0.0975341797,,,
10.0000000000,1,0.0301513709,,,
10.0156250000,1,0.2442626953,,,
10.0312500000,1,0.4538573921,,,
10.0468750000,1,0.5753173828,,,
10.0625000000,1,0.5765380859,,,
10.0781250000,1,0.5242919922,,,
10.0937500000,1,0.5390625000,,,
10.1093750000,1,0.7034912109,,,
10.1250000000,1,0.9962158203,,,
10.1406250000,1,1.3165279627,,,
10.1562500000,1,1.5198969841,,,
10.1718750000,1,1.5097659826,,,
10.1875000000,1,1.2937010527,,,
10.2031250000,1,0.9450684190,,,
10.2187500000,1,0.5427246094,,,
10.2343750000,1,0.1253661960,,,
10.2500000000,1,-0.2795409858,,,
10.2656250000,1,-0.6579589844,,,
10.2812500000,1,-0.9421386719,,,
10.2968750000,1,-1.0510250330,,,
10.3125000000,1,-0.9353026748,,,
10.3281250000,1,-0.6350098252,,,
10.3437500000,1,-0.2668457031,,,
10.3593750000,1,0.0173339806,,,
10.3750000000,1,0.1309814006,,,
10.3906250000,1,0.0594482385,,,
10.4062500000,1,-0.1154785007,,,
10.4218750000,1,-0.2834472954,,,
10.4375000000,1,-0.3692626953,,,
10.4531250000,1,-0.3730469048,,,
10.4687500000,1,-0.3461914063,,,
10.4843750000,1,-0.3516846001,,,
10.5000000000,1,-0.4102782905,,,
10.5156250000,1,-0.4844971001,,,
10.5312500000,1,-0.5056151748,,,
10.5468750000,1,-0.3972167969,,,
10.5625000000,1,-0.1022948995,,,
10.5781250000,1,0.3703612983,,,
10.5937500000,1,0.9586182237,,,
10.6093750000,1,1.5491939783,,,
10.6250000000,1,2.0097661018,,,
10.6406250000,1,2.2369379997,,,
10.6562500000,1,2.1965329647,,,
10.6718750000,1,1.9268800020,,,
10.6875000000,1,1.5209959745,,,
10.7031250000,1,1.0860600471,,,
10.7187500000,1,0.6986083984,,,
10.7343750000,1,0.3784179986,,,
10.7500000000,1,0.1202393025,,,
10.7656250000,1,-0.0880127028,,,
10.7812500000,1,-0.2478027046,,,
10.7968750000,1,-0.3371582031,,,
10.8125000000,1,-0.3330078125,,,
10.8281250000,1,-0.2512207031,,,
10.8437500000,1,-0.1311035007,,,
10.8593750000,1,-0.0358886681,,,
10.8750000000,1,0.0028076170,,,
10.8906250000,1,-0.0167236291,,,
10.9062500000,1,-0.0895996094,,,
10.9218750000,1,-0.2319335938,,,
10.9375000000,1,-0.4655762017,,,
10.9531250000,1,-0.7911376953,,,
10.9687500000,1,-1.1416020393,,,
10.9843750000,1,-1.3974610567,,,
11.0000000000,1,-1.4414060116,,,
11.0156250000,1,-1.2229000330,,,
11.0312500000,1,-0.8040770888,,,
11.0468750000,1,-0.3383789063,,,
11.0625000000,1,0.0089111328,,,
11.0781250000,1,0.1534423977,,,
11.0937500000,1,0.1107178032,,,
11.1093750000,1,-0.0328369103,,,
11.1250000000,1,-0.1683350056,,,
11.1406250000,1,-0.2421875000,,,
11.1562500000,1,-0.2491454929,,,
11.1718750000,1,-0.2204589993,,,
11.1875000000,1,-0.1871338040,,,
11.2031250000,1,-0.1569824070,,,
11.2187500000,1,-0.1312256008,,,
11.2343750000,1,-0.1166991964,,,
11.2500000000,1,-0.1223144978,,,
11.2656250000,1,-0.1522216946,,,
11.2812500000,1,-0.1998291016,,,
11.2968750000,1,-0.2541503906,,,
11.3125000000,1,-0.2968750000,,,
11.3281250000,1,-0.3215332031,,,
11.3437500000,1,-0.3060303032,,,
11.3593750000,1,-0.2219237983,,,
11.3750000000,1,-0.0509033203,,,
11.3906250000,1,0.1890868992,,,
11.4062500000,1,0.4129638970,,,
11.4218750000,1,0.5175781250,,,
11.4375000000,1,0.4270020127,,,
11.4531250000,1,0.1361083984,,,
11.4687500000,1,-0.2674561143,,,
11.4843750000,1,-0.6542968750,,,
11.5000000000,1,-0.9150391221,,,
11.5156250000,1,-1.0133060217,,,
11.5312500000,1,-0.9871826172,,,
11.5468750000,1,-0.9140625000,,,
11.5625000000,1,-0.8583983779,,,
11.5781250000,1,-0.8336182237,,,
11.5937500000,1,-0.8260498047,,,
11.6093750000,1,-0.8208007813,,,
11.6250000000,1,-0.8206787109,,,
11.6406250000,1,-0.8305664063,,,
11.6562500000,1,-0.8278809190,,,
11.6718750000,1,-0.7551270127,,,
11.6875000000,1,-0.5400391221,,,
11.7031250000,1,-0.1632079929,,,
11.7187500000,1,0.3198241889,,,
11.7343750000,1,0.7800292969,,,
11.7500000000,1,1.0708010197,,,
11.7656250000,1,1.1048580408,,,
11.7812500000,1,0.9055175781,,,
11.7968750000,1,0.5668944716,,,
11.8125000000,1,0.2395019978,,,
11.8281250000,1,0.0336914100,,,
11.8437500000,1,-0.0200195294,,,
11.8593750000,1,0.0190429706,,,
11.8750000000,1,0.0538330115,,,
11.8906250000,1,0.0026855471,,,
11.9062500000,1,-0.1739501953,,,
11.9218750000,1,-0.4456787109,,,
11.9375000000,1,-0.7204589844,,,
11.9531250000,1,-0.9016113281,,,
11.9687500000,1,-0.8936768174,,,
11.9843750000,1,-0.6700438857,,,
12.0000000000,1,-0.2855224907,,,
12.0156250000,1,0.1489257962,,,
12.0312500000,1,0.5100098252,,,
12.0468750000,1,0.7259520888,,,
12.0625000000,1,0.8242188096,,,
12.0781250000,1,0.8914794922,,,
12.0937500000,1,1.0146479607,,,
12.1093750000,1,1.2214360237,,,
12.1250000000,1,1.4472659826,,,
12.1406250000,1,1.5908199549,,,
12.1562500000,1,1.5789790154,,,
12.1718750000,1,1.4158940315,,,
12.1875000000,1,1.1831049919,,,
12.2031250000,1,0.9870604873,,,
12.2187500000,1,0.8776854873,,,
12.2343750000,1,0.8355712891,,,
12.2500000000,1,0.7808837891,,,
12.2656250000,1,0.6409912109,,,
12.2812500000,1,0.4147948921,,,
12.2968750000,1,0.1502685994,,,
12.3125000000,1,-0.0659179688,,,
12.3281250000,1,-0.1702881008,,,
12.3437500000,1,-0.1601562947,,,
12.3593750000,1,-0.0853271484,,,
12.3750000000,1,0.0036621089,,,
12.3906250000,1,0.0932617188,,,
12.4062500000,1,0.2131347954,,,
12.4218750000,1,0.3937987983,,,
12.4375000000,1,0.6335449219,,,
12.4531250000,1,0.8673095703,,,
12.4687500000,1,0.9802246094,,,
12.4843750000,1,0.8791503906,,,
12.5000000000,1,0.5451660156,,,
12.5156250000,1,0.0516357385,,,
12.5312500000,1,-0.4494628906,,,
12.5468750000,1,-0.8166503906,,,
12.5625000000,1,-0.9791259766,,,
12.5781250000,1,-0.9776610732,,,
12.5937500000,1,-0.9376220703,,,
12.6093750000,1,-0.9838867188,,,
12.6250000000,1,-1.1627199650,,,
12.6406250000,1,-1.4110109806,,,
12.6562500000,1,-1.6008299589,,,
12.6718750000,1,-1.6014399529,,,
12.6875000000,1,-1.3760989904,,,
12.7031250000,1,-0.9741210938,,,
12.7187500000,1,-0.5194091797,,,
12.7343750000,1,-0.1280518025,,,
12.7500000000,1,0.1313477010,,,
12.7656250000,1,0.2448730022,,,
12.7812500000,1,0.2279053032,,,
12.7968750000,1,0.0875244066,,,
12.8125000000,1,-0.1828612983,,,
12.8281250000,1,-0.5617675781,,,
12.8437500000,1,-0.9863281250,,,
12.8593750000,1,-1.3433840275,,,
12.8750000000,1,-1.5344239473,,,
12.8906250000,1,-1.5148930550,,,
12.9062500000,1,-1.3239749670,,,
12.9218750000,1,-1.0499269962,,,
12.9375000000,1,-0.7814940810,,,
12.9531250000,1,-0.5439453125,,,
12.9687500000,1,-0.3239746094,,,
12.9843750000,1,-0.1020508036,,,
13.0000000000,1,0.1220702976,,,
13.0156250000,1,0.3056640923,,,
13.0312500000,1,0.4145508111,,,
13.0468750000,1,0.4644775093,,,
13.0625000000,1,0.5334473252,,,
13.0781250000,1,0.7089843750,,,
13.0937500000,1,1.0311280489,,,
13.1093750000,1,1.4468990564,,,
13.1250000000,1,1.8431400061,,,
13.1406250000,1,2.1187739372,,,
13.1562500000,1,2.2177729607,,,
13.1718750000,1,2.1624760628,,,
13.1875000000,1,2.0075678825,,,
13.2031250000,1,1.8004150391,,,
13.2187500000,1,1.5479739904,,,
13.2343750000,1,1.2283940315,,,
13.2500000000,1,0.8170166016,,,
13.2656250000,1,0.3293457031,,,
13.2812500000,1,-0.1518554986,,,
13.2968750000,1,-0.5240479112,,,
13.3125000000,1,-0.7047119141,,,
13.3281250000,1,-0.6801757813,,,
13.3437500000,1,-0.5084229112,,,
13.3593750000,1,-0.2950438857,,,
13.3750000000,1,-0.1560059041,,,
13.3906250000,1,-0.1679687947,,,
13.4062500000,1,-0.3483887017,,,
13.4218750000,1,-0.6584473252,,,
13.4375000000,1,-1.0264890194,,,
13.4531250000,1,-1.3652340174,,,
13.4687500000,1,-1.6005860567,,,
13.4843750000,1,-1.6817630529,,,
13.5000000000,1,-1.5854489803,,,
13.5156250000,1,-1.3076169491,,,
13.5312500000,1,-0.8920897841,,,
13.5468750000,1,-0.4276123047,,,
13.5625000000,1,-0.0179443397,,,
13.5781250000,1,0.2384033054,,,
13.5937500000,1,0.2915039063,,,
13.6093750000,1,0.1441649944,,,
13.6250000000,1,-0.1455077976,,,
13.6406250000,1,-0.5026854873,,,
13.6562500000,1,-0.8619384766,,,
13.6718750000,1,-1.1711430550,,,
13.6875000000,1,-1.3868410587,,,
13.7031250000,1,-1.4761960506,,,
13.7187500000,1,-1.4312740564,,,
13.7343750000,1,-1.2724610567,,,
13.7500000000,1,-1.0480959415,,,
13.7656250000,1,-0.8226317763,,,
13.7812500000,1,-0.6282958984,,,
13.7968750000,1,-0.4468994141,,,
13.8125000000,1,-0.1921387017,,,
13.8281250000,1,0.2091064006,,,
13.8437500000,1,0.8026123047,,,
13.8593750000,1,1.5299069881,,,
13.8750000000,1,2.2636721134,,,
13.8906250000,1,2.8325200081,,,
13.9062500000,1,3.1250000000,,,
13.9218750000,1,3.1054689884,,,
13.9375000000,1,2.8255620003,,,
13.9531250000,1,2.3900148869,,,
13.9687500000,1,1.8972170353,,,
13.9843750000,1,1.4133299589,,,
14.0000000000,1,0.9688720703,,,
14.0156250000,1,0.5777587891,,,
14.0312500000,1,0.2379149944,,,
14.0468750000,1,-0.0490722694,,,
14.0625000000,1,-0.2767333984,,,
14.0781250000,1,-0.4400635064,,,
14.0937500000,1,-0.5374755859,,,
14.1093750000,1,-0.5955811143,,,
14.1250000000,1,-0.6352539063,,,
14.1406250000,1,-0.6684569716,,,
14.1562500000,1,-0.6831055284,,,
14.1718750000,1,-0.6435546875,,,
14.1875000000,1,-0.5145264268,,,
14.2031250000,1,-0.2918700874,,,
14.2187500000,1,-0.0437011681,,,
14.2343750000,1,0.1318358928,,,
14.2500000000,1,0.1558838040,,,
14.2656250000,1,0.0382080115,,,
14.2812500000,1,-0.1225586012,,,
14.2968750000,1,-0.1798096001,,,
14.3125000000,1,-0.0351562500,,,
14.3281250000,1,0.2778320014,,,
14.3437500000,1,0.6187744141,,,
14.3593750000,1,0.8083496094,,,
14.3750000000,1,0.7548828125,,,
14.3906250000,1,0.4879150093,,,
14.4062500000,1,0.1514893025,,,
14.4218750000,1,-0.0854492188,,,
14.4375000000,1,-0.1297606975,,,
14.4531250000,1,-0.0006103516,,,
14.4687500000,1,0.1920166016,,,
14.4843750000,1,0.3156737983,,,
14.5000000000,1,0.2856445014,,,
14.5156250000,1,0.1049804986,,,
14.5312500000,1,-0.1440429986,,,
14.5468750000,1,-0.3566895127,,,
14.5625000000,1,-0.4547119141,,,
14.5781250000,1,-0.4250487983,,,
14.5937500000,1,-0.2934570014,,,
14.6093750000,1,-0.1298827976,,,
14.6250000000,1,0.0151367197,,,
14.6406250000,1,0.1098633036,,,
14.6562500000,1,0.1239013970,,,
14.6718750000,1,0.0244140606,,,
14.6875000000,1,-0.2222899944,,,
14.7031250000,1,-0.6003417969,,,
14.7187500000,1,-1.0283199549,,,
14.7343750000,1,-1.3631589413,,,
14.7500000000,1,-1.4488530159,,,
14.7656250000,1,-1.2028809786,,,
14.7812500000,1,-0.6824951172,,,
14.7968750000,1,-0.0485839806,,,
14.8125000000,1,0.4975585938,,,
14.8281250000,1,0.8145751953,,,
14.8437500000,1,0.8803710938,,,
14.8593750000,1,0.7766113281,,,
14.8750000000,1,0.6138916016,,,
14.8906250000,1,0.4622803032,,,
14.9062500000,1,0.3061523139,,,
14.9218750000,1,0.1044922024,,,
14.9375000000,1,-0.1641846001,,,
14.9531250000,1,-0.4478760064,,,
14.9687500000,1,-0.6517333984,,,
14.9843750000,1,-0.6840819716,,,
15.0000000000,1,-0.5135498047,,,
15.0156250000,1,-0.2149658054,,,
15.0312500000,1,0.0852050781,,,
15.0468750000,1,0.2473144978,,,
15.0625000000,1,0.1904297024,,,
15.0781250000,1,-0.0755615234,,,
15.0937500000,1,-0.4543457031,,,
15.1093750000,1,-0.8376464844,,,
15.1250000000,1,-1.1287839413,,,
15.1406250000,1,-1.2701419592,,,
15.1562500000,1,-1.2454830408,,,
15.1718750000,1,-1.0539549589,,,
15.1875000000,1,-0.7362061143,,,
15.2031250000,1,-0.3669433892,,,
15.2187500000,1,-0.0621337891,,,
15.2343750000,1,0.0571289100,,,
15.2500000000,1,-0.0653076172,,,
15.2656250000,1,-0.3804931939,,,
15.2812500000,1,-0.7536621094,,,
15.2968750000,1,-1.0324709415,,,
15.3125000000,1,-1.1159670353,,,
15.3281250000,1,-1.0134279728,,,
15.3437500000,1,-0.8140869141,,,
15.3593750000,1,-0.6094970703,,,
15.3750000000,1,-0.4326171875,,,
15.3906250000,1,-0.2410888970,,,
15.4062500000,1,0.0325927697,,,
15.4218750000,1,0.4075928032,,,
15.4375000000,1,0.8057860732,,,
15.4531250000,1,1.1091309786,,,
15.4687500000,1,1.2337650061,,,
15.4843750000,1,1.1953129768,,,
15.5000000000,1,1.1115720272,,,
15.5156250000,1,1.1265870333,,,
15.5312500000,1,1.3028559685,,,
15.5468750000,1,1.5677490234,,,
15.5625000000,1,1.7366939783,,,
15.5781250000,1,1.6265870333,,,
15.5937500000,1,1.1743160486,,,
15.6093750000,1,0.4874267876,,,
15.6250000000,1,-0.2106934041,,,
15.6406250000,1,-0.6788330078,,,
15.6562500000,1,-0.7780761719,,,
15.6718750000,1,-0.5216063857,,,
15.6875000000,1,-0.0589599609,,,
15.7031250000,1,0.4118652046,,,
15.7187500000,1,0.7238770127,,,
15.7343750000,1,0.7983397841,,,
15.7500000000,1,0.6616210938,,,
15.7656250000,1,0.4061278999,,,
15.7812500000,1,0.1641846001,,,
15.7968750000,1,0.0393066406,,,
15.8125000000,1,0.0712890625,,,
15.8281250000,1,0.2158202976,,,
15.8437500000,1,0.3669433892,,,
15.8593750000,1,0.4171142876,,,
15.8750000000,1,0.2971191108,,,
15.8906250000,1,0.0200195294,,,
15.9062500000,1,-0.3366698921,,,
15.9218750000,1,-0.6715087891,,,
15.9375000000,1,-0.9188231826,,,
15.9531250000,1,-1.0712889433,,,
15.9687500000,1,-1.1478270292,,,
15.9843750000,1,-1.1765140295,,,
16.0000000000,2,-1.1546629667,,,
16.0156250000,2,-1.0747070313,,,
16.0312500000,2,-0.9488524795,,,
16.0468750000,2,-0.8320313096,,,
16.0625000000,2,-0.7902832031,,,
16.0781250000,2,-0.8624268174,,,
16.0937500000,2,-1.0103759766,,,
16.1093750000,2,-1.1518549919,,,
16.1250000000,2,-1.1651610136,,,
16.1406250000,2,-0.9737548828,,,
16.1562500000,2,-0.5875244141,,,
16.1718750000,2,-0.0882568434,,,
16.1875000000,2,0.3901366889,,,
16.2031250000,2,0.7159423828,,,
16.2187500000,2,0.7896729112,,,
16.2343750000,2,0.5976563096,,,
16.2500000000,2,0.2084960938,,,
16.2656250000,2,-0.2719726861,,,
16.2812500000,2,-0.6987305284,,,
16.2968750000,2,-0.9783936143,,,
16.3125000000,2,-1.0794680119,,,
16.3281250000,2,-1.0385739803,,,
16.3437500000,2,-0.9195557237,,,
16.3593750000,2,-0.7668457031,,,
16.3750000000,2,-0.5794677734,,,
16.3906250000,2,-0.3489989936,,,
16.4062500000,2,-0.1024169996,,,
16.4218750000,2,0.0715332031,,,
16.4375000000,2,0.0540771484,,,
16.4531250000,2,-0.2133789063,,,
16.4687500000,2,-0.6422119141,,,
16.4843750000,2,-1.0275880098,,,
16.5000000000,2,-1.1066889763,,,
16.5156250000,2,-0.7230225205,,,
16.5312500000,2,0.0925292969,,,
16.5468750000,2,1.1053470373,,,
16.5625000000,2,2.0251460075,,,
16.5781250000,2,2.6253659725,,,
16.5937500000,2,2.8735349178,,,
16.6093750000,2,2.8428959846,,,
16.6250000000,2,2.6601560116,,,
16.6406250000,2,2.3850100040,,,
16.6562500000,2,1.9824219942,,,
16.6718750000,2,1.3924560547,,,
16.6875000000,2,0.6158447266,,,
16.7031250000,2,-0.2181396037,,,
16.7187500000,2,-0.9042968750,,,
16.7343750000,2,-1.2573239803,,,
16.7500000000,2,-1.2047120333,,,
16.7656250000,2,-0.8477783203,,,
16.7812500000,2,-0.3703612983,,,
16.7968750000,2,0.0498046912,,,
16.8125000000,2,0.3491210938,,,
16.8281250000,2,0.5798339844,,,
16.8437500000,2,0.8376464844,,,
16.8593750000,2,1.1666259766,,,
16.8750000000,2,1.5073239803,,,
16.8906250000,2,1.7159420252,,,
16.9062500000,2,1.6478270292,,,
16.9218750000,2,1.2456049919,,,
16.9375000000,2,0.5747069716,,,
16.9531250000,2,-0.2109375000,,,
16.9687500000,2,-0.9147949219,,,
16.9843750000,2,-1.3999019861,,,
17.0000000000,2,-1.6088869572,,,
17.0156250000,2,-1.5660400391,,,
17.0312500000,2,-1.3594969511,,,
17.0468750000,2,-1.1230469942,,,
17.0625000000,2,-0.9801024795,,,
17.0781250000,2,-1.0123289824,,,
17.0937500000,2,-1.2102049589,,,
17.1093750000,2,-1.4887700081,,,
17.1250000000,2,-1.7281490564,,,
17.1406250000,2,-1.8171390295,,,
17.1562500000,2,-1.7083740234,,,
17.1718750000,2,-1.4371340275,,,
17.1875000000,2,-1.0731199980,,,
17.2031250000,2,-0.6774901748,,,
17.2187500000,2,-0.2718505859,,,
17.2343750000,2,0.1308594048,,,
17.2500000000,2,0.5275878906,,,
17.2656250000,2,0.8607177734,,,
17.2812500000,2,1.0527340174,,,
17.2968750000,2,1.0183110237,,,
17.3125000000,2,0.7435302734,,,
17.3281250000,2,0.2949219048,,,
17.3437500000,2,-0.1832274944,,,
17.3593750000,2,-0.5355225205,,,
17.3750000000,2,-0.6418457031,,,
17.3906250000,2,-0.4720458984,,,
17.4062500000,2,-0.0992431566,,,
17.4218750000,2,0.3298340142,,,
17.4375000000,2,0.6734619141,,,
17.4531250000,2,0.8516845703,,,
17.4687500000,2,0.8880615234,,,
17.4843750000,2,0.8677979112,,,
17.5000000000,2,0.8568115234,,,
17.5156250000,2,0.8626708984,,,
17.5312500000,2,0.8162841797,,,
17.5468750000,2,0.6451416016,,,
17.5625000000,2,0.3378905952,,,
17.5781250000,2,-0.0219726600,,,
17.5937500000,2,-0.2711181939,,,
17.6093750000,2,-0.2792969048,,,
17.6250000000,2,-0.0228271503,,,
17.6406250000,2,0.3908691108,,,
17.6562500000,2,0.7938231826,,,
17.6718750000,2,1.0405269861,,,
17.6875000000,2,1.0947270393,,,
17.7031250000,2,1.0262449980,,,
17.7187500000,2,0.9503173828,,,
17.7343750000,2,0.9190673828,,,
17.7500000000,2,0.9169921875,,,
17.7656250000,2,0.8762207031,,,
17.7812500000,2,0.7600098252,,,
17.7968750000,2,0.5887451172,,,
17.8125000000,2,0.4526366889,,,
17.8281250000,2,0.4309082031,,,
17.8437500000,2,0.5412598252,,,
17.8593750000,2,0.6979979873,,,
17.8750000000,2,0.7583007813,,,
17.8906250000,2,0.6097412109,,,
17.9062500000,2,0.2491454929,,,
17.9218750000,2,-0.2192382962,,,
17.9375000000,2,-0.6252440810,,,
17.9531250000,2,-0.8292235732,,,
17.9687500000,2,-0.7983397841,,,
17.9843750000,2,-0.5942382813,,,
18.0000000000,2,-0.3428955078,,,
18.0156250000,2,-0.1497803032,,,
18.0312500000,2,-0.0820312500,,,
18.0468750000,2,-0.1436768025,,,
18.0625000000,2,-0.2990722954,,,
18.0781250000,2,-0.5111083984,,,
18.0937500000,2,-0.7398682237,,,
18.1093750000,2,-0.9476317763,,,
18.1250000000,2,-1.1102290154,,,
18.1406250000,2,-1.2158199549,,,
18.1562500000,2,-1.2679439783,,,
18.1718750000,2,-1.2814940214,,,
18.1875000000,2,-1.2790529728,,,
18.2031250000,2,-1.2565920353,,,
18.2187500000,2,-1.1940920353,,,
18.2343750000,2,-1.0654300451,,,
18.2500000000,2,-0.8551024795,,,
18.2656250000,2,-0.5681151748,,,
18.2812500000,2,-0.2250977010,,,
18.2968750000,2,0.1468506008,,,
18.3125000000,2,0.5061035156,,,
18.3281250000,2,0.7973632813,,,
18.3437500000,2,0.9543457031,,,
18.3593750000,2,0.9107666016,,,
18.3750000000,2,0.6440430284,,,
18.3906250000,2,0.1984862983,,,
18.4062500000,2,-0.3131104112,,,
18.4218750000,2,-0.7535399795,,,
18.4375000000,2,-1.0134279728,,,
18.4531250000,2,-1.0590820313,,,
18.4687500000,2,-0.9260253906,,,
18.4843750000,2,-0.6779785156,,,
18.5000000000,2,-0.3758544922,,,
18.5156250000,2,-0.0617675819,,,
18.5312500000,2,0.2254638970,,,
18.5468750000,2,0.4333496094,,,
18.5625000000,2,0.4954833984,,,
18.5781250000,2,0.3870849907,,,
18.5937500000,2,0.1317138970,,,
18.6093750000,2,-0.1744385064,,,
18.6250000000,2,-0.4207763970,,,
18.6406250000,2,-0.5316162109,,,
18.6562500000,2,-0.5078125000,,,
18.6718750000,2,-0.4089354873,,,
18.6875000000,2,-0.3041991889,,,
18.7031250000,2,-0.2220458984,,,
18.7187500000,2,-0.1501464993,,,
18.7343750000,2,-0.0699462891,,,
18.7500000000,2,-0.0029296880,,,
18.7656250000,2,-0.0131835900,,,
18.7812500000,2,-0.1636963040,,,
18.7968750000,2,-0.4400635064,,,
18.8125000000,2,-0.7464600205,,,
18.8281250000,2,-0.9406738281,,,
18.8437500000,2,-0.9089354873,,,
18.8593750000,2,-0.6445313096,,,
18.8750000000,2,-0.2541503906,,,
18.8906250000,2,0.1126708984,,,
18.9062500000,2,0.3214111030,,,
18.9218750000,2,0.3435058892,,,
18.9375000000,2,0.2628174126,,,
18.9531250000,2,0.2037353963,,,
18.9687500000,2,0.2384033054,,,
18.9843750000,2,0.3406982124,,,
19.0000000000,2,0.4188232124,,,
19.0156250000,2,0.3807373047,,,
19.0312500000,2,0.2144774944,,,
19.0468750000,2,0.0156250000,,,
19.0625000000,2,-0.0819091797,,,
19.0781250000,2,0.0120849600,,,
19.0937500000,2,0.2700195014,,,
19.1093750000,2,0.5476074219,,,
19.1250000000,2,0.6827393174,,,
19.1406250000,2,0.6063231826,,,
19.1562500000,2,0.3823241889,,,
19.1718750000,2,0.1738280952,,,
19.1875000000,2,0.1143798977,,,
19.2031250000,2,0.2033690959,,,
19.2187500000,2,0.3077392876,,,
19.2343750000,2,0.2707520127,,,
19.2500000000,2,0.0360107385,,,
19.2656250000,2,-0.2855224907,,,
19.2812500000,2,-0.4921875000,,,
19.2968750000,2,-0.4171142876,,,
19.3125000000,2,-0.0402831994,,,
19.3281250000,2,0.4761962891,,,
19.3437500000,2,0.8964843750,,,
19.3593750000,2,1.0552979708,,,
19.3750000000,2,0.9259033203,,,
19.3906250000,2,0.6381835938,,,
19.4062500000,2,0.3547362983,,,
19.4218750000,2,0.1766356975,,,
19.4375000000,2,0.0919189528,,,
19.4531250000,2,-0.0007324219,,,
19.4687500000,2,-0.1965332031,,,
19.4843750000,2,-0.5250244141,,,
19.5000000000,2,-0.9283447266,,,
19.5156250000,2,-1.2939449549,,,
19.5312500000,2,-1.5228270292,,,
19.5468750000,2,-1.5859379768,,,
19.5625000000,2,-1.5242919922,,,
19.5781250000,2,-1.3974610567,,,
19.5937500000,2,-1.2293699980,,,
19.6093750000,2,-1.0233149529,,,
19.6250000000,2,-0.7669677734,,,
19.6406250000,2,-0.4713135064,,,
19.6562500000,2,-0.2038574070,,,
19.6718750000,2,-0.0466308594,,,
19.6875000000,2,-0.0566406287,,,
19.7031250000,2,-0.2125243992,,,
19.7187500000,2,-0.4392090142,,,
19.7343750000,2,-0.6251220703,,,
19.7500000000,2,-0.6883544922,,,
19.7656250000,2,-0.6016845703,,,
19.7812500000,2,-0.4091796875,,,
19.7968750000,2,-0.2091064006,,,
19.8125000000,2,-0.0848388672,,,
19.8281250000,2,-0.0739746094,,,
19.8437500000,2,-0.1529541016,,,
19.8593750000,2,-0.2420653999,,,
19.8750000000,2,-0.2565917969,,,
19.8906250000,2,-0.1400146037,,,
19.9062500000,2,0.0859375000,,,
19.9218750000,2,0.3275145888,,,
19.9375000000,2,0.4815674126,,,
19.9531250000,2,0.4742431939,,,
19.9687500000,2,0.3236083984,,,
19.9843750000,2,0.1309814006,,,
20.0000000000,2,0.0175781306,,,
20.0156250000,2,0.0373535194,,,
20.0312500000,2,0.1574707031,,,
20.0468750000,2,0.2620849907,,,
20.0625000000,2,0.2258300930,,,
20.0781250000,2,0.0013427730,,,
20.0937500000,2,-0.3519287109,,,
20.1093750000,2,-0.7108154297,,,
20.1250000000,2,-0.9727783203,,,
20.1406250000,2,-1.0971679688,,,
20.1562500000,2,-1.1182860136,,,
20.1718750000,2,-1.1030269861,,,
20.1875000000,2,-1.0927729607,,,
20.2031250000,2,-1.0764160156,,,
20.2187500000,2,-1.0170899630,,,
20.2343750000,2,-0.8940430284,,,
20.2500000000,2,-0.7573242188,,,
20.2656250000,2,-0.7043457031,,,
20.2812500000,2,-0.8258057237,,,
20.2968750000,2,-1.1369630098,,,
20.3125000000,2,-1.5570069551,,,
20.3281250000,2,-1.9277340174,,,
20.3437500000,2,-2.1049799919,,,
20.3593750000,2,-2.0056149960,,,
20.3750000000,2,-1.6478270292,,,
20.3906250000,2,-1.0887449980,,,
20.4062500000,2,-0.3901366889,,,
20.4218750000,2,0.3962402046,,,
20.4375000000,2,1.2166750431,,,
20.4531250000,2,1.9782710075,,,
20.4687500000,2,2.5584719181,,,
20.4843750000,2,2.8422849178,,,
20.5000000000,2,2.8199460506,,,
20.5156250000,2,2.5885009766,,,
20.5312500000,2,2.3439939022,,,
20.5468750000,2,2.2684330940,,,
20.5625000000,2,2.4266359806,,,
20.5781250000,2,2.7584230900,,,
20.5937500000,2,3.1163330078,,,
20.6093750000,2,3.3675539494,,,
20.6250000000,2,3.4665529728,,,
20.6406250000,2,3.4484860897,,,
20.6562500000,2,3.3739008904,,,
20.6718750000,2,3.2713620663,,,
20.6875000000,2,3.1158449650,,,
20.7031250000,2,2.8648679256,,,
20.7187500000,2,2.5014650822,,,
20.7343750000,2,2.0637209415,,,
20.7500000000,2,1.6135250330,,,
20.7656250000,2,1.2044680119,,,
20.7812500000,2,0.8698729873,,,
20.7968750000,2,0.6080322266,,,
20.8125000000,2,0.4304198921,,,
20.8281250000,2,0.3502196968,,,
20.8437500000,2,0.3461914063,,,
20.8593750000,2,0.3760986030,,,
20.8750000000,2,0.3291015923,,,
20.8906250000,2,0.0981445313,,,
20.9062500000,2,-0.3670653999,,,
20.9218750000,2,-1.0145260096,,,
20.9375000000,2,-1.7049560547,,,
20.9531250000,2,-2.2679440975,,,
20.9687500000,2,-2.5800778866,,,
20.9843750000,2,-2.6125490665,,,
21.0000000000,2,-2.4219970703,,,
21.0156250000,2,-2.1102290154,,,
21.0312500000,2,-1.7531739473,,,
21.0468750000,2,-1.3802490234,,,
21.0625000000,2,-0.9808350205,,,
21.0781250000,2,-0.5523682237,,,
21.0937500000,2,-0.1287841946,,,
21.1093750000,2,0.2009277046,,,
21.1250000000,2,0.3347167969,,,
21.1406250000,2,0.2099608928,,,
21.1562500000,2,-0.1275635064,,,
21.1718750000,2,-0.5349121094,,,
21.1875000000,2,-0.8294677734,,,
21.2031250000,2,-0.8807373047,,,
21.2187500000,2,-0.6889647841,,,
21.2343750000,2,-0.3797607124,,,
21.2500000000,2,-0.1418457031,,,
21.2656250000,2,-0.1271972954,,,
21.2812500000,2,-0.3575438857,,,
21.2968750000,2,-0.7349854112,,,
21.3125000000,2,-1.0924069881,,,
21.3281250000,2,-1.2803959846,,,
21.3437500000,2,-1.2463380098,,,
21.3593750000,2,-1.0235600471,,,
21.3750000000,2,-0.6912841797,,,
21.3906250000,2,-0.3332520127,,,
21.4062500000,2,-0.0010986330,,,
21.4218750000,2,0.2855224907,,,
21.4375000000,2,0.5039063096,,,
21.4531250000,2,0.6358643174,,,
21.4687500000,2,0.6596680284,,,
21.4843750000,2,0.5660399795,,,
21.5000000000,2,0.3834229112,,,
21.5156250000,2,0.1542969048,,,
21.5312500000,2,-0.0759277269,,,
21.5468750000,2,-0.2650145888,,,
21.5625000000,2,-0.3935546875,,,
21.5781250000,2,-0.4726563096,,,
21.5937500000,2,-0.5345458984,,,
21.6093750000,2,-0.6104735732,,,
21.6250000000,2,-0.7268065810,,,
21.6406250000,2,-0.8709716797,,,
21.6562500000,2,-0.9873046875,,,
21.6718750000,2,-0.9965819716,,,
21.6875000000,2,-0.8272705078,,,
21.7031250000,2,-0.4429931939,,,
21.7187500000,2,0.1206054986,,,
21.7343750000,2,0.7635498047,,,
21.7500000000,2,1.3586430550,,,
21.7656250000,2,1.7880860567,,,
21.7812500000,2,1.9669189453,,,
21.7968750000,2,1.8745119572,,,
21.8125000000,2,1.5541989803,,,
21.8281250000,2,1.0977779627,,,
21.8437500000,2,0.6162108779,,,
21.8593750000,2,0.2175292969,,,
21.8750000000,2,-0.0185546894,,,
21.8906250000,2,-0.0678710863,,,
21.9062500000,2,0.0354003906,,,
21.9218750000,2,0.2203368992,,,
21.9375000000,2,0.3883056939,,,
21.9531250000,2,0.4567871094,,,
21.9687500000,2,0.3820801079,,,
21.9843750000,2,0.1717528999,,,
22.0000000000,2,-0.1153564006,,,
22.0156250000,2,-0.3964844048,,,
22.0312500000,2,-0.6147460938,,,
22.0468750000,2,-0.7598876953,,,
22.0625000000,2,-0.8594970703,,,
22.0781250000,2,-0.9628906250,,,
22.0937500000,2,-1.0692139864,,,
22.1093750000,2,-1.1270749569,,,
22.1250000000,2,-1.0534670353,,,
22.1406250000,2,-0.7641602159,,,
22.1562500000,2,-0.2640380859,,,
22.1718750000,2,0.3532715142,,,
22.1875000000,2,0.9276123047,,,
22.2031250000,2,1.3138430119,,,
22.2187500000,2,1.4525150061,,,
22.2343750000,2,1.4050290585,,,
22.2500000000,2,1.3078609705,,,
22.2656250000,2,1.3044430017,,,
22.2812500000,2,1.4531250000,,,
22.2968750000,2,1.6987299919,,,
22.3125000000,2,1.9124759436,,,
22.3281250000,2,1.9417719841,,,
22.3437500000,2,1.7027590275,,,
22.3593750000,2,1.2066650391,,,
22.3750000000,2,0.5502930284,,,
22.3906250000,2,-0.1171875000,,,
22.4062500000,2,-0.6595458984,,,
22.4218750000,2,-0.9808350205,,,
22.4375000000,2,-1.0780030489,,,
22.4531250000,2,-1.0109859705,,,
22.4687500000,2,-0.8958740234,,,
22.4843750000,2,-0.8317871094,,,
22.5000000000,2,-0.8691406250,,,
22.5156250000,2,-0.9680175781,,,
22.5312500000,2,-1.0332030058,,,
22.5468750000,2,-0.9816895127,,,
22.5625000000,2,-0.7957764268,,,
22.5781250000,2,-0.5573729873,,,
22.5937500000,2,-0.3813476861,,,
22.6093750000,2,-0.3577880859,,,
22.6250000000,2,-0.4989013970,,,
22.6406250000,2,-0.7353516221,,,
22.6562500000,2,-0.9534912109,,,
22.6718750000,2,-1.0661619902,,,
22.6875000000,2,-1.0408940315,,,
22.7031250000,2,-0.8906250000,,,
22.7187500000,2,-0.6669921875,,,
22.7343750000,2,-0.4174804986,,,
22.7500000000,2,-0.2027588040,,,
22.7656250000,2,-0.0612793006,,,
22.7812500000,2,-0.0122070303,,,
22.7968750000,2,-0.0528564490,,,
22.8125000000,2,-0.1251221001,,,
22.8281250000,2,-0.1647949070,,,
22.8437500000,2,-0.1077881008,,,
22.8593750000,2,0.0675048828,,,
22.8750000000,2,0.3386229873,,,
22.8906250000,2,0.6605225205,,,
22.9062500000,2,0.9930419922,,,
22.9218750000,2,1.2961430550,,,
22.9375000000,2,1.5148930550,,,
22.9531250000,2,1.5898439884,,,
22.9687500000,2,1.4632569551,,,
22.9843750000,2,1.1396479607,,,
23.0000000000,2,0.6864014268,,,
23.0156250000,2,0.2282714993,,,
23.0312500000,2,-0.1147461012,,,
23.0468750000,2,-0.2880859077,,,
23.0625000000,2,-0.3018799126,,,
23.0781250000,2,-0.2269286960,,,
23.0937500000,2,-0.1307373047,,,
23.1093750000,2,-0.0661621094,,,
23.1250000000,2,-0.0489501990,,,
23.1406250000,2,-0.0816650391,,,
23.1562500000,2,-0.1651611030,,,
23.1718750000,2,-0.2989501953,,,
23.1875000000,2,-0.5021973252,,,
23.2031250000,2,-0.7811279297,,,
23.2187500000,2,-1.1418459415,,,
23.2343750000,2,-1.5439449549,,,
23.2500000000,2,-1.9427490234,,,
23.2656250000,2,-2.2834470272,,,
23.2812500000,2,-2.5151369572,,,
23.2968750000,2,-2.6268310547,,,
23.3125000000,2,-2.6129150391,,,
23.3281250000,2,-2.4987790585,,,
23.3437500000,2,-2.3193359375,,,
23.3593750000,2,-2.1038820744,,,
23.3750000000,2,-1.8623050451,,,
23.3906250000,2,-1.6018069983,,,
23.4062500000,2,-1.3286130428,,,
23.4218750000,2,-1.0540770292,,,
23.4375000000,2,-0.7790526748,,,
23.4531250000,2,-0.4887695014,,,
23.4687500000,2,-0.1760254055,,,
23.4843750000,2,0.1503905952,,,
23.5000000000,2,0.4569092095,,,
23.5156250000,2,0.6879882813,,,
23.5312500000,2,0.8074951172,,,
23.5468750000,2,0.8206787109,,,
23.5625000000,2,0.7833251953,,,
23.5781250000,2,0.7452393174,,,
23.5937500000,2,0.7434082031,,,
23.6093750000,2,0.7817382813,,,
23.6250000000,2,0.8446044922,,,
23.6406250000,2,0.9212645888,,,
23.6562500000,2,1.0202640295,,,
23.6718750000,2,1.1397709846,,,
23.6875000000,2,1.2640379667,,,
23.7031250000,2,1.3420410156,,,
23.7187500000,2,1.3087160587,,,
23.7343750000,2,1.1375730038,,,
23.7500000000,2,0.8571776748,,,
23.7656250000,2,0.5465087891,,,
23.7812500000,2,0.2945556939,,,
23.7968750000,2,0.1273193061,,,
23.8125000000,2,0.0084228516,,,
23.8281250000,2,-0.1452637017,,,
23.8437500000,2,-0.3994140923,,,
23.8593750000,2,-0.7479248047,,,
23.8750000000,2,-1.1073000431,,,
23.8906250000,2,-1.3399660587,,,
23.9062500000,2,-1.3178709745,,,
23.9218750000,2,-0.9882813096,,,
23.9375000000,2,-0.3811034858,,,
23.9531250000,2,0.4001465142,,,
23.9687500000,2,1.2102049589,,,
23.9843750000,2,1.8853759766,,,
24.0000000000,3,2.3096919060,,,
24.0156250000,3,2.4212648869,,,
24.0312500000,3,2.2304689884,,,
24.0468750000,3,1.8060300350,,,
24.0625000000,3,1.2504880428,,,
24.0781250000,3,0.6544188857,,,
24.0937500000,3,0.0872802734,,,
24.1093750000,3,-0.4079590142,,,
24.1250000000,3,-0.7828369141,,,
24.1406250000,3,-0.9945067763,,,
24.1562500000,3,-1.0091550350,,,
24.1718750000,3,-0.8424072266,,,
24.1875000000,3,-0.5438231826,,,
24.2031250000,3,-0.2104492038,,,
24.2187500000,3,0.0789794922,,,
24.2343750000,3,0.2791748047,,,
24.2500000000,3,0.3981933892,,,
24.2656250000,3,0.4639892876,,,
24.2812500000,3,0.5045166016,,,
24.2968750000,3,0.5018311143,,,
24.3125000000,3,0.4106445014,,,
24.3281250000,3,0.1760254055,,,
24.3437500000,3,-0.2352295071,,,
24.3593750000,3,-0.8081055284,,,
24.3750000000,3,-1.4716800451,,,
24.3906250000,3,-2.1372070313,,,
24.4062500000,3,-2.6971440315,,,
24.4218750000,3,-3.0767819881,,,
24.4375000000,3,-3.2331540585,,,
24.4531250000,3,-3.1706540585,,,
24.4687500000,3,-2.9298100471,,,
24.4843750000,3,-2.5939939022,,,
24.5000000000,3,-2.2663569450,,,
24.5156250000,3,-2.0375978947,,,
24.5312500000,3,-1.9317630529,,,
24.5468750000,3,-1.8847659826,,,
24.5625000000,3,-1.7203370333,,,
24.5781250000,3,-1.2209470272,,,
24.5937500000,3,-0.2224120945,,,
24.6093750000,3,1.2680660486,,,
24.6250000000,3,3.0303959846,,,
24.6406250000,3,4.7080078125,,,
24.6562500000,3,5.9588618279,,,
24.6718750000,3,6.6118159294,,,
24.6875000000,3,6.7058110237,,,
24.7031250000,3,6.4229741096,,,
24.7187500000,3,5.9564208984,,,
24.7343750000,3,5.4136958122,,,
24.7500000000,3,4.8041992188,,,
24.7656250000,3,4.1088871956,,,
24.7812500000,3,3.3519289494,,,
24.7968750000,3,2.6055910587,,,
24.8125000000,3,1.9427490234,,,
24.8281250000,3,1.3608399630,,,
24.8437500000,3,0.7833251953,,,
24.8593750000,3,0.1066894978,,,
24.8750000000,3,-0.6523438096,,,
24.8906250000,3,-1.3066409826,,,
24.9062500000,3,-1.5430910587,,,
24.9218750000,3,-1.0646970272,,,
24.9375000000,3,0.2053222954,,,
24.9531250000,3,2.0040280819,,,
24.9687500000,3,3.7955319881,,,
24.9843750000,3,4.9848628044,,,
25.0000000000,3,5.1430659294,,,
25.0156250000,3,4.1917719841,,,
25.0312500000,3,2.3933110237,,,
25.0468750000,3,0.1885986030,,,
25.0625000000,3,-1.9973139763,,,
25.0781250000,3,-3.9128420353,,,
25.0937500000,3,-5.4833979607,,,
25.1093750000,3,-6.7120361328,,,
25.1250000000,3,-7.5793461800,,,
25.1406250000,3,-7.9864501953,,,
25.1562500000,3,-7.8065190315,,,
25.1718750000,3,-6.9953608513,,,
25.1875000000,3,-5.6684570313,,,
25.2031250000,3,-4.0985112190,,,
25.2187500000,3,-2.6186521053,,,
25.2343750000,3,-1.4921879768,,,
25.2500000000,3,-0.8074951172,,,
25.2656250000,3,-0.4791260064,,,
25.2812500000,3,-0.3210448921,,,
25.2968750000,3,-0.1459960938,,,
25.3125000000,3,0.1218262017,,,
25.3281250000,3,0.4458008111,,,
25.3437500000,3,0.7186279297,,,
25.3593750000,3,0.8206787109,,,
25.3750000000,3,0.6915283203,,,
25.3906250000,3,0.3466796875,,,
25.4062500000,3,-0.1604004055,,,
25.4218750000,3,-0.7330322266,,,
25.4375000000,3,-1.2540279627,,,
25.4531250000,3,-1.6240229607,,,
25.4687500000,3,-1.7519530058,,,
25.4843750000,3,-1.5810550451,,,
25.5000000000,3,-1.1378170252,,,
25.5156250000,3,-0.5179442763,,,
25.5312500000,3,0.1317138970,,,
25.5468750000,3,0.6600341797,,,
25.5625000000,3,0.9661865234,,,
25.5781250000,3,1.0181879997,,,
25.5937500000,3,0.8599854112,,,
25.6093750000,3,0.5759276748,,,
25.6250000000,3,0.2568359077,,,
25.6406250000,3,-0.0185546894,,,
25.6562500000,3,-0.2091064006,,,
25.6718750000,3,-0.3150635064,,,
25.6875000000,3,-0.3670653999,,,
25.7031250000,3,-0.4250487983,,,
25.7187500000,3,-0.5291748047,,,
25.7343750000,3,-0.6915283203,,,
25.7500000000,3,-0.8616942763,,,
25.7656250000,3,-0.9566649795,,,
25.7812500000,3,-0.8902587891,,,
25.7968750000,3,-0.6199951172,,,
25.8125000000,3,-0.1912841946,,,
25.8281250000,3,0.2708739936,,,
25.8437500000,3,0.6101074219,,,
25.8593750000,3,0.7071533203,,,
25.8750000000,3,0.5478516221,,,
25.8906250000,3,0.2331542969,,,
25.9062500000,3,-0.0780029297,,,
25.9218750000,3,-0.2380370945,,,
25.9375000000,3,-0.1950684041,,,
25.9531250000,3,-0.0362548791,,,
25.9687500000,3,0.0852050781,,,
25.9843750000,3,0.0440673791,,,
26.0000000000,3,-0.1735839993,,,
26.0156250000,3,-0.4580078125,,,
26.0312500000,3,-0.6221923828,,,
26.0468750000,3,-0.5191649795,,,
26.0625000000,3,-0.1224365011,,,
26.0781250000,3,0.4572753906,,,
26.0937500000,3,1.0540770292,,,
26.1093750000,3,1.5476069450,,,
26.1250000000,3,1.8937989473,,,
26.1406250000,3,2.1403810978,,,
26.1562500000,3,2.3430180550,,,
26.1718750000,3,2.5073239803,,,
26.1875000000,3,2.5677490234,,,
26.2031250000,3,2.4320070744,,,
26.2187500000,3,2.0582280159,,,
26.2343750000,3,1.4873050451,,,
26.2500000000,3,0.8374022841,,,
26.2656250000,3,0.2426757962,,,
26.2812500000,3,-0.1995850056,,,
26.2968750000,3,-0.4632568061,,,
26.3125000000,3,-0.5738524795,,,
26.3281250000,3,-0.5765380859,,,
26.3437500000,3,-0.5264893174,,,
26.3593750000,3,-0.4721679986,,,
26.3750000000,3,-0.4475097954,,,
26.3906250000,3,-0.4746094048,,,
26.4062500000,3,-0.5554199219,,,
26.4218750000,3,-0.6533203125,,,
26.4375000000,3,-0.7395020127,,,
26.4531250000,3,-0.8103026748,,,
26.4687500000,3,-0.9068604112,,,
26.4843750000,3,-1.0830080509,,,
26.5000000000,3,-1.3654789925,,,
26.5156250000,3,-1.7302249670,,,
26.5312500000,3,-2.1115720272,,,
26.5468750000,3,-2.4465329647,,,
26.5625000000,3,-2.7138669491,,,
26.5781250000,3,-2.9517819881,,,
26.5937500000,3,-3.2098391056,,,
26.6093750000,3,-3.4860839844,,,
26.6250000000,3,-3.6999509335,,,
26.6406250000,3,-3.7263178825,,,
26.6562500000,3,-3.4519040585,,,
26.6718750000,3,-2.8504641056,,,
26.6875000000,3,-2.0030519962,,,
26.7031250000,3,-1.0511469841,,,
26.7187500000,3,-0.1320800930,,,
26.7343750000,3,0.6816406250,,,
26.7500000000,3,1.3823239803,,,
26.7656250000,3,2.0145258904,,,
26.7812500000,3,2.6132810116,,,
26.7968750000,3,3.1873779297,,,
26.8125000000,3,3.6848139763,,,
26.8281250000,3,4.0112299919,,,
26.8437500000,3,4.0695800781,,,
26.8593750000,3,3.8028559685,,,
26.8750000000,3,3.2503659725,,,
26.8906250000,3,2.5406489372,,,
26.9062500000,3,1.8469239473,,,
26.9218750000,3,1.3200680017,,,
26.9375000000,3,1.0063480139,,,
26.9531250000,3,0.8305664063,,,
26.9687500000,3,0.6455078125,,,
26.9843750000,3,0.3193359077,,,
27.0000000000,3,-0.1872559041,,,
27.0156250000,3,-0.7747802734,,,
27.0312500000,3,-1.2724610567,,,
27.0468750000,3,-1.5296629667,,,
27.0625000000,3,-1.4799799919,,,
27.0781250000,3,-1.1907960176,,,
27.0937500000,3,-0.8198242188,,,
27.1093750000,3,-0.5516356826,,,
27.1250000000,3,-0.4998778999,,,
27.1406250000,3,-0.7023925781,,,
27.1562500000,3,-1.0893549919,,,
27.1718750000,3,-1.5278320313,,,
27.1875000000,3,-1.8754880428,,,
27.2031250000,3,-2.0341799259,,,
27.2187500000,3,-1.9898680449,,,
27.2343750000,3,-1.7951660156,,,
27.2500000000,3,-1.5332030058,,,
27.2656250000,3,-1.2496340275,,,
27.2812500000,3,-0.9278563857,,,
27.2968750000,3,-0.4885253906,,,
27.3125000000,3,0.1467285007,,,
27.3281250000,3,0.9842529297,,,
27.3437500000,3,1.9425050020,,,
27.3593750000,3,2.8596189022,,,
27.3750000000,3,3.5607910156,,,
27.3906250000,3,3.9266359806,,,
27.4062500000,3,3.9371340275,,,
27.4218750000,3,3.6612548828,,,
27.4375000000,3,3.2236330509,,,
27.4531250000,3,2.7593989372,,,
27.4687500000,3,2.3763430119,,,
27.4843750000,3,2.1424560547,,,
27.5000000000,3,2.0609130859,,,
27.5156250000,3,2.0978999138,,,
27.5312500000,3,2.1845700741,,,
27.5468750000,3,2.2294919491,,,
27.5625000000,3,2.1586909294,,,
27.5781250000,3,1.9300539494,,,
27.5937500000,3,1.5531009436,,,
27.6093750000,3,1.0758060217,,,
27.6250000000,3,0.5933837891,,,
27.6406250000,3,0.1959228963,,,
27.6562500000,3,-0.0543212891,,,
27.6718750000,3,-0.1436768025,,,
27.6875000000,3,-0.1188964993,,,
27.7031250000,3,-0.0484619103,,,
27.7187500000,3,-0.0012207030,,,
27.7343750000,3,0.0133056603,,,
27.7500000000,3,0.0322265588,,,
27.7656250000,3,0.1015625000,,,
27.7812500000,3,0.2304687947,,,
27.7968750000,3,0.3560791016,,,
27.8125000000,3,0.3831787109,,,
27.8281250000,3,0.2379149944,,,
27.8437500000,3,-0.0778808594,,,
27.8593750000,3,-0.4605712891,,,
27.8750000000,3,-0.7719727159,,,
27.8906250000,3,-0.9007567763,,,
27.9062500000,3,-0.8150634766,,,
27.9218750000,3,-0.5753173828,,,
27.9375000000,3,-0.2902832031,,,
27.9531250000,3,-0.0570068397,,,
27.9687500000,3,0.0700683594,,,
27.9843750000,3,0.1038817987,,,
28.0000000000,3,0.0998535231,,,
28.0156250000,3,0.1221923977,,,
28.0312500000,3,0.2181396037,,,
28.0468750000,3,0.4095458984,,,
28.0625000000,3,0.6640625000,,,
28.0781250000,3,0.9147949219,,,
28.0937500000,3,1.0755620003,,,
28.1093750000,3,1.0745849609,,,
28.1250000000,3,0.8726807237,,,
28.1406250000,3,0.5090332031,,,
28.1562500000,3,0.0751953125,,,
28.1718750000,3,-0.3094482124,,,
28.1875000000,3,-0.5512694716,,,
28.2031250000,3,-0.6207274795,,,
28.2187500000,3,-0.5836182237,,,
28.2343750000,3,-0.5518798828,,,
28.2500000000,3,-0.6181641221,,,
28.2656250000,3,-0.8101807237,,,
28.2812500000,3,-1.0600589514,,,
28.2968750000,3,-1.2658690214,,,
28.3125000000,3,-1.3505860567,,,
28.3281250000,3,-1.3100589514,,,
28.3437500000,3,-1.2160639763,,,
28.3593750000,3,-1.1419680119,,,
28.3750000000,3,-1.1206049919,,,
28.3906250000,3,-1.1033940315,,,
28.4062500000,3,-1.0148930550,,,
28.4218750000,3,-0.8334960938,,,
28.4375000000,3,-0.6258544922,,,
28.4531250000,3,-0.5175781250,,,
28.4687500000,3,-0.6010742188,,,
28.4843750000,3,-0.8469238281,,,
28.5000000000,3,-1.1020510197,,,
28.5156250000,3,-1.1654050350,,,
28.5312500000,3,-0.9266356826,,,
28.5468750000,3,-0.4375000000,,,
28.5625000000,3,0.0988769531,,,
28.5781250000,3,0.4589844048,,,
28.5937500000,3,0.4990234077,,,
28.6093750000,3,0.2561034858,,,
28.6250000000,3,-0.1135253981,,,
28.6406250000,3,-0.4107666016,,,
28.6562500000,3,-0.5157470703,,,
28.6718750000,3,-0.4150390923,,,
28.6875000000,3,-0.1683350056,,,
28.7031250000,3,0.1506347954,,,
28.7187500000,3,0.4959717095,,,
28.7343750000,3,0.8400878906,,,
28.7500000000,3,1.1364749670,,,
28.7656250000,3,1.3115229607,,,
28.7812500000,3,1.2869869471,,,
28.7968750000,3,1.0366209745,,,
28.8125000000,3,0.6141356826,,,
28.8281250000,3,0.1540527046,,,
28.8437500000,3,-0.1862792969,,,
28.8593750000,3,-0.2933349907,,,
28.8750000000,3,-0.1452637017,,,
28.8906250000,3,0.1771239936,,,
28.9062500000,3,0.5277100205,,,
28.9218750000,3,0.7283936143,,,
28.9375000000,3,0.6413574219,,,
28.9531250000,3,0.2005614936,,,
28.9687500000,3,-0.5416259766,,,
28.9843750000,3,-1.4130860567,,,
29.0000000000,3,-2.1744379997,,,
29.0156250000,3,-2.6086430550,,,
29.0312500000,3,-2.6124269962,,,
29.0468750000,3,-2.2312009335,,,
29.0625000000,3,-1.6391600370,,,
29.0781250000,3,-1.0317380428,,,
29.0937500000,3,-0.5601807237,,,
29.1093750000,3,-0.2681885064,,,
29.1250000000,3,-0.1207275018,,,
29.1406250000,3,-0.0704345703,,,
29.1562500000,3,-0.0740966797,,,
29.1718750000,3,-0.1196288988,,,
29.1875000000,3,-0.1893310994,,,
29.2031250000,3,-0.2452393025,,,
29.2187500000,3,-0.2105713040,,,
29.2343750000,3,-0.0086669922,,,
29.2500000000,3,0.3919678032,,,
29.2656250000,3,0.9594727159,,,
29.2812500000,3,1.5756839514,,,
29.2968750000,3,2.0817871094,,,
29.3125000000,3,2.3209230900,,,
29.3281250000,3,2.2192380428,,,
29.3437500000,3,1.8341059685,,,
29.3593750000,3,1.3217769861,,,
29.3750000000,3,0.8865966797,,,
29.3906250000,3,0.6619873047,,,
29.4062500000,3,0.6613770127,,,
29.4218750000,3,0.7484130859,,,
29.4375000000,3,0.7515869141,,,
29.4531250000,3,0.5744628906,,,
29.4687500000,3,0.2578125000,,,
29.4843750000,3,-0.0435791016,,,
29.5000000000,3,-0.1730957031,,,
29.5156250000,3,-0.0820312500,,,
29.5312500000,3,0.1104736030,,,
29.5468750000,3,0.2077637017,,,
29.5625000000,3,0.0490722694,,,
29.5781250000,3,-0.3781737983,,,
29.5937500000,3,-0.9217529297,,,
29.6093750000,3,-1.3492430449,,,
29.6250000000,3,-1.4792480469,,,
29.6406250000,3,-1.2807619572,,,
29.6562500000,3,-0.8553466797,,,
29.6718750000,3,-0.3889159858,,,
29.6875000000,3,-0.0362548791,,,
29.7031250000,3,0.1153564006,,,
29.7187500000,3,0.0953369066,,,
29.7343750000,3,-0.0218505897,,,
29.7500000000,3,-0.1616210938,,,
29.7656250000,3,-0.2773438096,,,
29.7812500000,3,-0.3662109077,,,
29.7968750000,3,-0.4383544922,,,
29.8125000000,3,-0.5183104873,,,
29.8281250000,3,-0.6182860732,,,
29.8437500000,3,-0.7415770888,,,
29.8593750000,3,-0.8878173828,,,
29.8750000000,3,-1.0533449650,,,
29.8906250000,3,-1.2412110567,,,
29.9062500000,3,-1.4311519861,,,
29.9218750000,3,-1.6118160486,,,
29.9375000000,3,-1.7598880529,,,
29.9531250000,3,-1.8631589413,,,
29.9687500000,3,-1.9276119471,,,
29.9843750000,3,-1.9608149529,,,
30.0000000000,3,-1.9837650061,,,
30.0156250000,3,-2.0064699650,,,
30.0312500000,3,-2.0120849609,,,
30.0468750000,3,-1.9429930449,,,
30.0625000000,3,-1.7139890194,,,
30.0781250000,3,-1.2412110567,,,
30.0937500000,3,-0.4916991889,,,
30.1093750000,3,0.4942626953,,,
30.1250000000,3,1.5839840174,,,
30.1406250000,3,2.6004641056,,,
30.1562500000,3,3.3883059025,,,
30.1718750000,3,3.8598630428,,,
30.1875000000,3,4.0190429688,,,
30.2031250000,3,3.9171140194,,,
30.2187500000,3,3.6279299259,,,
30.2343750000,3,3.1796879768,,,
30.2500000000,3,2.5694580078,,,
30.2656250000,3,1.7924799919,,,
30.2812500000,3,0.8917235732,,,
30.2968750000,3,-0.0093994141,,,
30.3125000000,3,-0.7415770888,,,
30.3281250000,3,-1.1549069881,,,
30.3437500000,3,-1.1955569983,,,
30.3593750000,3,-0.9177246094,,,
30.3750000000,3,-0.4598388970,,,
30.3906250000,3,0.0151367197,,,
30.4062500000,3,0.3974609077,,,
30.4218750000,3,0.6146240234,,,
30.4375000000,3,0.6400145888,,,
30.4531250000,3,0.4704590142,,,
30.4687500000,3,0.1286620945,,,
30.4843750000,3,-0.3087157905,,,
30.5000000000,3,-0.6965332031,,,
30.5156250000,3,-0.8779296875,,,
30.5312500000,3,-0.7441406250,,,
30.5468750000,3,-0.3208008111,,,
30.5625000000,3,0.2064208984,,,
30.5781250000,3,0.5825194716,,,
30.5937500000,3,0.5963134766,,,
30.6093750000,3,0.2105713040,,,
30.6250000000,3,-0.4200438857,,,
30.6406250000,3,-1.0413819551,,,
30.6562500000,3,-1.4417719841,,,
30.6718750000,3,-1.5263669491,,,
30.6875000000,3,-1.3386230469,,,
30.7031250000,3,-0.9770507813,,,
30.7187500000,3,-0.5240479112,,,
30.7343750000,3,-0.0330810510,,,
30.7500000000,3,0.4431152046,,,
30.7656250000,3,0.8077393174,,,
30.7812500000,3,0.9427490234,,,
30.7968750000,3,0.7680664063,,,
30.8125000000,3,0.3123778999,,,
30.8281250000,3,-0.2764892876,,,
30.8437500000,3,-0.8010253906,,,
30.8593750000,3,-1.1054689884,,,
30.8750000000,3,-1.1496579647,,,
30.8906250000,3,-1.0120849609,,,
30.9062500000,3,-0.8162841797,,,
30.9218750000,3,-0.6447753906,,,
30.9375000000,3,-0.5385742188,,,
30.9531250000,3,-0.4719237983,,,
30.9687500000,3,-0.4288330078,,,
30.9843750000,3,-0.4216308892,,,
31.0000000000,3,-0.4713135064,,,
31.0156250000,3,-0.5793457031,,,
31.0312500000,3,-0.7191162109,,,
31.0468750000,3,-0.8298339844,,,
31.0625000000,3,-0.8673095703,,,
31.0781250000,3,-0.8229979873,,,
31.0937500000,3,-0.7268065810,,,
31.1093750000,3,-0.6368408203,,,
31.1250000000,3,-0.5960692763,,,
31.1406250000,3,-0.6043701172,,,
31.1562500000,3,-0.6334229112,,,
31.1718750000,3,-0.6108397841,,,
31.1875000000,3,-0.4670409858,,,
31.2031250000,3,-0.1534423977,,,
31.2187500000,3,0.3107909858,,,
31.2343750000,3,0.8350830078,,,
31.2500000000,3,1.3077390194,,,
31.2656250000,3,1.6159670353,,,
31.2812500000,3,1.7076419592,,,
31.2968750000,3,1.6015629768,,,
31.3125000000,3,1.3559570313,,,
31.3281250000,3,1.0405269861,,,
31.3437500000,3,0.7025145888,,,
31.3593750000,3,0.3653563857,,,
31.3750000000,3,0.0454101600,,,
31.3906250000,3,-0.2249756008,,,
31.4062500000,3,-0.4291991889,,,
31.4218750000,3,-0.5444335938,,,
31.4375000000,3,-0.5974121094,,,
31.4531250000,3,-0.6262207031,,,
31.4687500000,3,-0.6650391221,,,
31.4843750000,3,-0.7205811143,,,
31.5000000000,3,-0.7663574219,,,
31.5156250000,3,-0.7750244141,,,
31.5312500000,3,-0.7569580078,,,
31.5468750000,3,-0.7388916016,,,
31.5625000000,3,-0.7366942763,,,
31.5781250000,3,-0.7150878906,,,
31.5937500000,3,-0.6053466797,,,
31.6093750000,3,-0.3354491889,,,
31.6250000000,3,0.1013183966,,,
31.6406250000,3,0.6208496094,,,
31.6562500000,3,1.0698239803,,,
31.6718750000,3,1.3090820313,,,
31.6875000000,3,1.2734379768,,,
31.7031250000,3,1.0012209415,,,
31.7187500000,3,0.5969238281,,,
31.7343750000,3,0.1793213040,,,
31.7500000000,3,-0.1572266072,,,
31.7656250000,3,-0.3721924126,,,
31.7812500000,3,-0.4388428032,,,
31.7968750000,3,-0.3320313096,,,
31.8125000000,3,-0.0340576209,,,
31.8281250000,3,0.4316405952,,,
31.8437500000,3,0.9775391221,,,
31.8593750000,3,1.4744869471,,,
31.8750000000,3,1.7918699980,,,
31.8906250000,3,1.8657230139,,,
31.9062500000,3,1.7283940315,,,
31.9218750000,3,1.4827879667,,,
31.9375000000,3,1.2207030058,,,
31.9531250000,3,0.9655761719,,,
31.9687500000,3,0.6582031250,,,
31.9843750000,3,0.1931152046,,,
32.0000000000,4,-0.4713135064,,,
32.0156250000,4,-1.2615970373,,,
32.0312500000,4,-1.9929200411,,,
32.0468750000,4,-2.4642329216,,,
32.0625000000,4,-2.5578610897,,,
32.0781250000,4,-2.2897949219,,,
32.0937500000,4,-1.8109129667,,,
32.1093750000,4,-1.2911380529,,,
32.1250000000,4,-0.8483886719,,,
32.1406250000,4,-0.4953612983,,,
32.1562500000,4,-0.1917725056,,,
32.1718750000,4,0.1010741964,,,
32.1875000000,4,0.3723145127,,,
32.2031250000,4,0.5842285156,,,
32.2187500000,4,0.7010498047,,,
32.2343750000,4,0.7437744141,,,
32.2500000000,4,0.7987061143,,,
32.2656250000,4,0.9483643174,,,
32.2812500000,4,1.2143549919,,,
32.2968750000,4,1.5249019861,,,
32.3125000000,4,1.7644040585,,,
32.3281250000,4,1.8172609806,,,
32.3437500000,4,1.6492919922,,,
32.3593750000,4,1.3175050020,,,
32.3750000000,4,0.9306641221,,,
32.3906250000,4,0.5809326172,,,
32.4062500000,4,0.3029784858,,,
32.4218750000,4,0.0736083984,,,
32.4375000000,4,-0.1693114936,,,
32.4531250000,4,-0.4611816108,,,
32.4687500000,4,-0.7968750000,,,
32.4843750000,4,-1.1306149960,,,
32.5000000000,4,-1.4061280489,,,
32.5156250000,4,-1.5762939453,,,
32.5312500000,4,-1.6016850471,,,
32.5468750000,4,-1.4852290154,,,
32.5625000000,4,-1.2294919491,,,
32.5781250000,4,-0.8609619141,,,
32.5937500000,4,-0.4226073921,,,
32.6093750000,4,0.0218505897,,,
32.6250000000,4,0.3958739936,,,
32.6406250000,4,0.6477050781,,,
32.6562500000,4,0.7603759766,,,
32.6718750000,4,0.7559813857,,,
32.6875000000,4,0.6685791016,,,
32.7031250000,4,0.5372313857,,,
32.7187500000,4,0.3780517876,,,
32.7343750000,4,0.2104492038,,,
32.7500000000,4,0.0718994066,,,
32.7656250000,4,0.0068359380,,,
32.7812500000,4,0.0617675819,,,
32.7968750000,4,0.2242431939,,,
32.8125000000,4,0.4544678032,,,
32.8281250000,4,0.6752930284,,,
32.8437500000,4,0.8549805284,,,
32.8593750000,4,1.0012209415,,,
32.8750000000,4,1.1638180017,,,
32.8906250000,4,1.3856199980,,,
32.9062500000,4,1.6585689783,,,
32.9218750000,4,1.9204100370,,,
32.9375000000,4,2.0800778866,,,
32.9531250000,4,2.0845949650,,,
32.9687500000,4,1.9307860136,,,
32.9843750000,4,1.6818850040,,,
33.0000000000,4,1.4044189453,,,
33.0156250000,4,1.1383060217,,,
33.0312500000,4,0.8746337891,,,
33.0468750000,4,0.5577393174,,,
33.0625000000,4,0.1320800930,,,
33.0781250000,4,-0.4228515923,,,
33.0937500000,4,-1.0700680017,,,
33.1093750000,4,-1.7243649960,,,
33.1250000000,4,-2.2773439884,,,
33.1406250000,4,-2.6511230469,,,
33.1562500000,4,-2.8468019962,,,
33.1718750000,4,-2.9317629337,,,
33.1875000000,4,-3.0157470703,,,
33.2031250000,4,-3.1701660156,,,
33.2187500000,4,-3.3841550350,,,
33.2343750000,4,-3.5435791016,,,
33.2500000000,4,-3.5043950081,,,
33.2656250000,4,-3.1854250431,,,
33.2812500000,4,-2.6147460938,,,
33.2968750000,4,-1.9365229607,,,
33.3125000000,4,-1.3070069551,,,
33.3281250000,4,-0.8151854873,,,
33.3437500000,4,-0.4169921875,,,
33.3593750000,4,0.0084228516,,,
33.3750000000,4,0.5698242188,,,
33.3906250000,4,1.2625730038,,,
33.4062500000,4,1.9490970373,,,
33.4218750000,4,2.4324951172,,,
33.4375000000,4,2.5769040585,,,
33.4531250000,4,2.4007570744,,,
33.4687500000,4,2.0653080940,,,
33.4843750000,4,1.7675780058,,,
33.5000000000,4,1.6134029627,,,
33.5156250000,4,1.5770260096,,,
33.5312500000,4,1.5196529627,,,
33.5468750000,4,1.3159179688,,,
33.5625000000,4,0.9504395127,,,
33.5781250000,4,0.5419921875,,,
33.5937500000,4,0.2602539063,,,
33.6093750000,4,0.2117920071,,,
33.6250000000,4,0.3734130859,,,
33.6406250000,4,0.5987548828,,,
33.6562500000,4,0.7061768174,,,
33.6718750000,4,0.5960692763,,,
33.6875000000,4,0.2861328125,,,
33.7031250000,4,-0.1007080004,,,
33.7187500000,4,-0.4447020888,,,
33.7343750000,4,-0.6779785156,,,
33.7500000000,4,-0.8115233779,,,
33.7656250000,4,-0.8928223252,,,
33.7812500000,4,-0.9409180284,,,
33.7968750000,4,-0.9256591797,,,
33.8125000000,4,-0.7894287109,,,
33.8281250000,4,-0.5009766221,,,
33.8437500000,4,-0.1080321968,,,
33.8593750000,4,0.2706299126,,,
33.8750000000,4,0.4881592095,,,
33.8906250000,4,0.4473876953,,,
33.9062500000,4,0.1599120945,,,
33.9218750000,4,-0.2675780952,,,
33.9375000000,4,-0.6956787109,,,
33.9531250000,4,-1.0144040585,,,
33.9687500000,4,-1.1777340174,,,
33.9843750000,4,-1.2094730139,,,
34.0000000000,4,-1.1755369902,,,
34.0156250000,4,-1.1107180119,,,
34.0312500000,4,-1.0224610567,,,
34.0468750000,4,-0.9072266221,,,
34.0625000000,4,-0.7530518174,,,
34.0781250000,4,-0.5871582031,,,
34.0937500000,4,-0.4528808892,,,
34.1093750000,4,-0.3730469048,,,
34.1250000000,4,-0.3261719048,,,
34.1406250000,4,-0.2460937947,,,
34.1562500000,4,-0.0561523400,,,
34.1718750000,4,0.2835693061,,,
34.1875000000,4,0.7241210938,,,
34.2031250000,4,1.1517330408,,,
34.2187500000,4,1.4353029728,,,
34.2343750000,4,1.4838869572,,,
34.2500000000,4,1.2806400061,,,
34.2656250000,4,0.8747559190,,,
34.2812500000,4,0.3521729112,,,
34.2968750000,4,-0.2073975056,,,
34.3125000000,4,-0.7467041016,,,
34.3281250000,4,-1.2293699980,,,
34.3437500000,4,-1.6055910587,,,
34.3593750000,4,-1.8248289824,,,
34.3750000000,4,-1.8308110237,,,
34.3906250000,4,-1.6004639864,,,
34.4062500000,4,-1.1508790255,,,
34.4218750000,4,-0.5428466797,,,
34.4375000000,4,0.1253661960,,,
34.4531250000,4,0.7451171875,,,
34.4687500000,4,1.2235109806,,,
34.4843750000,4,1.5024410486,,,
34.5000000000,4,1.5429689884,,,
34.5156250000,4,1.3540040255,,,
34.5312500000,4,0.9746093750,,,
34.5468750000,4,0.4803467095,,,
34.5625000000,4,-0.0170898400,,,
34.5781250000,4,-0.3935546875,,,
34.5937500000,4,-0.5449218750,,,
34.6093750000,4,-0.4062500000,,,
34.6250000000,4,-0.0057373052,,,
34.6406250000,4,0.5410156250,,,
34.6562500000,4,1.0595699549,,,
34.6718750000,4,1.3901369572,,,
34.6875000000,4,1.4455569983,,,
34.7031250000,4,1.2391359806,,,
34.7187500000,4,0.8718261719,,,
34.7343750000,4,0.4898681939,,,
34.7500000000,4,0.2131347954,,,
34.7656250000,4,0.1075439006,,,
34.7812500000,4,0.1627196968,,,
34.7968750000,4,0.2905273139,,,
34.8125000000,4,0.3782958984,,,
34.8281250000,4,0.3157958984,,,
34.8437500000,4,0.0556640588,,,
34.8593750000,4,-0.3734130859,,,
34.8750000000,4,-0.8668212891,,,
34.8906250000,4,-1.2916259766,,,
34.9062500000,4,-1.5428470373,,,
34.9218750000,4,-1.5747070313,,,
34.9375000000,4,-1.4150389433,,,
34.9531250000,4,-1.1346440315,,,
34.9687500000,4,-0.8023682237,,,
34.9843750000,4,-0.4602051079,,,
35.0000000000,4,-0.1147461012,,,
35.0156250000,4,0.2408446968,,,
35.0312500000,4,0.5866699219,,,
35.0468750000,4,0.8809813857,,,
35.0625000000,4,1.0720210075,,,
35.0781250000,4,1.1186519861,,,
35.0937500000,4,1.0046390295,,,
35.1093750000,4,0.7646483779,,,
35.1250000000,4,0.4581299126,,,
35.1406250000,4,0.1765137017,,,
35.1562500000,4,0.0050048828,,,
35.1718750000,4,-0.0032958980,,,
35.1875000000,4,0.1549071968,,,
35.2031250000,4,0.4346924126,,,
35.2187500000,4,0.7492675781,,,
35.2343750000,4,1.0122070313,,,
35.2500000000,4,1.1439210176,,,
35.2656250000,4,1.1021729708,,,
35.2812500000,4,0.8919677734,,,
35.2968750000,4,0.5559082031,,,
35.3125000000,4,0.1557617038,,,
35.3281250000,4,-0.2423096001,,,
35.3437500000,4,-0.5854492188,,,
35.3593750000,4,-0.8454589844,,,
35.3750000000,4,-0.9948729873,,,
35.3906250000,4,-1.0164790154,,,
35.4062500000,4,-0.9035645127,,,
35.4218750000,4,-0.6837158203,,,
35.4375000000,4,-0.4116210938,,,
35.4531250000,4,-0.1616210938,,,
35.4687500000,4,-0.0057373052,,,
35.4843750000,4,-0.0024414060,,,
35.5000000000,4,-0.1850585938,,,
35.5156250000,4,-0.5367432237,,,
35.5312500000,4,-0.9989014268,,,
35.5468750000,4,-1.4733890295,,,
35.5625000000,4,-1.8480219841,,,
35.5781250000,4,-2.0421140194,,,
35.5937500000,4,-2.0218510628,,,
35.6093750000,4,-1.8090820313,,,
35.6250000000,4,-1.4818120003,,,
35.6406250000,4,-1.1337889433,,,
35.6562500000,4,-0.8459473252,,,
35.6718750000,4,-0.6699218750,,,
35.6875000000,4,-0.6234130859,,,
35.7031250000,4,-0.6960449219,,,
35.7187500000,4,-0.8576660156,,,
35.7343750000,4,-1.0634770393,,,
35.7500000000,4,-1.2404789925,,,
35.7656250000,4,-1.3106689453,,,
35.7812500000,4,-1.2048339844,,,
35.7968750000,4,-0.8751220703,,,
35.8125000000,4,-0.3288573921,,,
35.8281250000,4,0.3701171875,,,
35.8437500000,4,1.1173100471,,,
35.8593750000,4,1.7679439783,,,
35.8750000000,4,2.1843259335,,,
35.8906250000,4,2.2764890194,,,
35.9062500000,4,2.0396730900,,,
35.9218750000,4,1.5537110567,,,
35.9375000000,4,0.9748535156,,,
35.9531250000,4,0.4510498047,,,
35.9687500000,4,0.0911865234,,,
35.9843750000,4,-0.0761718825,,,
36.0000000000,4,-0.1010741964,,,
36.0156250000,4,-0.0523681603,,,
36.0312500000,4,0.0178222694,,,
36.0468750000,4,0.0880127028,,,
36.0625000000,4,0.1751708984,,,
36.0781250000,4,0.2979736030,,,
36.0937500000,4,0.4636229873,,,
36.1093750000,4,0.6572266221,,,
36.1250000000,4,0.8471680284,,,
36.1406250000,4,0.9879149795,,,
36.1562500000,4,1.0263669491,,,
36.1718750000,4,0.9338378906,,,
36.1875000000,4,0.7293701172,,,
36.2031250000,4,0.4624023139,,,
36.2187500000,4,0.2132568061,,,
36.2343750000,4,0.0258789100,,,
36.2500000000,4,-0.0895996094,,,
36.2656250000,4,-0.1655272990,,,
36.2812500000,4,-0.2377929986,,,
36.2968750000,4,-0.3041991889,,,
36.3125000000,4,-0.3107909858,,,
36.3281250000,4,-0.1954346001,,,
36.3437500000,4,0.0447998010,,,
36.3593750000,4,0.3150635064,,,
36.3750000000,4,0.4401854873,,,
36.3906250000,4,0.2800292969,,,
36.4062500000,4,-0.1936035007,,,
36.4218750000,4,-0.8458251953,,,
36.4375000000,4,-1.4461669922,,,
36.4531250000,4,-1.7985839844,,,
36.4687500000,4,-1.8345949650,,,
36.4843750000,4,-1.6579589844,,,
36.5000000000,4,-1.4582519531,,,
36.5156250000,4,-1.5589599609,,,
36.5312500000,4,-1.8125000000,,,
36.5468750000,4,-2.0015869141,,,
36.5625000000,4,-1.9831540585,,,
36.5781250000,4,-1.7148439884,,,
36.5937500000,4,-1.2670899630,,,
36.6093750000,4,-0.7830811143,,,
36.6250000000,4,-0.4008789063,,,
36.6406250000,4,-0.2259521037,,,
36.6562500000,4,-0.2905273139,,,
36.6718750000,4,-0.5554199219,,,
36.6875000000,4,-0.9326171875,,,
36.7031250000,4,-1.3099370003,,,
36.7187500000,4,-1.6030269861,,,
36.7343750000,4,-1.7709959745,,,
36.7500000000,4,-1.8488769531,,,
36.7656250000,4,-1.8999019861,,,
36.7812500000,4,-1.9771729708,,,
36.7968750000,4,-2.0877690315,,,
36.8125000000,4,-2.1726069450,,,
36.8281250000,4,-2.1403810978,,,
36.8437500000,4,-1.9128420353,,,
36.8593750000,4,-1.4766850471,,,
36.8750000000,4,-0.9000244141,,,
36.8906250000,4,-0.3105469048,,,
36.9062500000,4,0.1761475056,,,
36.9218750000,4,0.5030518174,,,
36.9375000000,4,0.6993408203,,,
36.9531250000,4,0.8610839844,,,
36.9687500000,4,1.0822750330,,,
36.9843750000,4,1.4227290154,,,
37.0000000000,4,1.8575439453,,,
37.0156250000,4,2.3166499138,,,
37.0312500000,4,2.7011721134,,,
37.0468750000,4,2.9505620003,,,
37.0625000000,4,3.0391850471,,,
37.0781250000,4,3.0015869141,,,
37.0937500000,4,2.9100339413,,,
37.1093750000,4,2.8203129768,,,
37.1250000000,4,2.7440190315,,,
37.1406250000,4,2.6287839413,,,
37.1562500000,4,2.3955080509,,,
37.1718750000,4,2.0002439022,,,
37.1875000000,4,1.4761960506,,,
37.2031250000,4,0.9368895888,,,
37.2187500000,4,0.5157470703,,,
37.2343750000,4,0.3057861030,,,
37.2500000000,4,0.3125000000,,,
37.2656250000,4,0.4672851861,,,
37.2812500000,4,0.6911621094,,,
37.2968750000,4,0.9390869141,,,
37.3125000000,4,1.2221679688,,,
37.3281250000,4,1.5700680017,,,
37.3437500000,4,1.9735109806,,,
37.3593750000,4,2.3474121094,,,
37.3750000000,4,2.5570070744,,,
37.3906250000,4,2.4735109806,,,
37.4062500000,4,2.0657958984,,,
37.4218750000,4,1.4333499670,,,
37.4375000000,4,0.7510985732,,,
37.4531250000,4,0.1953125000,,,
37.4687500000,4,-0.1439208984,,,
37.4843750000,4,-0.2680664063,,,
37.5000000000,4,-0.2565917969,,,
37.5156250000,4,-0.2193603963,,,
37.5312500000,4,-0.2519530952,,,
37.5468750000,4,-0.3909912109,,,
37.5625000000,4,-0.6163330078,,,
37.5781250000,4,-0.8815917969,,,
37.5937500000,4,-1.1013180017,,,
37.6093750000,4,-1.1861569881,,,
37.6250000000,4,-1.0714110136,,,
37.6406250000,4,-0.7437744141,,,
37.6562500000,4,-0.2631835938,,,
37.6718750000,4,0.2456054986,,,
37.6875000000,4,0.6232910156,,,
37.7031250000,4,0.7558593750,,,
37.7187500000,4,0.6164550781,,,
37.7343750000,4,0.3002929986,,,
37.7500000000,4,-0.0242919903,,,
37.7656250000,4,-0.2165527046,,,
37.7812500000,4,-0.2338867038,,,
37.7968750000,4,-0.1430664063,,,
37.8125000000,4,-0.0898437500,,,
37.8281250000,4,-0.1994629055,,,
37.8437500000,4,-0.4840087891,,,
37.8593750000,4,-0.8378906250,,,
37.8750000000,4,-1.0710450411,,,
37.8906250000,4,-1.0150150061,,,
37.9062500000,4,-0.6209716797,,,
37.9218750000,4,0.0206298791,,,
37.9375000000,4,0.7208251953,,,
37.9531250000,4,1.2891850471,,,
37.9687500000,4,1.6147459745,,,
37.9843750000,4,1.6944580078,,,
38.0000000000,4,1.5920410156,,,
38.0156250000,4,1.3559570313,,,
38.0312500000,4,0.9830322266,,,
38.0468750000,4,0.4284667969,,,
38.0625000000,4,-0.3050537109,,,
38.0781250000,4,-1.1458740234,,,
38.0937500000,4,-1.9283449650,,,
38.1093750000,4,-2.4747309685,,,
38.1250000000,4,-2.6881101131,,,
38.1406250000,4,-2.6070559025,,,
38.1562500000,4,-2.3867189884,,,
38.1718750000,4,-2.2005620003,,,
38.1875000000,4,-2.1528320313,,,
38.2031250000,4,-2.2078859806,,,
38.2187500000,4,-2.2382810116,,,
38.2343750000,4,-2.0887451172,,,
38.2500000000,4,-1.6708979607,,,
38.2656250000,4,-0.9971923828,,,
38.2812500000,4,-0.1717528999,,,
38.2968750000,4,0.6639404297,,,
38.3125000000,4,1.3603520393,,,
38.3281250000,4,1.8149410486,,,
38.3437500000,4,1.9937740564,,,
38.3593750000,4,1.9299319983,,,
38.3750000000,4,1.7229000330,,,
38.3906250000,4,1.4871829748,,,
38.4062500000,4,1.3260500431,,,
38.4218750000,4,1.2777099609,,,
38.4375000000,4,1.3118900061,,,
38.4531250000,4,1.3496090174,,,
38.4687500000,4,1.3112790585,,,
38.4843750000,4,1.1624759436,,,
38.5000000000,4,0.9317626953,,,
38.5156250000,4,0.6745604873,,,
38.5312500000,4,0.4342041016,,,
38.5468750000,4,0.1914062947,,,
38.5625000000,4,-0.1236571968,,,
38.5781250000,4,-0.5703125000,,,
38.5937500000,4,-1.1166989803,,,
38.6093750000,4,-1.6263430119,,,
38.6250000000,4,-1.8970949650,,,
38.6406250000,4,-1.7753909826,,,
38.6562500000,4,-1.2692869902,,,
38.6718750000,4,-0.5500488281,,,
38.6875000000,4,0.1226807013,,,
38.7031250000,4,0.5505371094,,,
38.7187500000,4,0.6927490234,,,
38.7343750000,4,0.6650391221,,,
38.7500000000,4,0.6417235732,,,
38.7656250000,4,0.7163085938,,,
38.7812500000,4,0.8480225205,,,
38.7968750000,4,0.9075927734,,,
38.8125000000,4,0.7669677734,,,
38.8281250000,4,0.4188232124,,,
38.8437500000,4,-0.0200195294,,,
38.8593750000,4,-0.3846436143,,,
38.8750000000,4,-0.5590819716,,,
38.8906250000,4,-0.5585938096,,,
38.9062500000,4,-0.4919433892,,,
38.9218750000,4,-0.4974364936,,,
38.9375000000,4,-0.6538085938,,,
38.9531250000,4,-0.9270020127,,,
38.9687500000,4,-1.2017819881,,,
38.9843750000,4,-1.3411870003,,,
39.0000000000,4,-1.2617189884,,,
39.0156250000,4,-0.9752197266,,,
39.0312500000,4,-0.5799561143,,,
39.0468750000,4,-0.2088623047,,,
39.0625000000,4,0.0350341797,,,
39.0781250000,4,0.1181640998,,,
39.0937500000,4,0.0970458984,,,
39.1093750000,4,0.0544433594,,,
39.1250000000,4,0.0386962891,,,
39.1406250000,4,0.0404052697,,,
39.1562500000,4,-0.0020751951,,,
39.1718750000,4,-0.1613769978,,,
39.1875000000,4,-0.4619140923,,,
39.2031250000,4,-0.8518065810,,,
39.2187500000,4,-1.2248539925,,,
39.2343750000,4,-1.4683840275,,,
39.2500000000,4,-1.5136719942,,,
39.2656250000,4,-1.3778079748,,,
39.2812500000,4,-1.1455080509,,,
39.2968750000,4,-0.9270020127,,,
39.3125000000,4,-0.8145751953,,,
39.3281250000,4,-0.8310546875,,,
39.3437500000,4,-0.9270020127,,,
39.3593750000,4,-1.0075680017,,,
39.3750000000,4,-0.9736328125,,,
39.3906250000,4,-0.7653809190,,,
39.4062500000,4,-0.3862304986,,,
39.4218750000,4,0.1019287035,,,
39.4375000000,4,0.6138916016,,,
39.4531250000,4,1.0899660587,,,
39.4687500000,4,1.5047609806,,,
39.4843750000,4,1.8723139763,,,
39.5000000000,4,2.2231450081,,,
39.5156250000,4,2.5479741096,,,
39.5312500000,4,2.8165280819,,,
39.5468750000,4,2.9808349609,,,
39.5625000000,4,3.0073239803,,,
39.5781250000,4,2.8853759766,,,
39.5937500000,4,2.6381840706,,,
39.6093750000,4,2.2969970703,,,
39.6250000000,4,1.8852540255,,,
39.6406250000,4,1.4241939783,,,
39.6562500000,4,0.9453125000,,,
39.6718750000,4,0.4874267876,,,
39.6875000000,4,0.1171875000,,,
39.7031250000,4,-0.1142577976,,,
39.7187500000,4,-0.1827393025,,,
39.7343750000,4,-0.1143798977,,,
39.7500000000,4,0.0186767597,,,
39.7656250000,4,0.1148682013,,,
39.7812500000,4,0.0987548828,,,
39.7968750000,4,-0.0599365197,,,
39.8125000000,4,-0.3222655952,,,
39.8281250000,4,-0.6086425781,,,
39.8437500000,4,-0.8332520127,,,
39.8593750000,4,-0.9547119141,,,
39.8750000000,4,-0.9888916016,,,
39.8906250000,4,-0.9772949219,,,
39.9062500000,4,-0.9604492188,,,
39.9218750000,4,-0.9396973252,,,
39.9375000000,4,-0.8909912109,,,
39.9531250000,4,-0.7937011719,,,
39.9687500000,4,-0.6534423828,,,
39.9843750000,4,-0.5191649795,,,
40.0000000000,5,-0.4152832031,,,
40.0156250000,5,-0.3526611030,,,
40.0312500000,5,-0.2935791016,,,
40.0468750000,5,-0.1950684041,,,
40.0625000000,5,-0.0701904297,,,
40.0781250000,5,0.0269775409,,,
40.0937500000,5,0.0419921912,,,
40.1093750000,5,-0.0317382813,,,
40.1250000000,5,-0.1290283054,,,
40.1406250000,5,-0.1627196968,,,
40.1562500000,5,-0.0928955078,,,
40.1718750000,5,0.0251464806,,,
40.1875000000,5,0.0855712891,,,
40.2031250000,5,0.0050048828,,,
40.2187500000,5,-0.2034911960,,,
40.2343750000,5,-0.4277344048,,,
40.2500000000,5,-0.5361328125,,,
40.2656250000,5,-0.4758301079,,,
40.2812500000,5,-0.3106688857,,,
40.2968750000,5,-0.2084960938,,,
40.3125000000,5,-0.3012695014,,,
40.3281250000,5,-0.6323242188,,,
40.3437500000,5,-1.0924069881,,,
40.3593750000,5,-1.4882810116,,,
40.3750000000,5,-1.6643069983,,,
40.3906250000,5,-1.5560300350,,,
40.4062500000,5,-1.2231450081,,,
40.4218750000,5,-0.7940673828,,,
40.4375000000,5,-0.3846436143,,,
40.4531250000,5,-0.0455322303,,,
40.4687500000,5,0.2357178032,,,
40.4843750000,5,0.4885253906,,,
40.5000000000,5,0.7302246094,,,
40.5156250000,5,0.9342041016,,,
40.5312500000,5,1.0544430017,,,
40.5468750000,5,1.0837399960,,,
40.5625000000,5,1.0563960075,,,
40.5781250000,5,1.0368649960,,,
40.5937500000,5,1.0720210075,,,
40.6093750000,5,1.1614990234,,,
40.6250000000,5,1.2403559685,,,
40.6406250000,5,1.2335209846,,,
40.6562500000,5,1.0880130529,,,
40.6718750000,5,0.8052979112,,,
40.6875000000,5,0.4316405952,,,
40.7031250000,5,0.0371093787,,,
40.7187500000,5,-0.3061523139,,,
40.7343750000,5,-0.5445557237,,,
40.7500000000,5,-0.6652832031,,,
40.7656250000,5,-0.6931151748,,,
40.7812500000,5,-0.7022705078,,,
40.7968750000,5,-0.8033447266,,,
40.8125000000,5,-1.0655519962,,,
40.8281250000,5,-1.4787600040,,,
40.8437500000,5,-1.9274899960,,,
40.8593750000,5,-2.2175290585,,,
40.8750000000,5,-2.1995849609,,,
40.8906250000,5,-1.8524169922,,,
40.9062500000,5,-1.3023680449,,,
40.9218750000,5,-0.7800292969,,,
40.9375000000,5,-0.4700928032,,,
40.9531250000,5,-0.4317626953,,,
40.9687500000,5,-0.5711669922,,,
40.9843750000,5,-0.7528076172,,,
41.0000000000,5,-0.8973389268,,,
41.0156250000,5,-1.0350339413,,,
41.0312500000,5,-1.2554930449,,,
41.0468750000,5,-1.5834959745,,,
41.0625000000,5,-1.9273680449,,,
41.0781250000,5,-2.1093750000,,,
41.0937500000,5,-1.9549560547,,,
41.1093750000,5,-1.4111330509,,,
41.1250000000,5,-0.5921630859,,,
41.1406250000,5,0.3084717095,,,
41.1562500000,5,1.1044919491,,,
41.1718750000,5,1.7031250000,,,
41.1875000000,5,2.1165769100,,,
41.2031250000,5,2.3913569450,,,
41.2187500000,5,2.5482180119,,,
41.2343750000,5,2.5474851131,,,
41.2500000000,5,2.3264160156,,,
41.2656250000,5,1.8652340174,,,
41.2812500000,5,1.2255860567,,,
41.2968750000,5,0.5373535156,,,
41.3125000000,5,-0.0416259803,,,
41.3281250000,5,-0.3885498047,,,
41.3437500000,5,-0.4553222954,,,
41.3593750000,5,-0.2607421875,,,
41.3750000000,5,0.0953369066,,,
41.3906250000,5,0.4821777046,,,
41.4062500000,5,0.7661132813,,,
41.4218750000,5,0.8410645127,,,
41.4375000000,5,0.6877440810,,,
41.4531250000,5,0.3614501953,,,
41.4687500000,5,-0.0015869139,,,
41.4843750000,5,-0.2720946968,,,
41.5000000000,5,-0.3594971001,,,
41.5156250000,5,-0.2634277046,,,
41.5312500000,5,-0.0576171912,,,
41.5468750000,5,0.1707763970,,,
41.5625000000,5,0.3562012017,,,
41.5781250000,5,0.4882813096,,,
41.5937500000,5,0.5871582031,,,
41.6093750000,5,0.6806641221,,,
41.6250000000,5,0.7530518174,,,
41.6406250000,5,0.7832031250,,,
41.6562500000,5,0.7497559190,,,
41.6718750000,5,0.6579589844,,,
41.6875000000,5,0.5355225205,,,
41.7031250000,5,0.4108887017,,,
41.7187500000,5,0.2786864936,,,
41.7343750000,5,0.0855712891,,,
41.7500000000,5,-0.2113036960,,,
41.7656250000,5,-0.6036376953,,,
41.7812500000,5,-1.0102540255,,,
41.7968750000,5,-1.3222659826,,,
41.8125000000,5,-1.4428709745,,,
41.8281250000,5,-1.3801269531,,,
41.8437500000,5,-1.2138669491,,,
41.8593750000,5,-1.0366209745,,,
41.8750000000,5,-0.8911132813,,,
41.8906250000,5,-0.7299805284,,,
41.9062500000,5,-0.4552001953,,,
41.9218750000,5,0.0098876953,,,
41.9375000000,5,0.6219481826,,,
41.9531250000,5,1.2272950411,,,
41.9687500000,5,1.6149899960,,,
41.9843750000,5,1.6323239803,,,
42.0000000000,5,1.2823489904,,,
42.0156250000,5,0.7099608779,,,
42.0312500000,5,0.1245116964,,,
42.0468750000,5,-0.2871094048,,,
42.0625000000,5,-0.4705811143,,,
42.0781250000,5,-0.4632568061,,,
42.0937500000,5,-0.3753662109,,,
42.1093750000,5,-0.2943114936,,,
42.1250000000,5,-0.2709960938,,,
42.1406250000,5,-0.2933349907,,,
42.1562500000,5,-0.3184813857,,,
42.1718750000,5,-0.3012695014,,,
42.1875000000,5,-0.2280272990,,,
42.2031250000,5,-0.1093750000,,,
42.2187500000,5,0.0186767597,,,
42.2343750000,5,0.0964355469,,,
42.2500000000,5,0.0771484375,,,
42.2656250000,5,-0.0803222731,,,
42.2812500000,5,-0.3587645888,,,
42.2968750000,5,-0.6778563857,,,
42.3125000000,5,-0.9016113281,,,
42.3281250000,5,-0.8925781250,,,
42.3437500000,5,-0.5950927734,,,
42.3593750000,5,-0.0723877028,,,
42.3750000000,5,0.4998778999,,,
42.3906250000,5,0.9046630859,,,
42.4062500000,5,0.9903563857,,,
42.4218750000,5,0.7492675781,,,
42.4375000000,5,0.3286133111,,,
42.4531250000,5,-0.0460205115,,,
42.4687500000,5,-0.2017821968,,,
42.4843750000,5,-0.1120605022,,,
42.5000000000,5,0.1135253981,,,
42.5156250000,5,0.3040770888,,,
42.5312500000,5,0.3293457031,,,
42.5468750000,5,0.1917725056,,,
42.5625000000,5,-0.0367431603,,,
42.5781250000,5,-0.2524414063,,,
42.5937500000,5,-0.3963623047,,,
42.6093750000,5,-0.4562987983,,,
42.6250000000,5,-0.4458008111,,,
42.6406250000,5,-0.3521729112,,,
42.6562500000,5,-0.1511230022,,,
42.6718750000,5,0.1729736030,,,
42.6875000000,5,0.5749511719,,,
42.7031250000,5,0.9423828125,,,
42.7187500000,5,1.1386719942,,,
42.7343750000,5,1.0594480038,,,
42.7500000000,5,0.6959229112,,,
42.7656250000,5,0.1267089993,,,
42.7812500000,5,-0.5146483779,,,
42.7968750000,5,-1.0897220373,,,
42.8125000000,5,-1.5026860237,,,
42.8281250000,5,-1.6833499670,,,
42.8437500000,5,-1.6231689453,,,
42.8593750000,5,-1.3439940214,,,
42.8750000000,5,-0.9101563096,,,
42.8906250000,5,-0.4163818061,,,
42.9062500000,5,0.0487060510,,,
42.9218750000,5,0.4128417969,,,
42.9375000000,5,0.6632080078,,,
42.9531250000,5,0.8438720703,,,
42.9687500000,5,1.0419919491,,,
42.9843750000,5,1.3182369471,,,
43.0000000000,5,1.6746829748,,,
43.0156250000,5,2.0366210938,,,
43.0312500000,5,2.2818601131,,,
43.0468750000,5,2.3193359375,,,
43.0625000000,5,2.1196289063,,,
43.0781250000,5,1.7513430119,,,
43.0937500000,5,1.3142089844,,,
43.1093750000,5,0.8951416016,,,
43.1250000000,5,0.5244141221,,,
43.1406250000,5,0.1993408054,,,
43.1562500000,5,-0.0874023363,,,
43.1718750000,5,-0.3371582031,,,
43.1875000000,5,-0.5446776748,,,
43.2031250000,5,-0.7314453125,,,
43.2187500000,5,-0.9422606826,,,
43.2343750000,5,-1.2161870003,,,
43.2500000000,5,-1.5518800020,,,
43.2656250000,5,-1.8739010096,,,
43.2812500000,5,-2.0627439022,,,
43.2968750000,5,-2.0251460075,,,
43.3125000000,5,-1.7585450411,,,
43.3281250000,5,-1.3471679688,,,
43.3437500000,5,-0.9285889268,,,
43.3593750000,5,-0.6171875000,,,
43.3750000000,5,-0.4541015923,,,
43.3906250000,5,-0.3923340142,,,
43.4062500000,5,-0.3356933892,,,
43.4218750000,5,-0.1866454929,,,
43.4375000000,5,0.1247558966,,,
43.4531250000,5,0.6026610732,,,
43.4687500000,5,1.1944580078,,,
43.4843750000,5,1.7999269962,,,
43.5000000000,5,2.3055419922,,,
43.5156250000,5,2.6187739372,,,
43.5312500000,5,2.7078859806,,,
43.5468750000,5,2.5987548828,,,
43.5625000000,5,2.3316650391,,,
43.5781250000,5,1.9694819450,,,
43.5937500000,5,1.5584720373,,,
43.6093750000,5,1.1514890194,,,
43.6250000000,5,0.8026123047,,,
43.6406250000,5,0.5698242188,,,
43.6562500000,5,0.4807128906,,,
43.6718750000,5,0.5018311143,,,
43.6875000000,5,0.5671386719,,,
43.7031250000,5,0.5942382813,,,
43.7187500000,5,0.5454102159,,,
43.7343750000,5,0.4313965142,,,
43.7500000000,5,0.2932128906,,,
43.7656250000,5,0.1595458984,,,
43.7812500000,5,0.0306396503,,,
43.7968750000,5,-0.1289062947,,,
43.8125000000,5,-0.3563232124,,,
43.8281250000,5,-0.6588134766,,,
43.8437500000,5,-1.0147709846,,,
43.8593750000,5,-1.3795169592,,,
43.8750000000,5,-1.7116700411,,,
43.8906250000,5,-1.9659420252,,,
43.9062500000,5,-2.1138920784,,,
43.9218750000,5,-2.1409909725,,,
43.9375000000,5,-2.0539550781,,,
43.9531250000,5,-1.8815920353,,,
43.9687500000,5,-1.6781009436,,,
43.9843750000,5,-1.4965820313,,,
44.0000000000,5,-1.3613280058,,,
44.0156250000,5,-1.2728270292,,,
44.0312500000,5,-1.2010500431,,,
44.0468750000,5,-1.1074219942,,,
44.0625000000,5,-0.9837645888,,,
44.0781250000,5,-0.8239746094,,,
44.0937500000,5,-0.6367188096,,,
44.1093750000,5,-0.4313965142,,,
44.1250000000,5,-0.2248535007,,,
44.1406250000,5,-0.0560302697,,,
44.1562500000,5,0.0338134803,,,
44.1718750000,5,0.0178222694,,,
44.1875000000,5,-0.0825195313,,,
44.2031250000,5,-0.2081298977,,,
44.2187500000,5,-0.2642821968,,,
44.2343750000,5,-0.1879882962,,,
44.2500000000,5,0.0040283198,,,
44.2656250000,5,0.2362060994,,,
44.2812500000,5,0.4105224907,,,
44.2968750000,5,0.4644775093,,,
44.3125000000,5,0.4071044922,,,
44.3281250000,5,0.3160400093,,,
44.3437500000,5,0.2659912109,,,
44.3593750000,5,0.2822265923,,,
44.3750000000,5,0.3092041016,,,
44.3906250000,5,0.2607421875,,,
44.4062500000,5,0.0855712891,,,
44.4218750000,5,-0.1756591946,,,
44.4375000000,5,-0.4072265923,,,
44.4531250000,5,-0.4627686143,,,
44.4687500000,5,-0.2574462891,,,
44.4843750000,5,0.1617431939,,,
44.5000000000,5,0.6496582031,,,
44.5156250000,5,1.0224610567,,,
44.5312500000,5,1.1494139433,,,
44.5468750000,5,1.0289310217,,,
44.5625000000,5,0.7670897841,,,
44.5781250000,5,0.5169677734,,,
44.5937500000,5,0.3767090142,,,
44.6093750000,5,0.3367919922,,,
44.6250000000,5,0.3187255859,,,
44.6406250000,5,0.2248535007,,,
44.6562500000,5,0.0234375000,,,
44.6718750000,5,-0.2093506008,,,
44.6875000000,5,-0.3463135064,,,
44.7031250000,5,-0.2834472954,,,
44.7187500000,5,-0.0147705097,,,
44.7343750000,5,0.3677979112,,,
44.7500000000,5,0.6889647841,,,
44.7656250000,5,0.8209229112,,,
44.7812500000,5,0.7150878906,,,
44.7968750000,5,0.4342041016,,,
44.8125000000,5,0.0935058594,,,
44.8281250000,5,-0.2043457031,,,
44.8437500000,5,-0.4187012017,,,
44.8593750000,5,-0.5708007813,,,
44.8750000000,5,-0.7032470703,,,
44.8906250000,5,-0.8378906250,,,
44.9062500000,5,-0.9500731826,,,
44.9218750000,5,-1.0067139864,,,
44.9375000000,5,-0.9938964844,,,
44.9531250000,5,-0.9610595703,,,
44.9687500000,5,-0.9858397841,,,
44.9843750000,5,-1.1326899529,,,
45.0000000000,5,-1.3973389864,,,
45.0156250000,5,-1.6741939783,,,
45.0312500000,5,-1.8278809786,,,
45.0468750000,5,-1.7613530159,,,
45.0625000000,5,-1.4532469511,,,
45.0781250000,5,-0.9775391221,,,
45.0937500000,5,-0.4340820014,,,
45.1093750000,5,0.0926513672,,,
45.1250000000,5,0.5860595703,,,
45.1406250000,5,1.0463869572,,,
45.1562500000,5,1.4613039494,,,
45.1718750000,5,1.7874759436,,,
45.1875000000,5,1.9608149529,,,
45.2031250000,5,1.9285889864,,,
45.2187500000,5,1.6934809685,,,
45.2343750000,5,1.3189699650,,,
45.2500000000,5,0.8959960938,,,
45.2656250000,5,0.5238037109,,,
45.2812500000,5,0.2735596001,,,
45.2968750000,5,0.1734618992,,,
45.3125000000,5,0.1918945014,,,
45.3281250000,5,0.2460937947,,,
45.3437500000,5,0.2469481975,,,
45.3593750000,5,0.1257324070,,,
45.3750000000,5,-0.1066894978,,,
45.3906250000,5,-0.3770751953,,,
45.4062500000,5,-0.5690917969,,,
45.4218750000,5,-0.6094970703,,,
45.4375000000,5,-0.4837645888,,,
45.4531250000,5,-0.2551270127,,,
45.4687500000,5,-0.0345458984,,,
45.4843750000,5,0.1002196968,,,
45.5000000000,5,0.1049804986,,,
45.5156250000,5,0.0013427730,,,
45.5312500000,5,-0.1395263970,,,
45.5468750000,5,-0.2580566108,,,
45.5625000000,5,-0.3074950874,,,
45.5781250000,5,-0.2823486030,,,
45.5937500000,5,-0.1892089993,,,
45.6093750000,5,-0.0701904297,,,
45.6250000000,5,0.0504150391,,,
45.6406250000,5,0.1508789063,,,
45.6562500000,5,0.2265625000,,,
45.6718750000,5,0.2794188857,,,
45.6875000000,5,0.3126221001,,,
45.7031250000,5,0.3211669922,,,
45.7187500000,5,0.3071289063,,,
45.7343750000,5,0.2724609077,,,
45.7500000000,5,0.2342528999,,,
45.7656250000,5,0.2145995945,,,
45.7812500000,5,0.2260742038,,,
45.7968750000,5,0.2777099907,,,
45.8125000000,5,0.3652344048,,,
45.8281250000,5,0.4683837891,,,
45.8437500000,5,0.5721436143,,,
45.8593750000,5,0.6427001953,,,
45.8750000000,5,0.6650391221,,,
45.8906250000,5,0.6343994141,,,
45.9062500000,5,0.5704345703,,,
45.9218750000,5,0.5030518174,,,
45.9375000000,5,0.4637450874,,,
45.9531250000,5,0.4725342095,,,
45.9687500000,5,0.5162354112,,,
45.9843750000,5,0.5726317763,,,
46.0000000000,5,0.6063231826,,,
46.0156250000,5,0.5791016221,,,
46.0312500000,5,0.4589844048,,,
46.0468750000,5,0.2355957031,,,
46.0625000000,5,-0.0820312500,,,
46.0781250000,5,-0.4541015923,,,
46.0937500000,5,-0.8018798828,,,
46.1093750000,5,-1.0428470373,,,
46.1250000000,5,-1.1009520292,,,
46.1406250000,5,-0.9620360732,,,
46.1562500000,5,-0.6915283203,,,
46.1718750000,5,-0.4007568061,,,
46.1875000000,5,-0.2014160007,,,
46.2031250000,5,-0.1486815959,,,
46.2187500000,5,-0.2075195014,,,
46.2343750000,5,-0.2614746094,,,
46.2500000000,5,-0.1967772990,,,
46.2656250000,5,0.0515136681,,,
46.2812500000,5,0.4270020127,,,
46.2968750000,5,0.7645264268,,,
46.3125000000,5,0.8662108779,,,
46.3281250000,5,0.5998535156,,,
46.3437500000,5,-0.0123290997,,,
46.3593750000,5,-0.7993164063,,,
46.3750000000,5,-1.5052490234,,,
46.3906250000,5,-1.9260250330,,,
46.4062500000,5,-1.9936519861,,,
46.4218750000,5,-1.8016359806,,,
46.4375000000,5,-1.5307619572,,,
46.4531250000,5,-1.3461910486,,,
46.4687500000,5,-1.3039549589,,,
46.4843750000,5,-1.3481450081,,,
46.5000000000,5,-1.3570560217,,,
46.5156250000,5,-1.2404789925,,,
46.5312500000,5,-1.0036619902,,,
46.5468750000,5,-0.7398682237,,,
46.5625000000,5,-0.5804442763,,,
46.5781250000,5,-0.5933837891,,,
46.5937500000,5,-0.7517089844,,,
46.6093750000,5,-0.9636229873,,,
46.6250000000,5,-1.1347659826,,,
46.6406250000,5,-1.2141109705,,,
46.6562500000,5,-1.2132569551,,,
46.6718750000,5,-1.1733399630,,,
46.6875000000,5,-1.1059570313,,,
46.7031250000,5,-0.9737548828,,,
46.7187500000,5,-0.7232666016,,,
46.7343750000,5,-0.3256835938,,,
46.7500000000,5,0.1684570014,,,
46.7656250000,5,0.6547852159,,,
46.7812500000,5,1.0361330509,,,
46.7968750000,5,1.2745360136,,,
46.8125000000,5,1.4229739904,,,
46.8281250000,5,1.5709229708,,,
46.8437500000,5,1.8041989803,,,
46.8593750000,5,2.1293950081,,,
46.8750000000,5,2.4876708984,,,
46.8906250000,5,2.7908940315,,,
46.9062500000,5,2.9536130428,,,
46.9218750000,5,2.9454350471,,,
46.9375000000,5,2.7836909294,,,
46.9531250000,5,2.5130620003,,,
46.9687500000,5,2.1800539494,,,
46.9843750000,5,1.8060300350,,,
47.0000000000,5,1.3991700411,,,
47.0156250000,5,0.9631348252,,,
47.0312500000,5,0.5166016221,,,
47.0468750000,5,0.1125487983,,,
47.0625000000,5,-0.1795653999,,,
47.0781250000,5,-0.2906494141,,,
47.0937500000,5,-0.1932373047,,,
47.1093750000,5,0.0717773363,,,
47.1250000000,5,0.3991698921,,,
47.1406250000,5,0.6494141221,,,
47.1562500000,5,0.7304688096,,,
47.1718750000,5,0.6197509766,,,
47.1875000000,5,0.3878174126,,,
47.2031250000,5,0.1429443061,,,
47.2187500000,5,-0.0126953097,,,
47.2343750000,5,-0.0535888709,,,
47.2500000000,5,-0.0039062500,,,
47.2656250000,5,0.0749511719,,,
47.2812500000,5,0.1447754055,,,
47.2968750000,5,0.1888428032,,,
47.3125000000,5,0.2272949070,,,
47.3281250000,5,0.2612304986,,,
47.3437500000,5,0.2687987983,,,
47.3593750000,5,0.1893310994,,,
47.3750000000,5,-0.0372314490,,,
47.3906250000,5,-0.4200438857,,,
47.4062500000,5,-0.9176024795,,,
47.4218750000,5,-1.4335939884,,,
47.4375000000,5,-1.8673100471,,,
47.4531250000,5,-2.1357419491,,,
47.4687500000,5,-2.2086179256,,,
47.4843750000,5,-2.1085209846,,,
47.5000000000,5,-1.9084470272,,,
47.5156250000,5,-1.6979980469,,,
47.5312500000,5,-1.5502929688,,,
47.5468750000,5,-1.5122070313,,,
47.5625000000,5,-1.5751949549,,,
47.5781250000,5,-1.6877440214,,,
47.5937500000,5,-1.7755130529,,,
47.6093750000,5,-1.7697750330,,,
47.6250000000,5,-1.6219480038,,,
47.6406250000,5,-1.3345949650,,,
47.6562500000,5,-0.9462891221,,,
47.6718750000,5,-0.5178223252,,,
47.6875000000,5,-0.1203612983,,,
47.7031250000,5,0.1871338040,,,
47.7187500000,5,0.3721924126,,,
47.7343750000,5,0.4135741889,,,
47.7500000000,5,0.2968750000,,,
47.7656250000,5,0.0360107385,,,
47.7812500000,5,-0.3135986030,,,
47.7968750000,5,-0.6423339844,,,
47.8125000000,5,-0.8116455078,,,
47.8281250000,5,-0.7092285156,,,
47.8437500000,5,-0.3117676079,,,
47.8593750000,5,0.2757568061,,,
47.8750000000,5,0.8590087891,,,
47.8906250000,5,1.2293699980,,,
47.9062500000,5,1.2852779627,,,
47.9218750000,5,1.0770260096,,,
47.9375000000,5,0.7766113281,,,
47.9531250000,5,0.5738524795,,,
47.9687500000,5,0.5770264268,,,
47.9843750000,5,0.7696533203,,,
48.0000000000,6,1.0427249670,,,
48.0156250000,6,1.2641600370,,,
48.0312500000,6,1.3648680449,,,
48.0468750000,6,1.3395999670,,,
48.0625000000,6,1.2401119471,,,
48.0781250000,6,1.1081540585,,,
48.0937500000,6,0.9567871094,,,
48.1093750000,6,0.7767333984,,,
48.1250000000,6,0.5622559190,,,
48.1406250000,6,0.3218994141,,,
48.1562500000,6,0.0909423828,,,
48.1718750000,6,-0.0749511719,,,
48.1875000000,6,-0.1646728963,,,
48.2031250000,6,-0.1964111030,,,
48.2187500000,6,-0.2253417969,,,
48.2343750000,6,-0.3085938096,,,
48.2500000000,6,-0.4777832031,,,
48.2656250000,6,-0.7027587891,,,
48.2812500000,6,-0.9182128906,,,
48.2968750000,6,-1.0516359806,,,
48.3125000000,6,-1.0847170353,,,
48.3281250000,6,-1.0863039494,,,
48.3437500000,6,-1.1622309685,,,
48.3593750000,6,-1.3864749670,,,
48.3750000000,6,-1.7160639763,,,
48.3906250000,6,-1.9992680550,,,
48.4062500000,6,-2.0185549259,,,
48.4218750000,6,-1.6373289824,,,
48.4375000000,6,-0.8770751953,,,
48.4531250000,6,0.0537109412,,,
48.4687500000,6,0.8623046875,,,
48.4843750000,6,1.2933349609,,,
48.5000000000,6,1.2595210075,,,
48.5156250000,6,0.8464354873,,,
48.5312500000,6,0.2718505859,,,
48.5468750000,6,-0.2312012017,,,
48.5625000000,6,-0.4909667969,,,
48.5781250000,6,-0.4515380859,,,
48.5937500000,6,-0.1687012017,,,
48.6093750000,6,0.2280272990,,,
48.6250000000,6,0.6040039063,,,
48.6406250000,6,0.8405761719,,,
48.6562500000,6,0.8937988281,,,
48.6718750000,6,0.8104248047,,,
48.6875000000,6,0.6759033203,,,
48.7031250000,6,0.5766602159,,,
48.7187500000,6,0.5505371094,,,
48.7343750000,6,0.5871582031,,,
48.7500000000,6,0.6511229873,,,
48.7656250000,6,0.7253417969,,,
48.7812500000,6,0.7991942763,,,
48.7968750000,6,0.8548583984,,,
48.8125000000,6,0.8433837891,,,
48.8281250000,6,0.6926270127,,,
48.8437500000,6,0.3551025093,,,
48.8593750000,6,-0.1280518025,,,
48.8750000000,6,-0.6263427734,,,
48.8906250000,6,-0.9923095703,,,
48.9062500000,6,-1.1187740564,,,
48.9218750000,6,-1.0249019861,,,
48.9375000000,6,-0.8312988281,,,
48.9531250000,6,-0.6979979873,,,
48.9687500000,6,-0.7290039063,,,
48.9843750000,6,-0.9216309190,,,
49.0000000000,6,-1.1805419922,,,
49.0156250000,6,-1.3926999569,,,
49.0312500000,6,-1.4787600040,,,
49.0468750000,6,-1.4223630428,,,
49.0625000000,6,-1.2441409826,,,
49.0781250000,6,-0.9781494141,,,
49.0937500000,6,-0.6497802734,,,
49.1093750000,6,-0.2866210938,,,
49.1250000000,6,0.0922851637,,,
49.1406250000,6,0.4610596001,,,
49.1562500000,6,0.7908936143,,,
49.1718750000,6,1.0491939783,,,
49.1875000000,6,1.2006839514,,,
49.2031250000,6,1.2275389433,,,
49.2187500000,6,1.1383060217,,,
49.2343750000,6,0.9830322266,,,
49.2500000000,6,0.8247069716,,,
49.2656250000,6,0.7393798828,,,
49.2812500000,6,0.7713623047,,,
49.2968750000,6,0.9172363281,,,
49.3125000000,6,1.1307369471,,,
49.3281250000,6,1.3475339413,,,
49.3437500000,6,1.4941409826,,,
49.3593750000,6,1.5179439783,,,
49.3750000000,6,1.4058840275,,,
49.3906250000,6,1.1723630428,,,
49.4062500000,6,0.8869628906,,,
49.4218750000,6,0.6060791016,,,
49.4375000000,6,0.3867188096,,,
49.4531250000,6,0.2528075874,,,
49.4687500000,6,0.1688231975,,,
49.4843750000,6,0.0574951209,,,
49.5000000000,6,-0.1539306939,,,
49.5156250000,6,-0.4836426079,,,
49.5312500000,6,-0.8673095703,,,
49.5468750000,6,-1.1752929688,,,
49.5625000000,6,-1.2795410156,,,
49.5781250000,6,-1.1339110136,,,
49.5937500000,6,-0.8131104112,,,
49.6093750000,6,-0.4704590142,,,
49.6250000000,6,-0.2563476861,,,
49.6406250000,6,-0.2517090142,,,
49.6562500000,6,-0.4235840142,,,
49.6718750000,6,-0.6689453125,,,
49.6875000000,6,-0.8754882813,,,
49.7031250000,6,-0.9771729112,,,
49.7187500000,6,-0.9754639268,,,
49.7343750000,6,-0.8923339844,,,
49.7500000000,6,-0.7701416016,,,
49.7656250000,6,-0.6223145127,,,
49.7812500000,6,-0.4447020888,,,
49.7968750000,6,-0.2519530952,,,
49.8125000000,6,-0.0737304688,,,
49.8281250000,6,0.0603027306,,,
49.8437500000,6,0.1356201023,,,
49.8593750000,6,0.1671143025,,,
49.8750000000,6,0.1920166016,,,
49.8906250000,6,0.2362060994,,,
49.9062500000,6,0.3254395127,,,
49.9218750000,6,0.4545898139,,,
49.9375000000,6,0.6005858779,,,
49.9531250000,6,0.7292479873,,,
49.9687500000,6,0.7971190810,,,
49.9843750000,6,0.7709960938,,,
50.0000000000,6,0.6531981826,,,
50.0156250000,6,0.4826659858,,,
50.0312500000,6,0.3336181939,,,
50.0468750000,6,0.2702637017,,,
50.0625000000,6,0.3287354112,,,
50.0781250000,6,0.4776611030,,,
50.0937500000,6,0.6330565810,,,
50.1093750000,6,0.7047119141,,,
50.1250000000,6,0.6319580078,,,
50.1406250000,6,0.4306640923,,,
50.1562500000,6,0.1732178032,,,
50.1718750000,6,-0.0441894494,,,
50.1875000000,6,-0.1582030952,,,
50.2031250000,6,-0.1678466946,,,
50.2187500000,6,-0.1318358928,,,
50.2343750000,6,-0.1129150018,,,
50.2500000000,6,-0.1557617038,,,
50.2656250000,6,-0.2507323921,,,
50.2812500000,6,-0.3341063857,,,
50.2968750000,6,-0.3385010064,,,
50.3125000000,6,-0.2192382962,,,
50.3281250000,6,0.0185546894,,,
50.3437500000,6,0.3365479112,,,
50.3593750000,6,0.6802979112,,,
50.3750000000,6,0.9973145127,,,
50.3906250000,6,1.2495119572,,,
50.4062500000,6,1.3891600370,,,
50.4218750000,6,1.3691409826,,,
50.4375000000,6,1.1354980469,,,
50.4531250000,6,0.6694335938,,,
50.4687500000,6,-0.0037841799,,,
50.4843750000,6,-0.7852783203,,,
50.5000000000,6,-1.5461430550,,,
50.5156250000,6,-2.1556398869,,,
50.5312500000,6,-2.5139160156,,,
50.5468750000,6,-2.6126708984,,,
50.5625000000,6,-2.5014650822,,,
50.5781250000,6,-2.2736821175,,,
50.5937500000,6,-2.0137939453,,,
50.6093750000,6,-1.7355959415,,,
50.6250000000,6,-1.4016109705,,,
50.6406250000,6,-0.9409180284,,,
50.6562500000,6,-0.3150635064,,,
50.6718750000,6,0.4285888970,,,
50.6875000000,6,1.1552729607,,,
50.7031250000,6,1.6879880428,,,
50.7187500000,6,1.8983149529,,,
50.7343750000,6,1.7761230469,,,
50.7500000000,6,1.4431149960,,,
50.7656250000,6,1.0941159725,,,
50.7812500000,6,0.8867188096,,,
50.7968750000,6,0.8581542969,,,
50.8125000000,6,0.9267578125,,,
50.8281250000,6,0.9498291016,,,
50.8437500000,6,0.8380126953,,,
50.8593750000,6,0.5942382813,,,
50.8750000000,6,0.3192138970,,,
50.8906250000,6,0.1164551005,,,
50.9062500000,6,0.0263671894,,,
50.9218750000,6,-0.0120849600,,,
50.9375000000,6,-0.0953369066,,,
50.9531250000,6,-0.2835693061,,,
50.9687500000,6,-0.5434569716,,,
50.9843750000,6,-0.7487792969,,,
51.0000000000,6,-0.7777100205,,,
51.0156250000,6,-0.5866699219,,,
51.0312500000,6,-0.2469481975,,,
51.0468750000,6,0.1107178032,,,
51.0625000000,6,0.3679198921,,,
51.0781250000,6,0.4860840142,,,
51.0937500000,6,0.4956054986,,,
51.1093750000,6,0.4562987983,,,
51.1250000000,6,0.3931885064,,,
51.1406250000,6,0.2789306939,,,
51.1562500000,6,0.0899658203,,,
51.1718750000,6,-0.1848144978,,,
51.1875000000,6,-0.5063477159,,,
51.2031250000,6,-0.8243408203,,,
51.2187500000,6,-1.0900880098,,,
51.2343750000,6,-1.2873539925,,,
51.2500000000,6,-1.4205319881,,,
51.2656250000,6,-1.4968260527,,,
51.2812500000,6,-1.5166020393,,,
51.2968750000,6,-1.4749759436,,,
51.3125000000,6,-1.3831789494,,,
51.3281250000,6,-1.2595210075,,,
51.3437500000,6,-1.1131589413,,,
51.3593750000,6,-0.9537354112,,,
51.3750000000,6,-0.7619628906,,,
51.3906250000,6,-0.5270996094,,,
51.4062500000,6,-0.2468262017,,,
51.4218750000,6,0.0389404297,,,
51.4375000000,6,0.2901611030,,,
51.4531250000,6,0.4688721001,,,
51.4687500000,6,0.5743408203,,,
51.4843750000,6,0.6314697266,,,
51.5000000000,6,0.6729735732,,,
51.5156250000,6,0.7239990234,,,
51.5312500000,6,0.7926024795,,,
51.5468750000,6,0.8735352159,,,
51.5625000000,6,0.9587401748,,,
51.5781250000,6,1.0267330408,,,
51.5937500000,6,1.0527340174,,,
51.6093750000,6,1.0195310116,,,
51.6250000000,6,0.9155272841,,,
51.6406250000,6,0.7482910156,,,
51.6562500000,6,0.5388184190,,,
51.6718750000,6,0.3039551079,,,
51.6875000000,6,0.0606689490,,,
51.7031250000,6,-0.1900635064,,,
51.7187500000,6,-0.4365234077,,,
51.7343750000,6,-0.6693115234,,,
51.7500000000,6,-0.8475341797,,,
51.7656250000,6,-0.9294434190,,,
51.7812500000,6,-0.8773192763,,,
51.7968750000,6,-0.6695557237,,,
51.8125000000,6,-0.3321532905,,,
51.8281250000,6,0.0850830078,,,
51.8437500000,6,0.4904784858,,,
51.8593750000,6,0.7849121094,,,
51.8750000000,6,0.8831787109,,,
51.8906250000,6,0.7583007813,,,
51.9062500000,6,0.4620361030,,,
51.9218750000,6,0.0969238281,,,
51.9375000000,6,-0.2083739936,,,
51.9531250000,6,-0.3752441108,,,
51.9687500000,6,-0.4023438096,,,
51.9843750000,6,-0.3343505859,,,
52.0000000000,6,-0.2468262017,,,
52.0156250000,6,-0.1868896037,,,
52.0312500000,6,-0.1391602010,,,
52.0468750000,6,-0.0577392615,,,
52.0625000000,6,0.0831298828,,,
52.0781250000,6,0.2678222954,,,
52.0937500000,6,0.4450683892,,,
52.1093750000,6,0.5622559190,,,
52.1250000000,6,0.6005858779,,,
52.1406250000,6,0.5919188857,,,
52.1562500000,6,0.5855712891,,,
52.1718750000,6,0.6069335938,,,
52.1875000000,6,0.6378173828,,,
52.2031250000,6,0.6138916016,,,
52.2187500000,6,0.4934082031,,,
52.2343750000,6,0.2695313096,,,
52.2500000000,6,-0.0014648440,,,
52.2656250000,6,-0.2167969048,,,
52.2812500000,6,-0.2905273139,,,
52.2968750000,6,-0.1812743992,,,
52.3125000000,6,0.0566406287,,,
52.3281250000,6,0.3084717095,,,
52.3437500000,6,0.4432373047,,,
52.3593750000,6,0.3752441108,,,
52.3750000000,6,0.1113281026,,,
52.3906250000,6,-0.2426757962,,,
52.4062500000,6,-0.5296630859,,,
52.4218750000,6,-0.6267089844,,,
52.4375000000,6,-0.4968262017,,,
52.4531250000,6,-0.2220458984,,,
52.4687500000,6,0.0363769494,,,
52.4843750000,6,0.1502685994,,,
52.5000000000,6,0.0751953125,,,
52.5156250000,6,-0.1141356975,,,
52.5312500000,6,-0.3000487983,,,
52.5468750000,6,-0.3638916016,,,
52.5625000000,6,-0.2764892876,,,
52.5781250000,6,-0.0966796875,,,
52.5937500000,6,0.0755615234,,,
52.6093750000,6,0.1651611030,,,
52.6250000000,6,0.1650391072,,,
52.6406250000,6,0.1159667969,,,
52.6562500000,6,0.0589599609,,,
52.6718750000,6,-0.0059814448,,,
52.6875000000,6,-0.1158446968,,,
52.7031250000,6,-0.3145751953,,,
52.7187500000,6,-0.6146240234,,,
52.7343750000,6,-0.9521483779,,,
52.7500000000,6,-1.2255860567,,,
52.7656250000,6,-1.3395999670,,,
52.7812500000,6,-1.2547609806,,,
52.7968750000,6,-0.9970703125,,,
52.8125000000,6,-0.6674805284,,,
52.8281250000,6,-0.3912354112,,,
52.8437500000,6,-0.2541503906,,,
52.8593750000,6,-0.2761229873,,,
52.8750000000,6,-0.3881835938,,,
52.8906250000,6,-0.4737549126,,,
52.9062500000,6,-0.4510498047,,,
52.9218750000,6,-0.3177489936,,,
52.9375000000,6,-0.1544189006,,,
52.9531250000,6,-0.0605468787,,,
52.9687500000,6,-0.0749511719,,,
52.9843750000,6,-0.1348876953,,,
53.0000000000,6,-0.1264647990,,,
53.0156250000,6,0.0334472694,,,
53.0312500000,6,0.2882080078,,,
53.0468750000,6,0.4558104873,,,
53.0625000000,6,0.3376465142,,,
53.0781250000,6,-0.1486815959,,,
53.0937500000,6,-0.8804932237,,,
53.1093750000,6,-1.5926510096,,,
53.1250000000,6,-1.9954830408,,,
53.1406250000,6,-1.9453129768,,,
53.1562500000,6,-1.4968260527,,,
53.1718750000,6,-0.8509520888,,,
53.1875000000,6,-0.2183838040,,,
53.2031250000,6,0.2720946968,,,
53.2187500000,6,0.6041259766,,,
53.2343750000,6,0.8172606826,,,
53.2500000000,6,0.9600830078,,,
53.2656250000,6,1.0396729708,,,
53.2812500000,6,1.0095210075,,,
53.2968750000,6,0.8402100205,,,
53.3125000000,6,0.5310059190,,,
53.3281250000,6,0.1240234002,,,
53.3437500000,6,-0.2888183892,,,
53.3593750000,6,-0.6147460938,,,
53.3750000000,6,-0.7860106826,,,
53.3906250000,6,-0.7830811143,,,
53.4062500000,6,-0.6348876953,,,
53.4218750000,6,-0.4056395888,,,
53.4375000000,6,-0.1613769978,,,
53.4531250000,6,0.0678710863,,,
53.4687500000,6,0.2868652046,,,
53.4843750000,6,0.5125731826,,,
53.5000000000,6,0.7395020127,,,
53.5156250000,6,0.9219970703,,,
53.5312500000,6,0.9869384766,,,
53.5468750000,6,0.8728026748,,,
53.5625000000,6,0.5726317763,,,
53.5781250000,6,0.1390381008,,,
53.5937500000,6,-0.3236083984,,,
53.6093750000,6,-0.7253417969,,,
53.6250000000,6,-1.0202640295,,,
53.6406250000,6,-1.2092289925,,,
53.6562500000,6,-1.3117680550,,,
53.6718750000,6,-1.3420410156,,,
53.6875000000,6,-1.2608640194,,,
53.7031250000,6,-1.0288089514,,,
53.7187500000,6,-0.6114501953,,,
53.7343750000,6,-0.0511474609,,,
53.7500000000,6,0.5318604112,,,
53.7656250000,6,1.0032960176,,,
53.7812500000,6,1.2348630428,,,
53.7968750000,6,1.1961669922,,,
53.8125000000,6,0.9680175781,,,
53.8281250000,6,0.7031250000,,,
53.8437500000,6,0.5732421875,,,
53.8593750000,6,0.6816406250,,,
53.8750000000,6,1.0223389864,,,
53.8906250000,6,1.4660639763,,,
53.9062500000,6,1.8249510527,,,
53.9218750000,6,1.9392089844,,,
53.9375000000,6,1.7513430119,,,
53.9531250000,6,1.3327640295,,,
53.9687500000,6,0.8706055284,,,
53.9843750000,6,0.5616455078,,,
54.0000000000,6,0.5157470703,,,
54.0156250000,6,0.7132567763,,,
54.0312500000,6,1.0081789494,,,
54.0468750000,6,1.2493900061,,,
54.0625000000,6,1.3544919491,,,
54.0781250000,6,1.3489990234,,,
54.0937500000,6,1.3094480038,,,
54.1093750000,6,1.2967530489,,,
54.1250000000,6,1.2731930017,,,
54.1406250000,6,1.1274410486,,,
54.1562500000,6,0.7602539063,,,
54.1718750000,6,0.1800536960,,,
54.1875000000,6,-0.4471436143,,,
54.2031250000,6,-0.8907470703,,,
54.2187500000,6,-0.9798583984,,,
54.2343750000,6,-0.7255858779,,,
54.2500000000,6,-0.3243407905,,,
54.2656250000,6,-0.0367431603,,,
54.2812500000,6,-0.0412597694,,,
54.2968750000,6,-0.3262938857,,,
54.3125000000,6,-0.7161865234,,,
54.3281250000,6,-0.9915770888,,,
54.3437500000,6,-1.0301510096,,,
54.3593750000,6,-0.8762207031,,,
54.3750000000,6,-0.6843261719,,,
54.3906250000,6,-0.6223145127,,,
54.4062500000,6,-0.7695313096,,,
54.4218750000,6,-1.0760500431,,,
54.4375000000,6,-1.3864749670,,,
54.4531250000,6,-1.5452879667,,,
54.4687500000,6,-1.4550780058,,,
54.4843750000,6,-1.1109620333,,,
54.5000000000,6,-0.5998535156,,,
54.5156250000,6,-0.0419921912,,,
54.5312500000,6,0.4343262017,,,
54.5468750000,6,0.7526854873,,,
54.5625000000,6,0.8792725205,,,
54.5781250000,6,0.8276367188,,,
54.5937500000,6,0.6184082031,,,
54.6093750000,6,0.2883301079,,,
54.6250000000,6,-0.1184082031,,,
54.6406250000,6,-0.5333251953,,,
54.6562500000,6,-0.8627930284,,,
54.6718750000,6,-1.0166020393,,,
54.6875000000,6,-0.9512938857,,,
54.7031250000,6,-0.7186279297,,,
54.7187500000,6,-0.4498291016,,,
54.7343750000,6,-0.2969971001,,,
54.7500000000,6,-0.3367919922,,,
54.7656250000,6,-0.5064697266,,,
54.7812500000,6,-0.6337891221,,,
54.7968750000,6,-0.5206298828,,,
54.8125000000,6,-0.0842285231,,,
54.8281250000,6,0.6002197266,,,
54.8437500000,6,1.3361819983,,,
54.8593750000,6,1.9204100370,,,
54.8750000000,6,2.2462160587,,,
54.8906250000,6,2.3253169060,,,
54.9062500000,6,2.2521970272,,,
54.9218750000,6,2.0989990234,,,
54.9375000000,6,1.8828129768,,,
54.9531250000,6,1.5574949980,,,
54.9687500000,6,1.0839840174,,,
54.9843750000,6,0.4895020127,,,
55.0000000000,6,-0.1304931939,,,
55.0156250000,6,-0.6530761719,,,
55.0312500000,6,-0.9993895888,,,
55.0468750000,6,-1.1712650061,,,
55.0625000000,6,-1.2498780489,,,
55.0781250000,6,-1.3135989904,,,
55.0937500000,6,-1.3963619471,,,
55.1093750000,6,-1.4541020393,,,
55.1250000000,6,-1.4188230038,,,
55.1406250000,6,-1.2431639433,,,
55.1562500000,6,-0.9466552734,,,
55.1718750000,6,-0.6062011719,,,
55.1875000000,6,-0.3218994141,,,
55.2031250000,6,-0.1575928032,,,
55.2187500000,6,-0.1191406026,,,
55.2343750000,6,-0.1702881008,,,
55.2500000000,6,-0.2567138970,,,
55.2656250000,6,-0.3233642876,,,
55.2812500000,6,-0.3570556939,,,
55.2968750000,6,-0.3487549126,,,
55.3125000000,6,-0.3126221001,,,
55.3281250000,6,-0.2722167969,,,
55.3437500000,6,-0.2474364936,,,
55.3593750000,6,-0.2459716946,,,
55.3750000000,6,-0.2480469048,,,
55.3906250000,6,-0.2158202976,,,
55.4062500000,6,-0.1009520963,,,
55.4218750000,6,0.0992431566,,,
55.4375000000,6,0.3416748047,,,
55.4531250000,6,0.5183104873,,,
55.4687500000,6,0.5240479112,,,
55.4843750000,6,0.3142090142,,,
55.5000000000,6,-0.0377197303,,,
55.5156250000,6,-0.3912354112,,,
55.5312500000,6,-0.5952147841,,,
55.5468750000,6,-0.5729979873,,,
55.5625000000,6,-0.3769530952,,,
55.5781250000,6,-0.1400146037,,,
55.5937500000,6,0.0009765625,,,
55.6093750000,6,-0.0036621089,,,
55.6250000000,6,-0.0966796875,,,
55.6406250000,6,-0.1732178032,,,
55.6562500000,6,-0.1573486030,,,
55.6718750000,6,-0.0574951209,,,
55.6875000000,6,0.0233154297,,,
55.7031250000,6,-0.0301513709,,,
55.7187500000,6,-0.2584229112,,,
55.7343750000,6,-0.5915526748,,,
55.7500000000,6,-0.8817139268,,,
55.7656250000,6,-0.9744873047,,,
55.7812500000,6,-0.7987061143,,,
55.7968750000,6,-0.3925780952,,,
55.8125000000,6,0.1248778999,,,
55.8281250000,6,0.6076660156,,,
55.8437500000,6,0.9531250000,,,
55.8593750000,6,1.1287839413,,,
55.8750000000,6,1.1517330408,,,
55.8906250000,6,1.0621340275,,,
55.9062500000,6,0.9096680284,,,
55.9218750000,6,0.7366942763,,,
55.9375000000,6,0.5783690810,,,
55.9531250000,6,0.4672851861,,,
55.9687500000,6,0.4174804986,,,
55.9843750000,6,0.4102782905,,,
56.0000000000,7,0.4152832031,,,
56.0156250000,7,0.4100342095,,,
56.0312500000,7,0.3771972954,,,
56.0468750000,7,0.3258056939,,,
56.0625000000,7,0.2686767876,,,
56.0781250000,7,0.2083739936,,,
56.0937500000,7,0.1428222954,,,
56.1093750000,7,0.0617675819,,,
56.1250000000,7,-0.0324706994,,,
56.1406250000,7,-0.1488036960,,,
56.1562500000,7,-0.2972412109,,,
