Time:64Hz,Epoch,Channel 1,Event Id,Event Date,Event Duration
0.0000000000,0,-0.8397216797,,,
0.0156250000,0,-0.8671875000,,,
0.0312500000,0,-0.8052979112,,,
0.0468750000,0,-0.7125244141,,,
0.0625000000,0,-0.6180419922,,,
0.0781250000,0,-0.5048828125,,,
0.0937500000,0,-0.3201903999,,,
0.1093750000,0,-0.0256347694,,,
0.1250000000,0,0.3613280952,,,
0.1406250000,0,0.7448729873,,,
0.1562500000,0,0.9962158203,,,
0.1718750000,0,1.0272220373,,,
0.1875000000,0,0.8498535156,,,
0.2031250000,0,0.5983886719,,,
0.2187500000,0,0.4492188096,,,
0.2343750000,0,0.5092772841,,,
0.2500000000,0,0.7568358779,,,
0.2656250000,0,1.0469969511,,,
0.2812500000,0,1.1906739473,,,
0.2968750000,0,1.0773930550,,,
0.3125000000,0,0.7460938096,,,
0.3281250000,0,0.3729248047,,,
0.3437500000,0,0.1779785007,,,
0.3593750000,0,0.2967528999,,,
0.3750000000,0,0.7116699219,,,
0.3906250000,0,1.2507319450,,,
0.4062500000,0,1.6861569881,,,
0.4218750000,0,1.8475339413,,,
0.4375000000,0,1.6690670252,,,
0.4531250000,0,1.2159420252,,,
0.4687500000,0,0.6171875000,,,
0.4843750000,0,0.0051269531,,,
0.5000000000,0,-0.5306395888,,,
0.5156250000,0,-0.9547119141,,,
0.5312500000,0,-1.2674560547,,,
0.5468750000,0,-1.4857180119,,,
0.5625000000,0,-1.6269530058,,,
0.5781250000,0,-1.7214360237,,,
0.5937500000,0,-1.8126219511,,,
0.6093750000,0,-1.9301760197,,,
0.6250000000,0,-2.0703129768,,,
0.6406250000,0,-2.1650390625,,,
0.6562500000,0,-2.1051030159,,,
0.6718750000,0,-1.8087160587,,,
0.6875000000,0,-1.2768549919,,,
0.7031250000,0,-0.5953369141,,,
0.7187500000,0,0.1186522990,,,
0.7343750000,0,0.7357177734,,,
0.7500000000,0,1.1979980469,,,
0.7656250000,0,1.4874269962,,,
0.7812500000,0,1.6093750000,,,
0.7968750000,0,1.5642089844,,,
0.8125000000,0,1.3671879768,,,
0.8281250000,0,1.0557860136,,,
0.8437500000,0,0.7249755859,,,
0.8593750000,0,0.4981688857,,,
0.8750000000,0,0.4820556939,,,
0.8906250000,0,0.6961669922,,,
0.9062500000,0,1.0446779728,,,
0.9218750000,0,1.3282469511,,,
0.9375000000,0,1.3330080509,,,
0.9531250000,0,0.9393311143,,,
0.9687500000,0,0.1905518025,,,
0.9843750000,0,-0.6964110732,,,
1.0000000000,0,-1.4350589514,,,
1.0156250000,0,-1.7933349609,,,
1.0312500000,0,-1.7038569450,,,
1.0468750000,0,-1.2913819551,,,
1.0625000000,0,-0.7995604873,,,
1.0781250000,0,-0.4577637017,,,
1.0937500000,0,-0.3931885064,,,
1.1093750000,0,-0.5667725205,,,
1.1250000000,0,-0.8370360732,,,
1.1406250000,0,-1.0593260527,,,
1.1562500000,0,-1.1549069881,,,
1.1718750000,0,-1.1289060116,,,
1.1875000000,0,-1.0430910587,,,
1.2031250000,0,-0.9423828125,,,
1.2187500000,0,-0.8040770888,,,
1.2343750000,0,-0.6020507813,,,
1.2500000000,0,-0.3173828125,,,
1.2656250000,0,-0.0064697270,,,
1.2812500000,0,0.2303466946,,,
1.2968750000,0,0.3011474907,,,
1.3125000000,0,0.1862792969,,,
1.3281250000,0,-0.0476074181,,,
1.3437500000,0,-0.2730712891,,,
1.3593750000,0,-0.3824462891,,,
1.3750000000,0,-0.3508301079,,,
1.3906250000,0,-0.2568359077,,,
1.4062500000,0,-0.2159423977,,,
1.4218750000,0,-0.3026123047,,,
1.4375000000,0,-0.4825438857,,,
1.4531250000,0,-0.6308593750,,,
1.4687500000,0,-0.6105957031,,,
1.4843750000,0,-0.3618164063,,,
1.5000000000,0,0.0493164100,,,
1.5156250000,0,0.4599609077,,,
1.5312500000,0,0.7089843750,,,
1.5468750000,0,0.7036132813,,,
1.5625000000,0,0.4819335938,,,
1.5781250000,0,0.1588135064,,,
1.5937500000,0,-0.1317138970,,,
1.6093750000,0,-0.3143311143,,,
1.6250000000,0,-0.3747558892,,,
1.6406250000,0,-0.3601073921,,,
1.6562500000,0,-0.3398438096,,,
1.6718750000,0,-0.3637695014,,,
1.6875000000,0,-0.4520263970,,,
1.7031250000,0,-0.5924072266,,,
1.7187500000,0,-0.7408447266,,,
1.7343750000,0,-0.8682860732,,,
1.7500000000,0,-0.9307860732,,,
1.7656250000,0,-0.9019774795,,,
1.7812500000,0,-0.7668457031,,,
1.7968750000,0,-0.5195313096,,,
1.8125000000,0,-0.1638184041,,,
1.8281250000,0,0.2730712891,,,
1.8437500000,0,0.7426757813,,,
1.8593750000,0,1.1781009436,,,
1.8750000000,0,1.5196529627,,,
1.8906250000,0,1.7355959415,,,
1.9062500000,0,1.8061519861,,,
1.9218750000,0,1.7360839844,,,
1.9375000000,0,1.5358890295,,,
1.9531250000,0,1.2297359705,,,
1.9687500000,0,0.8487548828,,,
1.9843750000,0,0.4572753906,,,
2.0000000000,0,0.1472167969,,,
2.0156250000,0,0.0092773438,,,
2.0312500000,0,0.0916747972,,,
2.0468750000,0,0.3535155952,,,
2.0625000000,0,0.7015380859,,,
2.0781250000,0,1.0034179688,,,
2.0937500000,0,1.1679689884,,,
2.1093750000,0,1.1729739904,,,
2.1250000000,0,1.0356450081,,,
2.1406250000,0,0.7949218750,,,
2.1562500000,0,0.4833984077,,,
2.1718750000,0,0.1343993992,,,
2.1875000000,0,-0.1981201023,,,
2.2031250000,0,-0.4553222954,,,
2.2187500000,0,-0.6004639268,,,
2.2343750000,0,-0.6541748047,,,
2.2500000000,0,-0.6944580078,,,
2.2656250000,0,-0.8103026748,,,
2.2812500000,0,-1.0360109806,,,
2.2968750000,0,-1.3057860136,,,
2.3125000000,0,-1.4951169491,,,
2.3281250000,0,-1.5047609806,,,
2.3437500000,0,-1.3175050020,,,
2.3593750000,0,-1.0235600471,,,
2.3750000000,0,-0.7530518174,,,
2.3906250000,0,-0.5726317763,,,
2.4062500000,0,-0.4827880859,,,
2.4218750000,0,-0.4134520888,,,
2.4375000000,0,-0.3303222954,,,
2.4531250000,0,-0.2681885064,,,
2.4687500000,0,-0.3317871094,,,
2.4843750000,0,-0.6098632813,,,
2.5000000000,0,-1.1013180017,,,
2.5156250000,0,-1.6862790585,,,
2.5312500000,0,-2.1652829647,,,
2.5468750000,0,-2.3472900391,,,
2.5625000000,0,-2.1146240234,,,
2.5781250000,0,-1.4863280058,,,
2.5937500000,0,-0.5877686143,,,
2.6093750000,0,0.3952637017,,,
2.6250000000,0,1.2469480038,,,
2.6406250000,0,1.7817380428,,,
2.6562500000,0,1.8840329647,,,
2.6718750000,0,1.5498050451,,,
2.6875000000,0,0.8952636719,,,
2.7031250000,0,0.1475829929,,,
2.7187500000,0,-0.4645996094,,,
2.7343750000,0,-0.7718505859,,,
2.7500000000,0,-0.7446289063,,,
2.7656250000,0,-0.4816895127,,,
2.7812500000,0,-0.1604004055,,,
2.7968750000,0,0.0502929688,,,
2.8125000000,0,0.0451660194,,,
2.8281250000,0,-0.2006835938,,,
2.8437500000,0,-0.6298828125,,,
2.8593750000,0,-1.1433110237,,,
2.8750000000,0,-1.6280519962,,,
2.8906250000,0,-1.9627690315,,,
2.9062500000,0,-2.0758059025,,,
2.9218750000,0,-1.9434809685,,,
2.9375000000,0,-1.6147459745,,,
2.9531250000,0,-1.2067869902,,,
2.9687500000,0,-0.8497313857,,,
2.9843750000,0,-0.6350098252,,,
3.0000000000,0,-0.5831298828,,,
3.0156250000,0,-0.6602783203,,,
3.0312500000,0,-0.8143311143,,,
3.0468750000,0,-1.0191650391,,,
3.0625000000,0,-1.2747800350,,,
3.0781250000,0,-1.5826419592,,,
3.0937500000,0,-1.8974610567,,,
3.1093750000,0,-2.1375730038,,,
3.1250000000,0,-2.2192380428,,,
3.1406250000,0,-2.0999760628,,,
3.1562500000,0,-1.8338619471,,,
3.1718750000,0,-1.5344239473,,,
3.1875000000,0,-1.3122559786,,,
3.2031250000,0,-1.2071529627,,,
3.2187500000,0,-1.1679689884,,,
3.2343750000,0,-1.0773930550,,,
3.2500000000,0,-0.8210449219,,,
3.2656250000,0,-0.3470458984,,,
3.2812500000,0,0.3114013970,,,
3.2968750000,0,1.0634770393,,,
3.3125000000,0,1.8085939884,,,
3.3281250000,0,2.4635009766,,,
3.3437500000,0,2.9896240234,,,
3.3593750000,0,3.3895258904,,,
3.3750000000,0,3.6806640625,,,
3.3906250000,0,3.8702390194,,,
3.4062500000,0,3.9454350471,,,
3.4218750000,0,3.8625490665,,,
3.4375000000,0,3.5926508904,,,
3.4531250000,0,3.1540529728,,,
3.4687500000,0,2.6403810978,,,
3.4843750000,0,2.1842041016,,,
3.5000000000,0,1.9127199650,,,
3.5156250000,0,1.8569339514,,,
3.5312500000,0,1.9318850040,,,
3.5468750000,0,1.9766850471,,,
3.5625000000,0,1.8580319881,,,
3.5781250000,0,1.5404050350,,,
3.5937500000,0,1.1263430119,,,
3.6093750000,0,0.7904052734,,,
3.6250000000,0,0.6624755859,,,
3.6406250000,0,0.7716063857,,,
3.6562500000,0,1.0570069551,,,
3.6718750000,0,1.4017330408,,,
3.6875000000,0,1.7246090174,,,
3.7031250000,0,1.9818120003,,,
3.7187500000,0,2.1452639103,,,
3.7343750000,0,2.1682128906,,,
3.7500000000,0,1.9920649529,,,
3.7656250000,0,1.5839840174,,,
3.7812500000,0,0.9909667969,,,
3.7968750000,0,0.3476563096,,,
3.8125000000,0,-0.1788329929,,,
3.8281250000,0,-0.4431152046,,,
3.8437500000,0,-0.4283446968,,,
3.8593750000,0,-0.2254638970,,,
3.8750000000,0,-0.0023193359,,,
3.8906250000,0,0.0795898363,,,
3.9062500000,0,-0.0675048828,,,
3.9218750000,0,-0.4343262017,,,
3.9375000000,0,-0.9180908203,,,
3.9531250000,0,-1.3839110136,,,
3.9687500000,0,-1.6979980469,,,
3.9843750000,0,-1.7897950411,,,
4.0000000000,0,-1.6453859806,,,
4.0156250000,0,-1.3177490234,,,
4.0312500000,0,-0.9050292969,,,
4.0468750000,0,-0.5197753906,,,
4.0625000000,0,-0.2490233928,,,
4.0781250000,0,-0.1308594048,,,
4.0937500000,0,-0.1600341946,,,
4.1093750000,0,-0.2822265923,,,
4.1250000000,0,-0.4273681939,,,
4.1406250000,0,-0.5295410156,,,
4.1562500000,0,-0.5462645888,,,
4.1718750000,0,-0.4716796875,,,
4.1875000000,0,-0.3176270127,,,
4.2031250000,0,-0.1097412035,,,
4.2187500000,0,0.1179198995,,,
4.2343750000,0,0.3256835938,,,
4.2500000000,0,0.4577637017,,,
4.2656250000,0,0.4665527046,,,
4.2812500000,0,0.3400878906,,,
4.2968750000,0,0.1214599982,,,
4.3125000000,0,-0.0947265625,,,
4.3281250000,0,-0.1887207031,,,
4.3437500000,0,-0.0772705078,,,
4.3593750000,0,0.2404785007,,,
4.3750000000,0,0.6826171875,,,
4.3906250000,0,1.1192630529,,,
4.4062500000,0,1.4423830509,,,
4.4218750000,0,1.5970460176,,,
4.4375000000,0,1.5989990234,,,
4.4531250000,0,1.5068360567,,,
4.4687500000,0,1.3839110136,,,
4.4843750000,0,1.2524410486,,,
4.5000000000,0,1.1046140194,,,
4.5156250000,0,0.9191895127,,,
4.5312500000,0,0.6867675781,,,
4.5468750000,0,0.4221191108,,,
4.5625000000,0,0.1557617038,,,
4.5781250000,0,-0.0732421875,,,
4.5937500000,0,-0.2672119141,,,
4.6093750000,0,-0.4412842095,,,
4.6250000000,0,-0.6157227159,,,
4.6406250000,0,-0.7770996094,,,
4.6562500000,0,-0.8759766221,,,
4.6718750000,0,-0.8542479873,,,
4.6875000000,0,-0.6813964844,,,
4.7031250000,0,-0.4106445014,,,
4.7187500000,0,-0.1616210938,,,
4.7343750000,0,-0.0473632813,,,
4.7500000000,0,-0.1325684041,,,
4.7656250000,0,-0.3804931939,,,
4.7812500000,0,-0.6773682237,,,
4.7968750000,0,-0.8903809190,,,
4.8125000000,0,-0.9418944716,,,
4.8281250000,0,-0.8342285156,,,
4.8437500000,0,-0.6284180284,,,
4.8593750000,0,-0.4039306939,,,
4.8750000000,0,-0.2064208984,,,
4.8906250000,0,-0.0565185510,,,
4.9062500000,0,0.0485839806,,,
4.9218750000,0,0.1134032980,,,
4.9375000000,0,0.1333007962,,,
4.9531250000,0,0.1091308966,,,
4.9687500000,0,0.0637207031,,,
4.9843750000,0,0.0264892597,,,
5.0000000000,0,0.0155029297,,,
5.0156250000,0,0.0198974591,,,
5.0312500000,0,0.0252685491,,,
5.0468750000,0,0.0167236291,,,
5.0625000000,0,0.0124511700,,,
5.0781250000,0,0.0809326172,,,
5.0937500000,0,0.2773438096,,,
5.1093750000,0,0.6190186143,,,
5.1250000000,0,1.0354000330,,,
5.1406250000,0,1.3737790585,,,
5.1562500000,0,1.4736330509,,,
5.1718750000,0,1.2308349609,,,
5.1875000000,0,0.6752930284,,,
5.2031250000,0,-0.0281982403,,,
5.2187500000,0,-0.6717529297,,,
5.2343750000,0,-1.0789790154,,,
5.2500000000,0,-1.1903079748,,,
5.2656250000,0,-1.0809329748,,,
5.2812500000,0,-0.8937988281,,,
5.2968750000,0,-0.7624511719,,,
5.3125000000,0,-0.7412108779,,,
5.3281250000,0,-0.8010253906,,,
5.3437500000,0,-0.8485106826,,,
5.3593750000,0,-0.8076171875,,,
5.3750000000,0,-0.6407470703,,,
5.3906250000,0,-0.3853760064,,,
5.4062500000,0,-0.1287841946,,,
5.4218750000,0,0.0390625000,,,
5.4375000000,0,0.0858154297,,,
5.4531250000,0,0.0507812500,,,
5.4687500000,0,0.0318603516,,,
5.4843750000,0,0.1472167969,,,
5.5000000000,0,0.4630126953,,,
5.5156250000,0,0.9416503906,,,
5.5312500000,0,1.4476319551,,,
5.5468750000,0,1.7943120003,,,
5.5625000000,0,1.8173830509,,,
5.5781250000,0,1.4591059685,,,
5.5937500000,0,0.8011475205,,,
5.6093750000,0,0.0386962891,,,
5.6250000000,0,-0.5941162109,,,
5.6406250000,0,-0.9298095703,,,
5.6562500000,0,-0.9239501953,,,
5.6718750000,0,-0.6663817763,,,
5.6875000000,0,-0.3325195014,,,
5.7031250000,0,-0.0754394531,,,
5.7187500000,0,0.0244140606,,,
5.7343750000,0,-0.0097656250,,,
5.7500000000,0,-0.0883789137,,,
5.7656250000,0,-0.1320800930,,,
5.7812500000,0,-0.1094971001,,,
5.7968750000,0,-0.0657958984,,,
5.8125000000,0,-0.0734863281,,,
5.8281250000,0,-0.1853027046,,,
5.8437500000,0,-0.3912354112,,,
5.8593750000,0,-0.6358643174,,,
5.8750000000,0,-0.8221436143,,,
5.8906250000,0,-0.8829345703,,,
5.9062500000,0,-0.8015136719,,,
5.9218750000,0,-0.6185302734,,,
5.9375000000,0,-0.3922119141,,,
5.9531250000,0,-0.1986083984,,,
5.9687500000,0,-0.0898437500,,,
5.9843750000,0,-0.0894775391,,,
6.0000000000,0,-0.1815185994,,,
6.0156250000,0,-0.3070068061,,,
6.0312500000,0,-0.3881835938,,,
6.0468750000,0,-0.3559570014,,,
6.0625000000,0,-0.1853027046,,,
6.0781250000,0,0.0817871094,,,
6.0937500000,0,0.3697510064,,,
6.1093750000,0,0.6003417969,,,
6.1250000000,0,0.7333983779,,,
6.1406250000,0,0.7749022841,,,
6.1562500000,0,0.7540283203,,,
6.1718750000,0,0.7144774795,,,
6.1875000000,0,0.6838378906,,,
6.2031250000,0,0.6611328125,,,
6.2187500000,0,0.6436768174,,,
6.2343750000,0,0.6356201172,,,
6.2500000000,0,0.6461182237,,,
6.2656250000,0,0.6855468750,,,
6.2812500000,0,0.7432860732,,,
6.2968750000,0,0.7939453125,,,
6.3125000000,0,0.7994384766,,,
6.3281250000,0,0.7390136719,,,
6.3437500000,0,0.5921630859,,,
6.3593750000,0,0.3519287109,,,
6.3750000000,0,0.0350341797,,,
6.3906250000,0,-0.3282471001,,,
6.4062500000,0,-0.6789550781,,,
6.4218750000,0,-0.9550781250,,,
6.4375000000,0,-1.1118160486,,,
6.4531250000,0,-1.1373289824,,,
6.4687500000,0,-1.0672609806,,,
6.4843750000,0,-0.9499511719,,,
6.5000000000,0,-0.8356934190,,,
6.5156250000,0,-0.7351074219,,,
6.5312500000,0,-0.6201171875,,,
6.5468750000,0,-0.4459229112,,,
6.5625000000,0,-0.1746826023,,,
6.5781250000,0,0.1820068061,,,
6.5937500000,0,0.5616455078,,,
6.6093750000,0,0.8695067763,,,
6.6250000000,0,1.0147709846,,,
6.6406250000,0,0.9672852159,,,
6.6562500000,0,0.7683104873,,,
6.6718750000,0,0.5081787109,,,
6.6875000000,0,0.2904053032,,,
6.7031250000,0,0.1474608928,,,
6.7187500000,0,0.0426025391,,,
6.7343750000,0,-0.1044922024,,,
6.7500000000,0,-0.3492431939,,,
6.7656250000,0,-0.6773682237,,,
6.7812500000,0,-1.0063480139,,,
6.7968750000,0,-1.2243649960,,,
6.8125000000,0,-1.2731930017,,,
6.8281250000,0,-1.1812740564,,,
6.8437500000,0,-1.0616459846,,,
6.8593750000,0,-1.0367430449,,,
6.8750000000,0,-1.1649169922,,,
6.8906250000,0,-1.4080810547,,,
6.9062500000,0,-1.6401369572,,,
6.9218750000,0,-1.7110600471,,,
6.9375000000,0,-1.5446779728,,,
6.9531250000,0,-1.1596679688,,,
6.9687500000,0,-0.6822509766,,,
6.9843750000,0,-0.2551270127,,,
7.0000000000,0,-0.0019531250,,,
7.0156250000,0,0.0653076172,,,
7.0312500000,0,0.0133056603,,,
7.0468750000,0,-0.0532226600,,,
7.0625000000,0,-0.0563964806,,,
7.0781250000,0,0.0012207030,,,
7.0937500000,0,0.0367431603,,,
7.1093750000,0,-0.0369873010,,,
7.1250000000,0,-0.2681885064,,,
7.1406250000,0,-0.6207274795,,,
7.1562500000,0,-0.9698485732,,,
7.1718750000,0,-1.1672359705,,,
7.1875000000,0,-1.0903320313,,,
7.2031250000,0,-0.7077636719,,,
7.2187500000,0,-0.0993652269,,,
7.2343750000,0,0.5908203125,,,
7.2500000000,0,1.2017819881,,,
7.2656250000,0,1.6296390295,,,
7.2812500000,0,1.8443599939,,,
7.2968750000,0,1.8992919922,,,
7.3125000000,0,1.8703609705,,,
7.3281250000,0,1.8226319551,,,
7.3437500000,0,1.7747800350,,,
7.3593750000,0,1.6793210506,,,
7.3750000000,0,1.4892580509,,,
7.3906250000,0,1.1986080408,,,
7.4062500000,0,0.8743895888,,,
7.4218750000,0,0.6145020127,,,
7.4375000000,0,0.5039063096,,,
7.4531250000,0,0.5401610732,,,
7.4687500000,0,0.6121826172,,,
7.4843750000,0,0.5844727159,,,
7.5000000000,0,0.3447265923,,,
7.5156250000,0,-0.0802002028,,,
7.5312500000,0,-0.5469970703,,,
7.5468750000,0,-0.8604735732,,,
7.5625000000,0,-0.8751220703,,,
7.5781250000,0,-0.5747069716,,,
7.5937500000,0,-0.1072997972,,,
7.6093750000,0,0.3217773139,,,
7.6250000000,0,0.5588378906,,,
7.6406250000,0,0.5743408203,,,
7.6562500000,0,0.4636229873,,,
7.6718750000,0,0.3569335938,,,
7.6875000000,0,0.3309325874,,,
7.7031250000,0,0.3786621094,,,
7.7187500000,0,0.4177246094,,,
7.7343750000,0,0.3804931939,,,
7.7500000000,0,0.2556152046,,,
7.7656250000,0,0.1025390998,,,
7.7812500000,0,-0.0020751951,,,
7.7968750000,0,-0.0093994141,,,
7.8125000000,0,0.0495605506,,,
7.8281250000,0,0.0955810472,,,
7.8437500000,0,0.0798339769,,,
7.8593750000,0,-0.0067138672,,,
7.8750000000,0,-0.0887451172,,,
7.8906250000,0,-0.0727539137,,,
7.9062500000,0,0.0897216797,,,
7.9218750000,0,0.3604736030,,,
7.9375000000,0,0.6417235732,,,
7.9531250000,0,0.8098145127,,,
7.9687500000,0,0.7790526748,,,
7.9843750000,0,0.5506591797,,,
8.0000000000,1,0.1910399944,,,
8.0156250000,1,-0.1773681939,,,
8.0312500000,1,-0.4407958984,,,
8.0468750000,1,-0.5344238281,,,
8.0625000000,1,-0.4908446968,,,
8.0781250000,1,-0.3842773139,,,
8.0937500000,1,-0.3237304986,,,
8.1093750000,1,-0.3756104112,,,
8.1250000000,1,-0.5610352159,,,
8.1406250000,1,-0.8410645127,,,
8.1562500000,1,-1.1390379667,,,
8.1718750000,1,-1.3594969511,,,
8.1875000000,1,-1.4343260527,,,
8.2031250000,1,-1.3325200081,,,
8.2187500000,1,-1.0831300020,,,
8.2343750000,1,-0.7825927734,,,
8.2500000000,1,-0.5410156250,,,
8.2656250000,1,-0.4425049126,,,
8.2812500000,1,-0.4931640923,,,
8.2968750000,1,-0.6053466797,,,
8.3125000000,1,-0.6440430284,,,
8.3281250000,1,-0.5028076172,,,
8.3437500000,1,-0.1651611030,,,
8.3593750000,1,0.2695313096,,,
8.3750000000,1,0.6470947266,,,
8.3906250000,1,0.8516845703,,,
8.4062500000,1,0.8656005859,,,
8.4218750000,1,0.7611083984,,,
8.4375000000,1,0.6455078125,,,
8.4531250000,1,0.5717772841,,,
8.4687500000,1,0.5183104873,,,
8.4843750000,1,0.4345703125,,,
8.5000000000,1,0.2895508111,,,
8.5156250000,1,0.1115723029,,,
8.5312500000,1,-0.0227050800,,,
8.5468750000,1,-0.0295410194,,,
8.5625000000,1,0.1192627028,,,
8.5781250000,1,0.3814696968,,,
8.5937500000,1,0.6534423828,,,
8.6093750000,1,0.8349608779,,,
8.6250000000,1,0.8475341797,,,
8.6406250000,1,0.6807860732,,,
8.6562500000,1,0.3581542969,,,
8.6718750000,1,-0.0531005897,,,
8.6875000000,1,-0.4724121094,,,
8.7031250000,1,-0.8177490234,,,
8.7187500000,1,-1.0161130428,,,
8.7343750000,1,-1.0322270393,,,
8.7500000000,1,-0.8763427734,,,
8.7656250000,1,-0.6010742188,,,
8.7812500000,1,-0.2890625000,,,
8.7968750000,1,-0.0249023400,,,
8.8125000000,1,0.1402588040,,,
8.8281250000,1,0.2113036960,,,
8.8437500000,1,0.2144774944,,,
8.8593750000,1,0.1922606975,,,
8.8750000000,1,0.1776123047,,,
8.8906250000,1,0.1765137017,,,
8.9062500000,1,0.1805420071,,,
8.9218750000,1,0.1640625000,,,
8.9375000000,1,0.1152343974,,,
8.9531250000,1,0.0328369103,,,
8.9687500000,1,-0.0701904297,,,
8.9843750000,1,-0.1761475056,,,
9.0000000000,1,-0.2513428032,,,
9.0156250000,1,-0.2725830078,,,
9.0312500000,1,-0.2342528999,,,
9.0468750000,1,-0.1528320014,,,
9.0625000000,1,-0.0727539137,,,
9.0781250000,1,-0.0384521484,,,
9.0937500000,1,-0.0792236328,,,
9.1093750000,1,-0.1729736030,,,
9.1250000000,1,-0.2691650093,,,
9.1406250000,1,-0.3076171875,,,
9.1562500000,1,-0.2718505859,,,
9.1718750000,1,-0.2000731975,,,
9.1875000000,1,-0.1743164063,,,
9.2031250000,1,-0.2707520127,,,
9.2187500000,1,-0.5142822266,,,
9.2343750000,1,-0.8632813096,,,
9.2500000000,1,-1.2274169922,,,
9.2656250000,1,-1.5046390295,,,
9.2812500000,1,-1.6074219942,,,
9.2968750000,1,-1.5006099939,,,
9.3125000000,1,-1.2006839514,,,
9.3281250000,1,-0.7662354112,,,
9.3437500000,1,-0.2856445014,,,
9.3593750000,1,0.1314696968,,,
9.3750000000,1,0.3857421875,,,
9.3906250000,1,0.4263916016,,,
9.4062500000,1,0.2728270888,,,
9.4218750000,1,0.0068359380,,,
9.4375000000,1,-0.2503662109,,,
9.4531250000,1,-0.4107666016,,,
9.4687500000,1,-0.4322510064,,,
9.4843750000,1,-0.3475342095,,,
9.5000000000,1,-0.2139893025,,,
9.5156250000,1,-0.0850830078,,,
9.5312500000,1,0.0291747991,,,
9.5468750000,1,0.1656493992,,,
9.5625000000,1,0.3598633111,,,
9.5781250000,1,0.6243895888,,,
9.5937500000,1,0.9088134766,,,
9.6093750000,1,1.1396479607,,,
9.6250000000,1,1.2719730139,,,
9.6406250000,1,1.3101810217,,,
9.6562500000,1,1.3072509766,,,
9.6718750000,1,1.3303220272,,,
9.6875000000,1,1.4191889763,,,
9.7031250000,1,1.5593260527,,,
9.7187500000,1,1.6884770393,,,
9.7343750000,1,1.7496340275,,,
9.7500000000,1,1.7131350040,,,
9.7656250000,1,1.5974119902,,,
9.7812500000,1,1.4487299919,,,
9.7968750000,1,1.3004150391,,,
9.8125000000,1,1.1483149529,,,
9.8281250000,1,0.9666748047,,,
9.8437500000,1,0.7397460938,,,
9.8593750000,1,0.5012207031,,,
9.8750000000,1,0.3171387017,,,
9.8906250000,1,0.2344971001,,,
9.9062500000,1,0.2515869141,,,
9.9218750000,1,0.3002929986,,,
9.9375000000,1,0.3011474907,,,
9.9531250000,1,0.1839600056,,,
9.9687500000,1,-0.0480956994,,,
9.9843750000,1,-0.3559570014,,,
10.0000000000,1,-0.6756591797,,,
10.0156250000,1,-0.9536132813,,,
10.0312500000,1,-1.1817630529,,,
10.0468750000,1,-1.3724370003,,,
10.0625000000,1,-1.5217289925,,,
10.0781250000,1,-1.5965579748,,,
10.0937500000,1,-1.5412600040,,,
10.1093750000,1,-1.2996829748,,,
10.1250000000,1,-0.8682860732,,,
10.1406250000,1,-0.3146972954,,,
10.1562500000,1,0.2155762017,,,
10.1718750000,1,0.5390625000,,,
10.1875000000,1,0.5206298828,,,
10.2031250000,1,0.1174316034,,,
10.2187500000,1,-0.5709229112,,,
10.2343750000,1,-1.3327640295,,,
10.2500000000,1,-1.9261469841,,,
10.2656250000,1,-2.1729741096,,,
10.2812500000,1,-2.0285639763,,,
10.2968750000,1,-1.6046140194,,,
10.3125000000,1,-1.1055910587,,,
10.3281250000,1,-0.7174072266,,,
10.3437500000,1,-0.5526123047,,,
10.3593750000,1,-0.6070557237,,,
10.3750000000,1,-0.7670897841,,,
10.3906250000,1,-0.9025878906,,,
10.4062500000,1,-0.9057617188,,,
10.4218750000,1,-0.7384033203,,,
10.4375000000,1,-0.4152832031,,,
10.4531250000,1,0.0106201200,,,
10.4687500000,1,0.4901123047,,,
10.4843750000,1,0.9737548828,,,
10.5000000000,1,1.4079589844,,,
10.5156250000,1,1.7518310547,,,
10.5312500000,1,1.9602049589,,,
10.5468750000,1,1.9990229607,,,
10.5625000000,1,1.8632810116,,,
10.5781250000,1,1.5867919922,,,
10.5937500000,1,1.2143549919,,,
10.6093750000,1,0.7888184190,,,
10.6250000000,1,0.3320313096,,,
10.6406250000,1,-0.1292725056,,,
10.6562500000,1,-0.5446776748,,,
10.6718750000,1,-0.8442382813,,,
10.6875000000,1,-0.9403076172,,,
10.7031250000,1,-0.7939453125,,,
10.7187500000,1,-0.4332275093,,,
10.7343750000,1,0.0257568397,,,
10.7500000000,1,0.4439696968,,,
10.7656250000,1,0.6975098252,,,
10.7812500000,1,0.7404785156,,,
10.7968750000,1,0.5883789063,,,
10.8125000000,1,0.3015137017,,,
10.8281250000,1,-0.0285644494,,,
10.8437500000,1,-0.3206787109,,,
10.8593750000,1,-0.5170897841,,,
10.8750000000,1,-0.5815430284,,,
10.8906250000,1,-0.5350341797,,,
10.9062500000,1,-0.4205321968,,,
10.9218750000,1,-0.3110351861,,,
10.9375000000,1,-0.2653808892,,,
10.9531250000,1,-0.3041991889,,,
10.9687500000,1,-0.4112549126,,,
10.9843750000,1,-0.5516356826,,,
11.0000000000,1,-0.6977539063,,,
11.0156250000,1,-0.8458251953,,,
11.0312500000,1,-0.9786376953,,,
11.0468750000,1,-1.0660400391,,,
11.0625000000,1,-1.0701899529,,,
11.0781250000,1,-0.9722899795,,,
11.0937500000,1,-0.8002930284,,,
11.1093750000,1,-0.6440430284,,,
11.1250000000,1,-0.5988770127,,,
11.1406250000,1,-0.6972656250,,,
11.1562500000,1,-0.8729248047,,,
11.1718750000,1,-1.0023189783,,,
11.1875000000,1,-0.9819335938,,,
11.2031250000,1,-0.7854003906,,,
11.2187500000,1,-0.4790039063,,,
11.2343750000,1,-0.1810303032,,,
11.2500000000,1,0.0079345703,,,
11.2656250000,1,0.0598144494,,,
11.2812500000,1,0.0216064509,,,
11.2968750000,1,-0.0327148400,,,
11.3125000000,1,-0.0255127009,,,
11.3281250000,1,0.0867919922,,,
11.3437500000,1,0.3099364936,,,
11.3593750000,1,0.6124268174,,,
11.3750000000,1,0.9268798828,,,
11.3906250000,1,1.1737060547,,,
11.4062500000,1,1.2824709415,,,
11.4218750000,1,1.2099610567,,,
11.4375000000,1,0.9667968750,,,
11.4531250000,1,0.6105957031,,,
11.4687500000,1,0.2235106975,,,
11.4843750000,1,-0.1291504055,,,
11.5000000000,1,-0.3868407905,,,
11.5156250000,1,-0.5108643174,,,
11.5312500000,1,-0.4587402046,,,
11.5468750000,1,-0.2076416016,,,
11.5625000000,1,0.2164306939,,,
11.5781250000,1,0.7182617188,,,
11.5937500000,1,1.1601560116,,,
11.6093750000,1,1.4100339413,,,
11.6250000000,1,1.4293210506,,,
11.6406250000,1,1.2821040154,,,
11.6562500000,1,1.0903320313,,,
11.6718750000,1,0.9571533203,,,
11.6875000000,1,0.9008789063,,,
11.7031250000,1,0.8643798828,,,
11.7187500000,1,0.7714843750,,,
11.7343750000,1,0.6000977159,,,
11.7500000000,1,0.4062500000,,,
11.7656250000,1,0.2749023139,,,
11.7812500000,1,0.2592773139,,,
11.7968750000,1,0.3134765923,,,
11.8125000000,1,0.3322753906,,,
11.8281250000,1,0.2370605022,,,
11.8437500000,1,0.0289306603,,,
11.8593750000,1,-0.1882324070,,,
11.8750000000,1,-0.2994385064,,,
11.8906250000,1,-0.2520751953,,,
11.9062500000,1,-0.0949707031,,,
11.9218750000,1,0.0405273400,,,
11.9375000000,1,0.0467529297,,,
11.9531250000,1,-0.1030272990,,,
11.9687500000,1,-0.3359375000,,,
11.9843750000,1,-0.5361328125,,,
12.0000000000,1,-0.6298828125,,,
12.0156250000,1,-0.6181641221,,,
12.0312500000,1,-0.5874022841,,,
12.0468750000,1,-0.6264647841,,,
12.0625000000,1,-0.7800292969,,,
12.0781250000,1,-1.0223389864,,,
12.0937500000,1,-1.2788089514,,,
12.1093750000,1,-1.4672850370,,,
12.1250000000,1,-1.5229489803,,,
12.1406250000,1,-1.4150389433,,,
12.1562500000,1,-1.1220699549,,,
12.1718750000,1,-0.6707764268,,,
12.1875000000,1,-0.1287841946,,,
12.2031250000,1,0.3746337891,,,
12.2187500000,1,0.6928710938,,,
12.2343750000,1,0.7176514268,,,
12.2500000000,1,0.4581299126,,,
12.2656250000,1,0.0510253906,,,
12.2812500000,1,-0.2747803032,,,
12.2968750000,1,-0.3225097954,,,
12.3125000000,1,-0.0476074181,,,
12.3281250000,1,0.4267578125,,,
12.3437500000,1,0.8631591797,,,
12.3593750000,1,1.0592039824,,,
12.3750000000,1,0.9399414063,,,
12.3906250000,1,0.5693358779,,,
12.4062500000,1,0.1081542969,,,
12.4218750000,1,-0.3150635064,,,
12.4375000000,1,-0.6394042969,,,
12.4531250000,1,-0.8657227159,,,
12.4687500000,1,-1.0076899529,,,
12.4843750000,1,-1.0501710176,,,
12.5000000000,1,-0.9670410156,,,
12.5156250000,1,-0.7567139268,,,
12.5312500000,1,-0.4967041016,,,
12.5468750000,1,-0.3024902046,,,
12.5625000000,1,-0.2700195014,,,
12.5781250000,1,-0.3999023139,,,
12.5937500000,1,-0.5947266221,,,
12.6093750000,1,-0.7138671875,,,
12.6250000000,1,-0.6604003906,,,
12.6406250000,1,-0.4490967095,,,
12.6562500000,1,-0.1763916016,,,
12.6718750000,1,0.0339355506,,,
12.6875000000,1,0.1230468974,,,
12.7031250000,1,0.1298827976,,,
12.7187500000,1,0.1647949070,,,
12.7343750000,1,0.3304443061,,,
12.7500000000,1,0.6611328125,,,
12.7656250000,1,1.1097409725,,,
12.7812500000,1,1.5838619471,,,
12.7968750000,1,1.9903559685,,,
12.8125000000,1,2.2645258904,,,
12.8281250000,1,2.3677980900,,,
12.8437500000,1,2.2794189453,,,
12.8593750000,1,1.9956049919,,,
12.8750000000,1,1.5501710176,,,
12.8906250000,1,1.0085450411,,,
12.9062500000,1,0.4624023139,,,
12.9218750000,1,-0.0191650409,,,
12.9375000000,1,-0.4165039063,,,
12.9531250000,1,-0.7547606826,,,
12.9687500000,1,-1.0649410486,,,
12.9843750000,1,-1.3297120333,,,
13.0000000000,1,-1.4704589844,,,
13.0156250000,1,-1.3959959745,,,
13.0312500000,1,-1.1000980139,,,
13.0468750000,1,-0.6861572266,,,
13.0625000000,1,-0.3541260064,,,
13.0781250000,1,-0.2957763970,,,
13.0937500000,1,-0.5732421875,,,
13.1093750000,1,-1.0823969841,,,
13.1250000000,1,-1.6110839844,,,
13.1406250000,1,-1.9545899630,,,
13.1562500000,1,-2.0242919922,,,
13.1718750000,1,-1.8737790585,,,
13.1875000000,1,-1.6313480139,,,
13.2031250000,1,-1.4135739803,,,
13.2187500000,1,-1.2584229708,,,
13.2343750000,1,-1.1029050350,,,
13.2500000000,1,-0.8576660156,,,
13.2656250000,1,-0.4660645127,,,
13.2812500000,1,0.0478515588,,,
13.2968750000,1,0.6036376953,,,
13.3125000000,1,1.0992430449,,,
13.3281250000,1,1.4672850370,,,
13.3437500000,1,1.6973880529,,,
13.3593750000,1,1.8105469942,,,
13.3750000000,1,1.8416750431,,,
13.3906250000,1,1.8194580078,,,
13.4062500000,1,1.7552490234,,,
13.4218750000,1,1.6618649960,,,
13.4375000000,1,1.5433349609,,,
13.4531250000,1,1.4050290585,,,
13.4687500000,1,1.2239990234,,,
13.4843750000,1,0.9559326172,,,
13.5000000000,1,0.5760498047,,,
13.5156250000,1,0.1136474982,,,
13.5312500000,1,-0.3400878906,,,
13.5468750000,1,-0.6510009766,,,
13.5625000000,1,-0.7254639268,,,
13.5781250000,1,-0.5483397841,,,
13.5937500000,1,-0.2160644978,,,
13.6093750000,1,0.1198730022,,,
13.6250000000,1,0.3441162109,,,
13.6406250000,1,0.4281005859,,,
13.6562500000,1,0.4343262017,,,
13.6718750000,1,0.4334717095,,,
13.6875000000,1,0.4698486030,,,
13.7031250000,1,0.5391845703,,,
13.7187500000,1,0.6143798828,,,
13.7343750000,1,0.7034912109,,,
13.7500000000,1,0.8256835938,,,
13.7656250000,1,0.9821776748,,,
13.7812500000,1,1.1186519861,,,
13.7968750000,1,1.1289060116,,,
13.8125000000,1,0.9177246094,,,
13.8281250000,1,0.4768066108,,,
13.8437500000,1,-0.0920410231,,,
13.8593750000,1,-0.6212158203,,,
13.8750000000,1,-0.9790039063,,,
13.8906250000,1,-1.1406250000,,,
13.9062500000,1,-1.1959229708,,,
13.9218750000,1,-1.2648930550,,,
13.9375000000,1,-1.4127199650,,,
13.9531250000,1,-1.5797120333,,,
13.9687500000,1,-1.6367189884,,,
13.9843750000,1,-1.4842530489,,,
14.0000000000,1,-1.1232910156,,,
14.0156250000,1,-0.6708983779,,,
14.0312500000,1,-0.2890625000,,,
14.0468750000,1,-0.0864257813,,,
14.0625000000,1,-0.0847167969,,,
14.0781250000,1,-0.2137451023,,,
14.0937500000,1,-0.3878174126,,,
14.1093750000,1,-0.5444335938,,,
14.1250000000,1,-0.6768798828,,,
14.1406250000,1,-0.8138427734,,,
14.1562500000,1,-0.9747313857,,,
14.1718750000,1,-1.1595460176,,,
14.1875000000,1,-1.3465579748,,,
14.2031250000,1,-1.5126949549,,,
14.2187500000,1,-1.6494139433,,,
14.2343750000,1,-1.7384029627,,,
14.2500000000,1,-1.7426760197,,,
14.2656250000,1,-1.6003420353,,,
14.2812500000,1,-1.2739260197,,,
14.2968750000,1,-0.7799072266,,,
14.3125000000,1,-0.2121582031,,,
14.3281250000,1,0.2963866889,,,
14.3437500000,1,0.6351317763,,,
14.3593750000,1,0.7565917969,,,
14.3750000000,1,0.7081298828,,,
14.3906250000,1,0.5964354873,,,
14.4062500000,1,0.5468750000,,,
14.4218750000,1,0.6269531250,,,
14.4375000000,1,0.8283690810,,,
14.4531250000,1,1.0743410587,,,
14.4687500000,1,1.2666020393,,,
14.4843750000,1,1.3145749569,,,
14.5000000000,1,1.2080080509,,,
14.5156250000,1,0.9978026748,,,
14.5312500000,1,0.7733154297,,,
14.5468750000,1,0.6212158203,,,
14.5625000000,1,0.5817871094,,,
14.5781250000,1,0.6369628906,,,
14.5937500000,1,0.7261962891,,,
14.6093750000,1,0.7795410156,,,
14.6250000000,1,0.7683104873,,,
14.6406250000,1,0.7037354112,,,
14.6562500000,1,0.6430664063,,,
14.6718750000,1,0.6407470703,,,
14.6875000000,1,0.7104492188,,,
14.7031250000,1,0.8237305284,,,
14.7187500000,1,0.9151610732,,,
14.7343750000,1,0.9216309190,,,
14.7500000000,1,0.8253173828,,,
14.7656250000,1,0.6634520888,,,
14.7812500000,1,0.4934082031,,,
14.7968750000,1,0.3873291016,,,
14.8125000000,1,0.3645020127,,,
14.8281250000,1,0.3865967095,,,
14.8437500000,1,0.3873291016,,,
14.8593750000,1,0.3077392876,,,
14.8750000000,1,0.1274414063,,,
14.8906250000,1,-0.1105957031,,,
14.9062500000,1,-0.3272705078,,,
14.9218750000,1,-0.4504395127,,,
14.9375000000,1,-0.4538573921,,,
14.9531250000,1,-0.3594971001,,,
14.9687500000,1,-0.2222899944,,,
14.9843750000,1,-0.1112060994,,,
15.0000000000,1,-0.0866699219,,,
15.0156250000,1,-0.1887207031,,,
15.0312500000,1,-0.4091796875,,,
15.0468750000,1,-0.6785889268,,,
15.0625000000,1,-0.8734130859,,,
15.0781250000,1,-0.8773192763,,,
15.0937500000,1,-0.6414794922,,,
15.1093750000,1,-0.2436522990,,,
15.1250000000,1,0.1523437947,,,
15.1406250000,1,0.3574219048,,,
15.1562500000,1,0.2770996094,,,
15.1718750000,1,-0.0281982403,,,
15.1875000000,1,-0.3803710938,,,
15.2031250000,1,-0.5618895888,,,
15.2187500000,1,-0.4484862983,,,
15.2343750000,1,-0.0764160231,,,
15.2500000000,1,0.3784179986,,,
15.2656250000,1,0.7147216797,,,
15.2812500000,1,0.7973632813,,,
15.2968750000,1,0.6239014268,,,
15.3125000000,1,0.3031005859,,,
15.3281250000,1,-0.0253906306,,,
15.3437500000,1,-0.2701416016,,,
15.3593750000,1,-0.4100342095,,,
15.3750000000,1,-0.4990234077,,,
15.3906250000,1,-0.5925292969,,,
15.4062500000,1,-0.7132567763,,,
15.4218750000,1,-0.8153076172,,,
15.4375000000,1,-0.8292235732,,,
15.4531250000,1,-0.7130126953,,,
15.4687500000,1,-0.5057373047,,,
15.4843750000,1,-0.3096924126,,,
15.5000000000,1,-0.2272949070,,,
15.5156250000,1,-0.2958984077,,,
15.5312500000,1,-0.4407958984,,,
15.5468750000,1,-0.5300292969,,,
15.5625000000,1,-0.4572753906,,,
15.5781250000,1,-0.2248535007,,,
15.5937500000,1,0.0430908203,,,
15.6093750000,1,0.1647949070,,,
15.6250000000,1,0.0190429706,,,
15.6406250000,1,-0.3898926079,,,
15.6562500000,1,-0.9112548828,,,
15.6718750000,1,-1.3253170252,,,
15.6875000000,1,-1.4666750431,,,
15.7031250000,1,-1.2933349609,,,
15.7187500000,1,-0.9030761719,,,
15.7343750000,1,-0.4573974907,,,
15.7500000000,1,-0.1097412035,,,
15.7656250000,1,0.0726318434,,,
15.7812500000,1,0.1235352010,,,
15.7968750000,1,0.1348876953,,,
15.8125000000,1,0.2127685994,,,
15.8281250000,1,0.3977051079,,,
15.8437500000,1,0.6660156250,,,
15.8593750000,1,0.9339600205,,,
15.8750000000,1,1.1274410486,,,
15.8906250000,1,1.2089840174,,,
15.9062500000,1,1.2027590275,,,
15.9218750000,1,1.1752929688,,,
15.9375000000,1,1.1889649630,,,
15.9531250000,1,1.2524410486,,,
15.9687500000,1,1.3171390295,,,
15.9843750000,1,1.2969969511,,,
16.0000000000,2,1.1163330078,,,
16.0156250000,2,0.7646483779,,,
16.0312500000,2,0.3135986030,,,
16.0468750000,2,-0.1325684041,,,
16.0625000000,2,-0.4675292969,,,
16.0781250000,2,-0.6492919922,,,
16.0937500000,2,-0.7098389268,,,
16.1093750000,2,-0.7197266221,,,
16.1250000000,2,-0.7360839844,,,
16.1406250000,2,-0.7791748047,,,
16.1562500000,2,-0.8134766221,,,
16.1718750000,2,-0.7878417969,,,
16.1875000000,2,-0.6492919922,,,
16.2031250000,2,-0.3830566108,,,
16.2187500000,2,-0.0166015606,,,
16.2343750000,2,0.3927001953,,,
16.2500000000,2,0.7899169922,,,
16.2656250000,2,1.1394040585,,,
16.2812500000,2,1.4372559786,,,
16.2968750000,2,1.6839599609,,,
16.3125000000,2,1.8815920353,,,
16.3281250000,2,1.9826660156,,,
16.3437500000,2,1.9355469942,,,
16.3593750000,2,1.6750489473,,,
16.3750000000,2,1.1773680449,,,
16.3906250000,2,0.4871825874,,,
16.4062500000,2,-0.2869873047,,,
16.4218750000,2,-1.0017089844,,,
16.4375000000,2,-1.5404050350,,,
16.4531250000,2,-1.8497309685,,,
16.4687500000,2,-1.9443360567,,,
16.4843750000,2,-1.8656009436,,,
16.5000000000,2,-1.6737060547,,,
16.5156250000,2,-1.4010009766,,,
16.5312500000,2,-1.0627440214,,,
16.5468750000,2,-0.6914063096,,,
16.5625000000,2,-0.3283691108,,,
16.5781250000,2,-0.0490722694,,,
16.5937500000,2,0.1004638970,,,
16.6093750000,2,0.1087645963,,,
16.6250000000,2,0.0328369103,,,
16.6406250000,2,-0.0462646484,,,
16.6562500000,2,-0.0650634766,,,
16.6718750000,2,-0.0197753906,,,
16.6875000000,2,0.0476074181,,,
16.7031250000,2,0.0938720703,,,
16.7187500000,2,0.0976562500,,,
16.7343750000,2,0.0723877028,,,
16.7500000000,2,0.0438232385,,,
16.7656250000,2,0.0231933594,,,
16.7812500000,2,-0.0146484403,,,
16.7968750000,2,-0.1066894978,,,
16.8125000000,2,-0.2607421875,,,
16.8281250000,2,-0.4498291016,,,
16.8437500000,2,-0.6052246094,,,
16.8593750000,2,-0.6479492188,,,
16.8750000000,2,-0.5566406250,,,
16.8906250000,2,-0.3753662109,,,
16.9062500000,2,-0.2004394978,,,
16.9218750000,2,-0.1242676005,,,
16.9375000000,2,-0.1896972954,,,
16.9531250000,2,-0.3757323921,,,
16.9687500000,2,-0.6202393174,,,
16.9843750000,2,-0.8333740234,,,
17.0000000000,2,-0.9431151748,,,
17.0156250000,2,-0.9064940810,,,
17.0312500000,2,-0.7247313857,,,
17.0468750000,2,-0.4362792969,,,
17.0625000000,2,-0.1040038988,,,
17.0781250000,2,0.1984862983,,,
17.0937500000,2,0.4122313857,,,
17.1093750000,2,0.4818114936,,,
17.1250000000,2,0.3698729873,,,
17.1406250000,2,0.0651855469,,,
17.1562500000,2,-0.4012450874,,,
17.1718750000,2,-0.9505615234,,,
17.1875000000,2,-1.4445799589,,,
17.2031250000,2,-1.7305910587,,,
17.2187500000,2,-1.6976319551,,,
17.2343750000,2,-1.3328859806,,,
17.2500000000,2,-0.7596436143,,,
17.2656250000,2,-0.1647949070,,,
17.2812500000,2,0.2639159858,,,
17.2968750000,2,0.4265137017,,,
17.3125000000,2,0.3559570014,,,
17.3281250000,2,0.1849364936,,,
17.3437500000,2,0.0617675819,,,
17.3593750000,2,0.0888671875,,,
17.3750000000,2,0.2645263970,,,
17.3906250000,2,0.5252686143,,,
17.4062500000,2,0.7760009766,,,
17.4218750000,2,0.9637451172,,,
17.4375000000,2,1.0710450411,,,
17.4531250000,2,1.1103520393,,,
17.4687500000,2,1.0925290585,,,
17.4843750000,2,1.0010989904,,,
17.5000000000,2,0.8280029297,,,
17.5156250000,2,0.5772705078,,,
17.5312500000,2,0.2727051079,,,
17.5468750000,2,-0.0228271503,,,
17.5625000000,2,-0.2537842095,,,
17.5781250000,2,-0.3820801079,,,
17.5937500000,2,-0.4014892876,,,
17.6093750000,2,-0.3215332031,,,
17.6250000000,2,-0.1612548977,,,
17.6406250000,2,0.0544433594,,,
17.6562500000,2,0.2844237983,,,
17.6718750000,2,0.4621582031,,,
17.6875000000,2,0.5137938857,,,
17.7031250000,2,0.3906250000,,,
17.7187500000,2,0.1174316034,,,
17.7343750000,2,-0.2073975056,,,
17.7500000000,2,-0.4627686143,,,
17.7656250000,2,-0.5683593750,,,
17.7812500000,2,-0.5255126953,,,
17.7968750000,2,-0.4194335938,,,
17.8125000000,2,-0.3607178032,,,
17.8281250000,2,-0.3988037109,,,
17.8437500000,2,-0.5075684190,,,
17.8593750000,2,-0.5908203125,,,
17.8750000000,2,-0.5574951172,,,
17.8906250000,2,-0.3572998047,,,
17.9062500000,2,-0.0295410194,,,
17.9218750000,2,0.3592528999,,,
17.9375000000,2,0.7357177734,,,
17.9531250000,2,1.0510250330,,,
17.9687500000,2,1.2690429688,,,
17.9843750000,2,1.3463129997,,,
18.0000000000,2,1.2589110136,,,
18.0156250000,2,0.9982910156,,,
18.0312500000,2,0.6196289063,,,
18.0468750000,2,0.2247314006,,,
18.0625000000,2,-0.0742187500,,,
18.0781250000,2,-0.2131347954,,,
18.0937500000,2,-0.2266846001,,,
18.1093750000,2,-0.2232666016,,,
18.1250000000,2,-0.3203125000,,,
18.1406250000,2,-0.5745850205,,,
18.1562500000,2,-0.9619141221,,,
18.1718750000,2,-1.3634029627,,,
18.1875000000,2,-1.6529539824,,,
18.2031250000,2,-1.7683110237,,,
18.2187500000,2,-1.7097170353,,,
18.2343750000,2,-1.5267330408,,,
18.2500000000,2,-1.2624510527,,,
18.2656250000,2,-0.9383544922,,,
18.2812500000,2,-0.5516356826,,,
18.2968750000,2,-0.1135253981,,,
18.3125000000,2,0.3129883111,,,
18.3281250000,2,0.6409912109,,,
18.3437500000,2,0.7746582031,,,
18.3593750000,2,0.6762694716,,,
18.3750000000,2,0.3723145127,,,
18.3906250000,2,-0.0345458984,,,
18.4062500000,2,-0.4273681939,,,
18.4218750000,2,-0.7042235732,,,
18.4375000000,2,-0.8156738281,,,
18.4531250000,2,-0.7601317763,,,
18.4687500000,2,-0.5650634766,,,
18.4843750000,2,-0.2768554986,,,
18.5000000000,2,0.0534668006,,,
18.5156250000,2,0.3745116889,,,
18.5312500000,2,0.6544188857,,,
18.5468750000,2,0.8820800781,,,
18.5625000000,2,1.0589599609,,,
18.5781250000,2,1.1940920353,,,
18.5937500000,2,1.2569580078,,,
18.6093750000,2,1.2026369572,,,
18.6250000000,2,0.9858397841,,,
18.6406250000,2,0.6141356826,,,
18.6562500000,2,0.1538085938,,,
18.6718750000,2,-0.2689208984,,,
18.6875000000,2,-0.5313720703,,,
18.7031250000,2,-0.5854492188,,,
18.7187500000,2,-0.4819335938,,,
18.7343750000,2,-0.3494873047,,,
18.7500000000,2,-0.3297119141,,,
18.7656250000,2,-0.4956054986,,,
18.7812500000,2,-0.8204345703,,,
18.7968750000,2,-1.1816409826,,,
18.8125000000,2,-1.4425050020,,,
18.8281250000,2,-1.5009770393,,,
18.8437500000,2,-1.3143310547,,,
18.8593750000,2,-0.8955078125,,,
18.8750000000,2,-0.3098145127,,,
18.8906250000,2,0.3446044922,,,
18.9062500000,2,0.9252930284,,,
18.9218750000,2,1.2845460176,,,
18.9375000000,2,1.3470460176,,,
18.9531250000,2,1.1324460506,,,
18.9687500000,2,0.8038330078,,,
18.9843750000,2,0.5755615234,,,
19.0000000000,2,0.6174315810,,,
19.0156250000,2,0.9713134766,,,
19.0312500000,2,1.5350339413,,,
19.0468750000,2,2.1275629997,,,
19.0625000000,2,2.5537109375,,,
19.0781250000,2,2.6972661018,,,
19.0937500000,2,2.5218510628,,,
19.1093750000,2,2.0926508904,,,
19.1250000000,2,1.5150150061,,,
19.1406250000,2,0.9066162109,,,
19.1562500000,2,0.3626708984,,,
19.1718750000,2,-0.0653076172,,,
19.1875000000,2,-0.3814696968,,,
19.2031250000,2,-0.6182860732,,,
19.2187500000,2,-0.8072509766,,,
19.2343750000,2,-0.9305419922,,,
19.2500000000,2,-0.9357910156,,,
19.2656250000,2,-0.7639160156,,,
19.2812500000,2,-0.4251708984,,,
19.2968750000,2,-0.0216064509,,,
19.3125000000,2,0.2941895127,,,
19.3281250000,2,0.4011229873,,,
19.3437500000,2,0.2938232124,,,
19.3593750000,2,0.0974121094,,,
19.3750000000,2,-0.0272216797,,,
19.3906250000,2,0.0252685491,,,
19.4062500000,2,0.2385254055,,,
19.4218750000,2,0.5012207031,,,
19.4375000000,2,0.6951904297,,,
19.4531250000,2,0.7531738281,,,
19.4687500000,2,0.7015380859,,,
19.4843750000,2,0.6180419922,,,
19.5000000000,2,0.5589600205,,,
19.5156250000,2,0.5328369141,,,
19.5312500000,2,0.5102539063,,,
19.5468750000,2,0.4594726861,,,
19.5625000000,2,0.3760986030,,,
19.5781250000,2,0.2725830078,,,
19.5937500000,2,0.1470946968,,,
19.6093750000,2,-0.0313720703,,,
19.6250000000,2,-0.2812500000,,,
19.6406250000,2,-0.5875244141,,,
19.6562500000,2,-0.8673095703,,,
19.6718750000,2,-0.9952393174,,,
19.6875000000,2,-0.8996582031,,,
19.7031250000,2,-0.6165770888,,,
19.7187500000,2,-0.2969971001,,,
19.7343750000,2,-0.1239013970,,,
19.7500000000,2,-0.2205810994,,,
19.7656250000,2,-0.5837401748,,,
19.7812500000,2,-1.0726319551,,,
19.7968750000,2,-1.4827879667,,,
19.8125000000,2,-1.6636960506,,,
19.8281250000,2,-1.5563960075,,,
19.8437500000,2,-1.2176510096,,,
19.8593750000,2,-0.7504882813,,,
19.8750000000,2,-0.2595215142,,,
19.8906250000,2,0.1961670071,,,
19.9062500000,2,0.5845947266,,,
19.9218750000,2,0.8769531250,,,
19.9375000000,2,1.0372309685,,,
19.9531250000,2,1.0159909725,,,
19.9687500000,2,0.7835692763,,,
19.9843750000,2,0.3690186143,,,
20.0000000000,2,-0.1558838040,,,
20.0156250000,2,-0.6630858779,,,
20.0312500000,2,-1.0216059685,,,
20.0468750000,2,-1.1511230469,,,
20.0625000000,2,-1.0487060547,,,
20.0781250000,2,-0.7943115234,,,
20.0937500000,2,-0.5075684190,,,
20.1093750000,2,-0.3159179986,,,
20.1250000000,2,-0.2922362983,,,
20.1406250000,2,-0.4432373047,,,
20.1562500000,2,-0.7047119141,,,
20.1718750000,2,-0.9792479873,,,
20.1875000000,2,-1.1634520292,,,
20.2031250000,2,-1.1796879768,,,
20.2187500000,2,-1.0001219511,,,
20.2343750000,2,-0.6610106826,,,
20.2500000000,2,-0.2207030952,,,
20.2656250000,2,0.2518311143,,,
20.2812500000,2,0.6903076172,,,
20.2968750000,2,1.0493160486,,,
20.3125000000,2,1.2908940315,,,
20.3281250000,2,1.3802490234,,,
20.3437500000,2,1.3127440214,,,
20.3593750000,2,1.1192630529,,,
20.3750000000,2,0.8671875000,,,
20.3906250000,2,0.6409912109,,,
20.4062500000,2,0.4813232124,,,
20.4218750000,2,0.3605957031,,,
20.4375000000,2,0.2110596001,,,
20.4531250000,2,-0.0203857403,,,
20.4687500000,2,-0.3010253906,,,
20.4843750000,2,-0.5037841797,,,
20.5000000000,2,-0.4664306939,,,
20.5156250000,2,-0.0915527269,,,
20.5312500000,2,0.5573729873,,,
20.5468750000,2,1.2600100040,,,
20.5625000000,2,1.7331540585,,,
20.5781250000,2,1.7775880098,,,
20.5937500000,2,1.3930660486,,,
20.6093750000,2,0.7712401748,,,
20.6250000000,2,0.1693114936,,,
20.6406250000,2,-0.2153320014,,,
20.6562500000,2,-0.3306885064,,,
20.6718750000,2,-0.2622070014,,,
20.6875000000,2,-0.1645507962,,,
20.7031250000,2,-0.1613769978,,,
20.7187500000,2,-0.2869873047,,,
20.7343750000,2,-0.5013427734,,,
20.7500000000,2,-0.7395020127,,,
20.7656250000,2,-0.9217529297,,,
20.7812500000,2,-1.0159909725,,,
20.7968750000,2,-1.0129389763,,,
20.8125000000,2,-0.9221190810,,,
20.8281250000,2,-0.7608643174,,,
20.8437500000,2,-0.5367432237,,,
20.8593750000,2,-0.2709960938,,,
20.8750000000,2,0.0019531250,,,
20.8906250000,2,0.2402344048,,,
20.9062500000,2,0.3804931939,,,
20.9218750000,2,0.3701171875,,,
20.9375000000,2,0.1929931939,,,
20.9531250000,2,-0.1236571968,,,
20.9687500000,2,-0.5001220703,,,
20.9843750000,2,-0.8348389268,,,
21.0000000000,2,-1.0406490564,,,
21.0156250000,2,-1.0682369471,,,
21.0312500000,2,-0.9196776748,,,
21.0468750000,2,-0.6376953125,,,
21.0625000000,2,-0.2897948921,,,
21.0781250000,2,0.0454101600,,,
21.0937500000,2,0.3020020127,,,
21.1093750000,2,0.4277344048,,,
21.1250000000,2,0.3951416016,,,
21.1406250000,2,0.2159423977,,,
21.1562500000,2,-0.0664062500,,,
21.1718750000,2,-0.3726806939,,,
21.1875000000,2,-0.6214600205,,,
21.2031250000,2,-0.7497559190,,,
21.2187500000,2,-0.7369384766,,,
21.2343750000,2,-0.5898438096,,,
21.2500000000,2,-0.3608398139,,,
21.2656250000,2,-0.0900878906,,,
21.2812500000,2,0.1690673977,,,
21.2968750000,2,0.3968505859,,,
21.3125000000,2,0.5849608779,,,
21.3281250000,2,0.7478026748,,,
21.3437500000,2,0.9017333984,,,
21.3593750000,2,1.0543210506,,,
21.3750000000,2,1.1872559786,,,
21.3906250000,2,1.2799069881,,,
21.4062500000,2,1.3049319983,,,
21.4218750000,2,1.2373050451,,,
21.4375000000,2,1.0488280058,,,
21.4531250000,2,0.7238770127,,,
21.4687500000,2,0.2698974907,,,
21.4843750000,2,-0.2495117038,,,
21.5000000000,2,-0.7498779297,,,
21.5156250000,2,-1.1163330078,,,
21.5312500000,2,-1.2709959745,,,
21.5468750000,2,-1.1877440214,,,
21.5625000000,2,-0.9134520888,,,
21.5781250000,2,-0.5423583984,,,
21.5937500000,2,-0.1859131008,,,
21.6093750000,2,0.0749511719,,,
21.6250000000,2,0.2109375000,,,
21.6406250000,2,0.2441405952,,,
21.6562500000,2,0.2318114936,,,
21.6718750000,2,0.2374268025,,,
21.6875000000,2,0.2973633111,,,
21.7031250000,2,0.4068604112,,,
21.7187500000,2,0.5347899795,,,
21.7343750000,2,0.6325684190,,,
21.7500000000,2,0.6634520888,,,
21.7656250000,2,0.6304932237,,,
21.7812500000,2,0.5520020127,,,
21.7968750000,2,0.4710693061,,,
21.8125000000,2,0.4185791016,,,
21.8281250000,2,0.3897705078,,,
21.8437500000,2,0.3623046875,,,
21.8593750000,2,0.3070068061,,,
21.8750000000,2,0.2066649944,,,
21.8906250000,2,0.0634765625,,,
21.9062500000,2,-0.0902099609,,,
21.9218750000,2,-0.2094727010,,,
21.9375000000,2,-0.2705078125,,,
21.9531250000,2,-0.2659912109,,,
21.9687500000,2,-0.2322998047,,,
21.9843750000,2,-0.1918945014,,,
22.0000000000,2,-0.1662597954,,,
22.0156250000,2,-0.1276855022,,,
22.0312500000,2,-0.0395507813,,,
22.0468750000,2,0.1204833984,,,
22.0625000000,2,0.3369140923,,,
22.0781250000,2,0.5529785156,,,
22.0937500000,2,0.6994628906,,,
22.1093750000,2,0.7243651748,,,
22.1250000000,2,0.6007080078,,,
22.1406250000,2,0.3309325874,,,
22.1562500000,2,-0.0788574219,,,
22.1718750000,2,-0.6070557237,,,
22.1875000000,2,-1.1998289824,,,
22.2031250000,2,-1.7664790154,,,
22.2187500000,2,-2.1695559025,,,
22.2343750000,2,-2.2976069450,,,
22.2500000000,2,-2.1092529297,,,
22.2656250000,2,-1.6799319983,,,
22.2812500000,2,-1.1687010527,,,
22.2968750000,2,-0.7386475205,,,
22.3125000000,2,-0.4664306939,,,
22.3281250000,2,-0.3399657905,,,
22.3437500000,2,-0.2502441108,,,
22.3593750000,2,-0.0926513672,,,
22.3750000000,2,0.1944579929,,,
22.3906250000,2,0.5985106826,,,
22.4062500000,2,1.0678709745,,,
22.4218750000,2,1.5461430550,,,
22.4375000000,2,1.9835209846,,,
22.4531250000,2,2.3372800350,,,
22.4687500000,2,2.5362548828,,,
22.4843750000,2,2.5280759335,,,
22.5000000000,2,2.2844240665,,,
22.5156250000,2,1.8394780159,,,
22.5312500000,2,1.3076169491,,,
22.5468750000,2,0.8267822266,,,
22.5625000000,2,0.5104979873,,,
22.5781250000,2,0.3806152046,,,
22.5937500000,2,0.3745116889,,,
22.6093750000,2,0.3782958984,,,
22.6250000000,2,0.2958984077,,,
22.6406250000,2,0.0964355469,,,
22.6562500000,2,-0.1900635064,,,
22.6718750000,2,-0.5003662109,,,
22.6875000000,2,-0.7625731826,,,
22.7031250000,2,-0.9361572266,,,
22.7187500000,2,-1.0021970272,,,
22.7343750000,2,-0.9407958984,,,
22.7500000000,2,-0.7341309190,,,
22.7656250000,2,-0.3952637017,,,
22.7812500000,2,0.0238037091,,,
22.7968750000,2,0.4174804986,,,
22.8125000000,2,0.6854248047,,,
22.8281250000,2,0.7326660156,,,
22.8437500000,2,0.5582274795,,,
22.8593750000,2,0.2310791016,,,
22.8750000000,2,-0.1229247972,,,
22.8906250000,2,-0.3807373047,,,
22.9062500000,2,-0.4747313857,,,
22.9218750000,2,-0.4111328125,,,
22.9375000000,2,-0.2572020888,,,
22.9531250000,2,-0.1104736030,,,
22.9687500000,2,-0.0699462891,,,
22.9843750000,2,-0.1693114936,,,
23.0000000000,2,-0.3758544922,,,
23.0156250000,2,-0.5886229873,,,
23.0312500000,2,-0.6937255859,,,
23.0468750000,2,-0.6198729873,,,
23.0625000000,2,-0.3745116889,,,
23.0781250000,2,-0.0593261681,,,
23.0937500000,2,0.1873778999,,,
23.1093750000,2,0.2480469048,,,
23.1250000000,2,0.0994872972,,,
23.1406250000,2,-0.1892089993,,,
23.1562500000,2,-0.4827880859,,,
23.1718750000,2,-0.6572266221,,,
23.1875000000,2,-0.6478270888,,,
23.2031250000,2,-0.4648438096,,,
23.2187500000,2,-0.1934814006,,,
23.2343750000,2,0.0721435472,,,
23.2500000000,2,0.2513428032,,,
23.2656250000,2,0.3128662109,,,
23.2812500000,2,0.2835693061,,,
23.2968750000,2,0.2191161960,,,
23.3125000000,2,0.1921387017,,,
23.3281250000,2,0.2504883111,,,
23.3437500000,2,0.3989258111,,,
23.3593750000,2,0.5863037109,,,
23.3750000000,2,0.7346190810,,,
23.3906250000,2,0.7637938857,,,
23.4062500000,2,0.6296386719,,,
23.4218750000,2,0.3536376953,,,
23.4375000000,2,0.0180664100,,,
23.4531250000,2,-0.2633056939,,,
23.4687500000,2,-0.4055176079,,,
23.4843750000,2,-0.3905028999,,,
23.5000000000,2,-0.3013916016,,,
23.5156250000,2,-0.2487792969,,,
23.5312500000,2,-0.3361816108,,,
23.5468750000,2,-0.5870360732,,,
23.5625000000,2,-0.9378662109,,,
23.5781250000,2,-1.2845460176,,,
23.5937500000,2,-1.5426030159,,,
23.6093750000,2,-1.6981199980,,,
23.6250000000,2,-1.7911380529,,,
23.6406250000,2,-1.8717039824,,,
23.6562500000,2,-1.9285889864,,,
23.6718750000,2,-1.8635250330,,,
23.6875000000,2,-1.5582280159,,,
23.7031250000,2,-0.9338378906,,,
23.7187500000,2,-0.0456543006,,,
23.7343750000,2,0.9105225205,,,
23.7500000000,2,1.6693120003,,,
23.7656250000,2,2.0142819881,,,
23.7812500000,2,1.8919680119,,,
23.7968750000,2,1.4420169592,,,
23.8125000000,2,0.9049072266,,,
23.8281250000,2,0.5197753906,,,
23.8437500000,2,0.4116210938,,,
23.8593750000,2,0.5443115234,,,
23.8750000000,2,0.7750244141,,,
23.8906250000,2,0.9354248047,,,
23.9062500000,2,0.9180908203,,,
23.9218750000,2,0.7091063857,,,
23.9375000000,2,0.3767090142,,,
23.9531250000,2,0.0183105506,,,
23.9687500000,2,-0.2873534858,,,
23.9843750000,2,-0.5046386719,,,
24.0000000000,3,-0.6396483779,,,
24.0156250000,3,-0.7108154297,,,
24.0312500000,3,-0.7385253906,,,
24.0468750000,3,-0.7252197266,,,
24.0625000000,3,-0.6754149795,,,
24.0781250000,3,-0.5872802734,,,
24.0937500000,3,-0.4694823921,,,
24.1093750000,3,-0.3374023139,,,
24.1250000000,3,-0.1992187947,,,
24.1406250000,3,-0.0511474609,,,
24.1562500000,3,0.1136474982,,,
24.1718750000,3,0.3144530952,,,
24.1875000000,3,0.5308837891,,,
24.2031250000,3,0.7108154297,,,
24.2187500000,3,0.7749022841,,,
24.2343750000,3,0.6533203125,,,
24.2500000000,3,0.3305664063,,,
24.2656250000,3,-0.1281737983,,,
24.2812500000,3,-0.5930175781,,,
24.2968750000,3,-0.9166259766,,,
24.3125000000,3,-1.0263669491,,,
24.3281250000,3,-0.9538574219,,,
24.3437500000,3,-0.8123779297,,,
24.3593750000,3,-0.7335205078,,,
24.3750000000,3,-0.7836914063,,,
24.3906250000,3,-0.9334716797,,,
24.4062500000,3,-1.0816650391,,,
24.4218750000,3,-1.1127929688,,,
24.4375000000,3,-0.9642333984,,,
24.4531250000,3,-0.6547852159,,,
24.4687500000,3,-0.2509765923,,,
24.4843750000,3,0.1611327976,,,
24.5000000000,3,0.5163574219,,,
24.5156250000,3,0.7832031250,,,
24.5312500000,3,0.9362792969,,,
24.5468750000,3,0.9730225205,,,
24.5625000000,3,0.8890380859,,,
24.5781250000,3,0.7042235732,,,
24.5937500000,3,0.4744873047,,,
24.6093750000,3,0.2703857124,,,
24.6250000000,3,0.1542969048,,,
24.6406250000,3,0.1562500000,,,
24.6562500000,3,0.2639159858,,,
24.6718750000,3,0.4556885064,,,
24.6875000000,3,0.6953125000,,,
24.7031250000,3,0.9360352159,,,
24.7187500000,3,1.1177979708,,,
24.7343750000,3,1.1647950411,,,
24.7500000000,3,1.0401610136,,,
24.7656250000,3,0.7495117188,,,
24.7812500000,3,0.3767090142,,,
24.7968750000,3,0.0513916016,,,
24.8125000000,3,-0.1313477010,,,
24.8281250000,3,-0.1564940959,,,
24.8437500000,3,-0.0899658203,,,
24.8593750000,3,-0.0446777306,,,
24.8750000000,3,-0.0843505934,,,
24.8906250000,3,-0.1928710938,,,
24.9062500000,3,-0.2985840142,,,
24.9218750000,3,-0.3139648139,,,
24.9375000000,3,-0.2147216946,,,
24.9531250000,3,-0.0543212891,,,
24.9687500000,3,0.0737304688,,,
24.9843750000,3,0.1158446968,,,
25.0000000000,3,0.0881347731,,,
25.0156250000,3,0.0838622972,,,
25.0312500000,3,0.1846923977,,,
25.0468750000,3,0.3876953125,,,
25.0625000000,3,0.5836182237,,,
25.0781250000,3,0.6071776748,,,
25.0937500000,3,0.3319092095,,,
25.1093750000,3,-0.2287597954,,,
25.1250000000,3,-0.8940430284,,,
25.1406250000,3,-1.3870849609,,,
25.1562500000,3,-1.4802249670,,,
25.1718750000,3,-1.0957030058,,,
25.1875000000,3,-0.3671875000,,,
25.2031250000,3,0.4298096001,,,
25.2187500000,3,1.0118410587,,,
25.2343750000,3,1.2089840174,,,
25.2500000000,3,1.0589599609,,,
25.2656250000,3,0.7258300781,,,
25.2812500000,3,0.4125976861,,,
25.2968750000,3,0.2435303032,,,
25.3125000000,3,0.2310791016,,,
25.3281250000,3,0.2952880859,,,
25.3437500000,3,0.3516846001,,,
25.3593750000,3,0.3398438096,,,
25.3750000000,3,0.2608642876,,,
25.3906250000,3,0.1437987983,,,
25.4062500000,3,0.0202636700,,,
25.4218750000,3,-0.0786132813,,,
25.4375000000,3,-0.1317138970,,,
25.4531250000,3,-0.1157227010,,,
25.4687500000,3,-0.0379638709,,,
25.4843750000,3,0.0797119066,,,
25.5000000000,3,0.1745605022,,,
25.5156250000,3,0.1890868992,,,
25.5312500000,3,0.1005859002,,,
25.5468750000,3,-0.0767822266,,,
25.5625000000,3,-0.2867431939,,,
25.5781250000,3,-0.4758301079,,,
25.5937500000,3,-0.6289063096,,,
25.6093750000,3,-0.7698975205,,,
25.6250000000,3,-0.9244384766,,,
25.6406250000,3,-1.0961910486,,,
25.6562500000,3,-1.2473139763,,,
25.6718750000,3,-1.3189699650,,,
25.6875000000,3,-1.2825930119,,,
25.7031250000,3,-1.1560059786,,,
25.7187500000,3,-1.0030519962,,,
25.7343750000,3,-0.8907470703,,,
25.7500000000,3,-0.8424072266,,,
25.7656250000,3,-0.8184813857,,,
25.7812500000,3,-0.7529296875,,,
25.7968750000,3,-0.5922852159,,,
25.8125000000,3,-0.3299561143,,,
25.8281250000,3,-0.0213622991,,,
25.8437500000,3,0.2662354112,,,
25.8593750000,3,0.4705811143,,,
25.8750000000,3,0.5832520127,,,
25.8906250000,3,0.6385498047,,,
25.9062500000,3,0.7017822266,,,
25.9218750000,3,0.8186035156,,,
25.9375000000,3,0.9938964844,,,
25.9531250000,3,1.1909179688,,,
25.9687500000,3,1.3325200081,,,
25.9843750000,3,1.3624269962,,,
26.0000000000,3,1.2709959745,,,
26.0156250000,3,1.1004639864,,,
26.0312500000,3,0.9356688857,,,
26.0468750000,3,0.8365479112,,,
26.0625000000,3,0.8308104873,,,
26.0781250000,3,0.8818358779,,,
26.0937500000,3,0.9161376953,,,
26.1093750000,3,0.8588867188,,,
26.1250000000,3,0.6746826172,,,
26.1406250000,3,0.3636474907,,,
26.1562500000,3,-0.0384521484,,,
26.1718750000,3,-0.4749755859,,,
26.1875000000,3,-0.8709716797,,,
26.2031250000,3,-1.1278079748,,,
26.2187500000,3,-1.1507569551,,,
26.2343750000,3,-0.8829345703,,,
26.2500000000,3,-0.3817138970,,,
26.2656250000,3,0.2010498047,,,
26.2812500000,3,0.6513671875,,,
26.2968750000,3,0.8135985732,,,
26.3125000000,3,0.6785889268,,,
26.3281250000,3,0.3776854873,,,
26.3437500000,3,0.1136474982,,,
26.3593750000,3,0.0180664100,,,
26.3750000000,3,0.0893554688,,,
26.3906250000,3,0.2242431939,,,
26.4062500000,3,0.3155517876,,,
26.4218750000,3,0.3292236030,,,
26.4375000000,3,0.3083496094,,,
26.4531250000,3,0.3161621094,,,
26.4687500000,3,0.3347167969,,,
26.4843750000,3,0.2639159858,,,
26.5000000000,3,-0.0014648440,,,
26.5156250000,3,-0.4739989936,,,
26.5312500000,3,-1.0472409725,,,
26.5468750000,3,-1.5413819551,,,
26.5625000000,3,-1.8140870333,,,
26.5781250000,3,-1.8496090174,,,
26.5937500000,3,-1.7482910156,,,
26.6093750000,3,-1.6390379667,,,
26.6250000000,3,-1.5684809685,,,
26.6406250000,3,-1.4670410156,,,
26.6562500000,3,-1.2111819983,,,
26.6718750000,3,-0.7431641221,,,
26.6875000000,3,-0.1269530952,,,
26.7031250000,3,0.4504395127,,,
26.7187500000,3,0.7836914063,,,
26.7343750000,3,0.7716063857,,,
26.7500000000,3,0.4663085938,,,
26.7656250000,3,0.0625000000,,,
26.7812500000,3,-0.2230225056,,,
26.7968750000,3,-0.2507323921,,,
26.8125000000,3,-0.0286865197,,,
26.8281250000,3,0.3009032905,,,
26.8437500000,3,0.5635985732,,,
26.8593750000,3,0.6368408203,,,
26.8750000000,3,0.5234375000,,,
26.8906250000,3,0.3452148139,,,
26.9062500000,3,0.2509765923,,,
26.9218750000,3,0.3181152046,,,
26.9375000000,3,0.4875487983,,,
26.9531250000,3,0.6231688857,,,
26.9687500000,3,0.5728759766,,,
26.9843750000,3,0.2991943061,,,
27.0000000000,3,-0.1102294996,,,
27.0156250000,3,-0.4788818061,,,
27.0312500000,3,-0.6623535156,,,
27.0468750000,3,-0.6250000000,,,
27.0625000000,3,-0.4670409858,,,
27.0781250000,3,-0.3535155952,,,
27.0937500000,3,-0.3977051079,,,
27.1093750000,3,-0.5959473252,,,
27.1250000000,3,-0.8288574219,,,
27.1406250000,3,-0.9302979112,,,
27.1562500000,3,-0.8038330078,,,
27.1718750000,3,-0.4924316108,,,
27.1875000000,3,-0.1335449070,,,
27.2031250000,3,0.1171875000,,,
27.2187500000,3,0.2009277046,,,
27.2343750000,3,0.1818847954,,,
27.2500000000,3,0.1967772990,,,
27.2656250000,3,0.3668212891,,,
27.2812500000,3,0.7089843750,,,
27.2968750000,3,1.1236569881,,,
27.3125000000,3,1.4375000000,,,
27.3281250000,3,1.4973139763,,,
27.3437500000,3,1.2769780159,,,
27.3593750000,3,0.8901367188,,,
27.3750000000,3,0.5297852159,,,
27.3906250000,3,0.3664551079,,,
27.4062500000,3,0.4472655952,,,
27.4218750000,3,0.6761475205,,,
27.4375000000,3,0.8651123047,,,
27.4531250000,3,0.8363037109,,,
27.4687500000,3,0.5098876953,,,
27.4843750000,3,-0.0540771484,,,
27.5000000000,3,-0.6853026748,,,
27.5156250000,3,-1.1947020292,,,
27.5312500000,3,-1.4462889433,,,
27.5468750000,3,-1.4025880098,,,
27.5625000000,3,-1.1403809786,,,
27.5781250000,3,-0.7906494141,,,
27.5937500000,3,-0.5128173828,,,
27.6093750000,3,-0.4384765923,,,
27.6250000000,3,-0.6475830078,,,
27.6406250000,3,-1.1312259436,,,
27.6562500000,3,-1.7785639763,,,
27.6718750000,3,-2.3884279728,,,
27.6875000000,3,-2.7313230038,,,
27.7031250000,3,-2.6408689022,,,
27.7187500000,3,-2.0894780159,,,
27.7343750000,3,-1.1993410587,,,
27.7500000000,3,-0.2181396037,,,
27.7656250000,3,0.6147460938,,,
27.7812500000,3,1.1437989473,,,
27.7968750000,3,1.3461910486,,,
27.8125000000,3,1.3211669922,,,
27.8281250000,3,1.2059329748,,,
27.8437500000,3,1.1204830408,,,
27.8593750000,3,1.1241459846,,,
27.8750000000,3,1.2181400061,,,
27.8906250000,3,1.3568120003,,,
27.9062500000,3,1.4582519531,,,
27.9218750000,3,1.4382319450,,,
27.9375000000,3,1.2381589413,,,
27.9531250000,3,0.8524169922,,,
27.9687500000,3,0.3659667969,,,
27.9843750000,3,-0.0688476637,,,
28.0000000000,3,-0.2907715142,,,
28.0156250000,3,-0.2152100056,,,
28.0312500000,3,0.1112060994,,,
28.0468750000,3,0.5344238281,,,
28.0625000000,3,0.8579102159,,,
28.0781250000,3,0.9536132813,,,
28.0937500000,3,0.8199462891,,,
28.1093750000,3,0.5683593750,,,
28.1250000000,3,0.3486328125,,,
28.1406250000,3,0.2579346001,,,
28.1562500000,3,0.3005371094,,,
28.1718750000,3,0.4022217095,,,
28.1875000000,3,0.4835205078,,,
28.2031250000,3,0.5040283203,,,
28.2187500000,3,0.4820556939,,,
28.2343750000,3,0.4747313857,,,
28.2500000000,3,0.5048828125,,,
28.2656250000,3,0.5400391221,,,
28.2812500000,3,0.4846191108,,,
28.2968750000,3,0.2302245945,,,
28.3125000000,3,-0.2547607124,,,
28.3281250000,3,-0.8985595703,,,
28.3437500000,3,-1.5253909826,,,
28.3593750000,3,-1.9260250330,,,
28.3750000000,3,-1.9439699650,,,
28.3906250000,3,-1.5385739803,,,
28.4062500000,3,-0.8120117188,,,
28.4218750000,3,0.0441894494,,,
28.4375000000,3,0.7983397841,,,
28.4531250000,3,1.2655030489,,,
28.4687500000,3,1.3557130098,,,
28.4843750000,3,1.0939940214,,,
28.5000000000,3,0.6114501953,,,
28.5156250000,3,0.0911865234,,,
28.5312500000,3,-0.3123778999,,,
28.5468750000,3,-0.5152587891,,,
28.5625000000,3,-0.5347899795,,,
28.5781250000,3,-0.4671630859,,,
28.5937500000,3,-0.4279784858,,,
28.6093750000,3,-0.4953612983,,,
28.6250000000,3,-0.6654052734,,,
28.6406250000,3,-0.8724365234,,,
28.6562500000,3,-1.0415040255,,,
28.6718750000,3,-1.1284179688,,,
28.6875000000,3,-1.1418459415,,,
28.7031250000,3,-1.1130369902,,,
28.7187500000,3,-1.0531009436,,,
28.7343750000,3,-0.9510498047,,,
28.7500000000,3,-0.7673339844,,,
28.7656250000,3,-0.4815674126,,,
28.7812500000,3,-0.1094971001,,,
28.7968750000,3,0.2935791016,,,
28.8125000000,3,0.6607666016,,,
28.8281250000,3,0.9359130859,,,
28.8437500000,3,1.1036380529,,,
28.8593750000,3,1.1851810217,,,
28.8750000000,3,1.2163089514,,,
28.8906250000,3,1.2072750330,,,
28.9062500000,3,1.1308590174,,,
28.9218750000,3,0.9473876953,,,
28.9375000000,3,0.6535645127,,,
28.9531250000,3,0.3087157905,,,
28.9687500000,3,0.0307617206,,,
28.9843750000,3,-0.0617675819,,,
29.0000000000,3,0.0688476637,,,
29.0156250000,3,0.3502196968,,,
29.0312500000,3,0.6162108779,,,
29.0468750000,3,0.7257080078,,,
29.0625000000,3,0.6351317763,,,
29.0781250000,3,0.4421387017,,,
29.0937500000,3,0.3248291016,,,
29.1093750000,3,0.4312744141,,,
29.1250000000,3,0.7669677734,,,
29.1406250000,3,1.1785889864,,,
29.1562500000,3,1.4240720272,,,
29.1718750000,3,1.3337399960,,,
29.1875000000,3,0.8887938857,,,
29.2031250000,3,0.2474364936,,,
29.2187500000,3,-0.3437500000,,,
29.2343750000,3,-0.7038574219,,,
29.2500000000,3,-0.7761229873,,,
29.2656250000,3,-0.6575927734,,,
29.2812500000,3,-0.4980469048,,,
29.2968750000,3,-0.4249267876,,,
29.3125000000,3,-0.4666748047,,,
29.3281250000,3,-0.5816649795,,,
29.3437500000,3,-0.7038574219,,,
29.3593750000,3,-0.8081055284,,,
29.3750000000,3,-0.9063720703,,,
29.3906250000,3,-1.0292969942,,,
29.4062500000,3,-1.1875000000,,,
29.4218750000,3,-1.3458249569,,,
29.4375000000,3,-1.4467769861,,,
29.4531250000,3,-1.4459229708,,,
29.4687500000,3,-1.3524169922,,,
29.4843750000,3,-1.2144780159,,,
29.5000000000,3,-1.0968019962,,,
29.5156250000,3,-1.0299069881,,,
29.5312500000,3,-1.0064699650,,,
29.5468750000,3,-0.9927979112,,,
29.5625000000,3,-0.9437255859,,,
29.5781250000,3,-0.8620604873,,,
29.5937500000,3,-0.7763671875,,,
29.6093750000,3,-0.7255858779,,,
29.6250000000,3,-0.7167968750,,,
29.6406250000,3,-0.7072753906,,,
29.6562500000,3,-0.6519774795,,,
29.6718750000,3,-0.5083007813,,,
29.6875000000,3,-0.2899169922,,,
29.7031250000,3,-0.0507812500,,,
29.7187500000,3,0.1545410007,,,
29.7343750000,3,0.2944335938,,,
29.7500000000,3,0.4051513970,,,
29.7656250000,3,0.5262451172,,,
29.7812500000,3,0.7032470703,,,
29.7968750000,3,0.9089354873,,,
29.8125000000,3,1.0803220272,,,
29.8281250000,3,1.1481930017,,,
29.8437500000,3,1.0909420252,,,
29.8593750000,3,0.9570313096,,,
29.8750000000,3,0.8425292969,,,
29.8906250000,3,0.8265380859,,,
29.9062500000,3,0.9244384766,,,
29.9218750000,3,1.0864260197,,,
29.9375000000,3,1.2116700411,,,
29.9531250000,3,1.2313230038,,,
29.9687500000,3,1.1271970272,,,
29.9843750000,3,0.9288330078,,,
30.0000000000,3,0.6824951172,,,
30.0156250000,3,0.4157715142,,,
30.0312500000,3,0.1322021037,,,
30.0468750000,3,-0.1831054986,,,
30.0625000000,3,-0.5220947266,,,
30.0781250000,3,-0.8653563857,,,
30.0937500000,3,-1.1574709415,,,
30.1093750000,3,-1.3498539925,,,
30.1250000000,3,-1.4134520292,,,
30.1406250000,3,-1.3287349939,,,
30.1562500000,3,-1.1086430550,,,
30.1718750000,3,-0.7747802734,,,
30.1875000000,3,-0.3851318061,,,
30.2031250000,3,-0.0134277297,,,
30.2187500000,3,0.2906494141,,,
30.2343750000,3,0.4997558892,,,
30.2500000000,3,0.6618651748,,,
30.2656250000,3,0.8243408203,,,
30.2812500000,3,1.0299069881,,,
30.2968750000,3,1.2338869572,,,
30.3125000000,3,1.3365479708,,,
30.3281250000,3,1.2325439453,,,
30.3437500000,3,0.8843994141,,,
30.3593750000,3,0.3692626953,,,
30.3750000000,3,-0.1541748047,,,
30.3906250000,3,-0.5333251953,,,
30.4062500000,3,-0.6787108779,,,
30.4218750000,3,-0.6077880859,,,
30.4375000000,3,-0.4310303032,,,
30.4531250000,3,-0.2681885064,,,
30.4687500000,3,-0.1923827976,,,
30.4843750000,3,-0.2038574070,,,
30.5000000000,3,-0.2344971001,,,
30.5156250000,3,-0.2293701023,,,
30.5312500000,3,-0.1641846001,,,
30.5468750000,3,-0.0843505934,,,
30.5625000000,3,-0.0567626990,,,
30.5781250000,3,-0.1270751953,,,
30.5937500000,3,-0.2864989936,,,
30.6093750000,3,-0.4536133111,,,
30.6250000000,3,-0.5311279297,,,
30.6406250000,3,-0.4337157905,,,
30.6562500000,3,-0.1656493992,,,
30.6718750000,3,0.1970214993,,,
30.6875000000,3,0.5187988281,,,
30.7031250000,3,0.6909180284,,,
30.7187500000,3,0.6953125000,,,
30.7343750000,3,0.6008300781,,,
30.7500000000,3,0.5639647841,,,
30.7656250000,3,0.6846923828,,,
30.7812500000,3,0.9636229873,,,
30.7968750000,3,1.2613530159,,,
30.8125000000,3,1.3758540154,,,
30.8281250000,3,1.1264649630,,,
30.8437500000,3,0.4792479873,,,
30.8593750000,3,-0.4162597954,,,
30.8750000000,3,-1.2653809786,,,
30.8906250000,3,-1.7825930119,,,
30.9062500000,3,-1.8156739473,,,
30.9218750000,3,-1.4157710075,,,
30.9375000000,3,-0.8079833984,,,
30.9531250000,3,-0.2534179986,,,
30.9687500000,3,0.0855712891,,,
30.9843750000,3,0.2036132962,,,
31.0000000000,3,0.2180175930,,,
31.0156250000,3,0.2512207031,,,
31.0312500000,3,0.3708496094,,,
31.0468750000,3,0.5341796875,,,
31.0625000000,3,0.6459960938,,,
31.0781250000,3,0.6400145888,,,
31.0937500000,3,0.5072020888,,,
31.1093750000,3,0.3059082031,,,
31.1250000000,3,0.1038817987,,,
31.1406250000,3,-0.0590820313,,,
31.1562500000,3,-0.2003173977,,,
31.1718750000,3,-0.3590087891,,,
31.1875000000,3,-0.5587158203,,,
31.2031250000,3,-0.7563477159,,,
31.2187500000,3,-0.8811035156,,,
31.2343750000,3,-0.8697509766,,,
31.2500000000,3,-0.6962891221,,,
31.2656250000,3,-0.4010010064,,,
31.2812500000,3,-0.0725097731,,,
31.2968750000,3,0.1990966946,,,
31.3125000000,3,0.3529053032,,,
31.3281250000,3,0.3748778999,,,
31.3437500000,3,0.2944335938,,,
31.3593750000,3,0.1451416016,,,
31.3750000000,3,-0.0249023400,,,
31.3906250000,3,-0.1876221001,,,
31.4062500000,3,-0.3229979873,,,
31.4218750000,3,-0.4309082031,,,
31.4375000000,3,-0.5216063857,,,
31.4531250000,3,-0.6137694716,,,
31.4687500000,3,-0.7187500000,,,
31.4843750000,3,-0.8247069716,,,
31.5000000000,3,-0.8974608779,,,
31.5156250000,3,-0.8957520127,,,
31.5312500000,3,-0.7998046875,,,
31.5468750000,3,-0.6271973252,,,
31.5625000000,3,-0.4396972954,,,
31.5781250000,3,-0.3093262017,,,
31.5937500000,3,-0.2894287109,,,
31.6093750000,3,-0.3795166016,,,
31.6250000000,3,-0.5034180284,,,
31.6406250000,3,-0.5531005859,,,
31.6562500000,3,-0.4455566108,,,
31.6718750000,3,-0.1795653999,,,
31.6875000000,3,0.1672362983,,,
31.7031250000,3,0.4754638970,,,
31.7187500000,3,0.6497802734,,,
31.7343750000,3,0.6909180284,,,
31.7500000000,3,0.6790770888,,,
31.7656250000,3,0.7246093750,,,
31.7812500000,3,0.8825684190,,,
31.7968750000,3,1.1325680017,,,
31.8125000000,3,1.3660889864,,,
31.8281250000,3,1.4749759436,,,
31.8437500000,3,1.4077149630,,,
31.8593750000,3,1.2017819881,,,
31.8750000000,3,0.9680175781,,,
31.8906250000,3,0.8006591797,,,
31.9062500000,3,0.7314453125,,,
31.9218750000,3,0.7233886719,,,
31.9375000000,3,0.7124022841,,,
31.9531250000,3,0.6563720703,,,
31.9687500000,3,0.5595703125,,,
31.9843750000,3,0.4376221001,,,
32.0000000000,4,0.2905273139,,,
32.0156250000,4,0.0925292969,,,
32.0312500000,4,-0.1920166016,,,
32.0468750000,4,-0.5401610732,,,
32.0625000000,4,-0.8515625000,,,
32.0781250000,4,-0.9803466797,,,
32.0937500000,4,-0.8088378906,,,
32.1093750000,4,-0.3323974907,,,
32.1250000000,4,0.3425292969,,,
32.1406250000,4,1.0220949650,,,
32.1562500000,4,1.5234379768,,,
32.1718750000,4,1.7413330078,,,
32.1875000000,4,1.6774899960,,,
32.2031250000,4,1.4149169922,,,
32.2187500000,4,1.0551760197,,,
32.2343750000,4,0.6853026748,,,
32.2500000000,4,0.3785400093,,,
32.2656250000,4,0.1699219048,,,
32.2812500000,4,0.0563964806,,,
32.2968750000,4,-0.0095214844,,,
32.3125000000,4,-0.1136474982,,,
32.3281250000,4,-0.3237304986,,,
32.3437500000,4,-0.6452636719,,,
32.3593750000,4,-1.0042719841,,,
32.3750000000,4,-1.2774660587,,,
32.3906250000,4,-1.3653559685,,,
32.4062500000,4,-1.2749019861,,,
32.4218750000,4,-1.1182860136,,,
32.4375000000,4,-1.0406490564,,,
32.4531250000,4,-1.1402590275,,,
32.4687500000,4,-1.3878170252,,,
32.4843750000,4,-1.6499019861,,,
32.5000000000,4,-1.7651369572,,,
32.5156250000,4,-1.6420899630,,,
32.5312500000,4,-1.3173830509,,,
32.5468750000,4,-0.9243164063,,,
32.5625000000,4,-0.6103516221,,,
32.5781250000,4,-0.4606933892,,,
32.5937500000,4,-0.4881592095,,,
32.6093750000,4,-0.6643065810,,,
32.6250000000,4,-0.9202880859,,,
32.6406250000,4,-1.2138669491,,,
32.6562500000,4,-1.5002440214,,,
32.6718750000,4,-1.7207030058,,,
32.6875000000,4,-1.8100589514,,,
32.7031250000,4,-1.7066650391,,,
32.7187500000,4,-1.3895260096,,,
32.7343750000,4,-0.8950194716,,,
32.7500000000,4,-0.3105469048,,,
32.7656250000,4,0.2587890923,,,
32.7812500000,4,0.7401123047,,,
32.7968750000,4,1.1147459745,,,
32.8125000000,4,1.3988039494,,,
32.8281250000,4,1.6093750000,,,
32.8437500000,4,1.7351069450,,,
32.8593750000,4,1.7493900061,,,
32.8750000000,4,1.6239010096,,,
32.8906250000,4,1.3734129667,,,
32.9062500000,4,1.0577390194,,,
32.9218750000,4,0.7490233779,,,
32.9375000000,4,0.5212401748,,,
32.9531250000,4,0.3979491889,,,
32.9687500000,4,0.3579101861,,,
32.9843750000,4,0.3355712891,,,
33.0000000000,4,0.2769775093,,,
33.0156250000,4,0.1600341946,,,
33.0312500000,4,-0.0059814448,,,
33.0468750000,4,-0.1809082031,,,
33.0625000000,4,-0.3374023139,,,
33.0781250000,4,-0.4346924126,,,
33.0937500000,4,-0.4351806939,,,
33.1093750000,4,-0.3237304986,,,
33.1250000000,4,-0.0866699219,,,
33.1406250000,4,0.2231445014,,,
33.1562500000,4,0.5120850205,,,
33.1718750000,4,0.6728516221,,,
33.1875000000,4,0.6453856826,,,
33.2031250000,4,0.4490967095,,,
33.2187500000,4,0.1878661960,,,
33.2343750000,4,0.0084228516,,,
33.2500000000,4,0.0179443397,,,
33.2656250000,4,0.2332763970,,,
33.2812500000,4,0.5589600205,,,
33.2968750000,4,0.8302001953,,,
33.3125000000,4,0.9129639268,,,
33.3281250000,4,0.7662354112,,,
33.3437500000,4,0.4350585938,,,
33.3593750000,4,0.0214843806,,,
33.3750000000,4,-0.3957520127,,,
33.3906250000,4,-0.7899169922,,,
33.4062500000,4,-1.1516109705,,,
33.4218750000,4,-1.4594730139,,,
33.4375000000,4,-1.6527099609,,,
33.4531250000,4,-1.6589360237,,,
33.4687500000,4,-1.4351810217,,,
33.4843750000,4,-1.0255130529,,,
33.5000000000,4,-0.5351563096,,,
33.5156250000,4,-0.0787353516,,,
33.5312500000,4,0.2493896037,,,
33.5468750000,4,0.4346924126,,,
33.5625000000,4,0.4924316108,,,
33.5781250000,4,0.4643554986,,,
33.5937500000,4,0.3718262017,,,
33.6093750000,4,0.2390137017,,,
33.6250000000,4,0.1038817987,,,
33.6406250000,4,0.0062255859,,,
33.6562500000,4,-0.0125732403,,,
33.6718750000,4,0.0373535194,,,
33.6875000000,4,0.1322021037,,,
33.7031250000,4,0.2362060994,,,
33.7187500000,4,0.3457030952,,,
33.7343750000,4,0.4826659858,,,
33.7500000000,4,0.6748046875,,,
33.7656250000,4,0.9029541016,,,
33.7812500000,4,1.1187740564,,,
33.7968750000,4,1.2388919592,,,
33.8125000000,4,1.1971440315,,,
33.8281250000,4,0.9827880859,,,
33.8437500000,4,0.6367188096,,,
33.8593750000,4,0.2385254055,,,
33.8750000000,4,-0.1224365011,,,
33.8906250000,4,-0.3557128906,,,
33.9062500000,4,-0.3906250000,,,
33.9218750000,4,-0.1812743992,,,
33.9375000000,4,0.2757568061,,,
33.9531250000,4,0.9000244141,,,
33.9687500000,4,1.5440670252,,,
33.9843750000,4,2.0225830078,,,
34.0000000000,4,2.1802980900,,,
34.0156250000,4,1.9708249569,,,
34.0312500000,4,1.4710689783,,,
34.0468750000,4,0.8588867188,,,
34.0625000000,4,0.3208008111,,,
34.0781250000,4,-0.0247802697,,,
34.0937500000,4,-0.1900635064,,,
34.1093750000,4,-0.2770996094,,,
34.1250000000,4,-0.4193114936,,,
34.1406250000,4,-0.6906738281,,,
34.1562500000,4,-1.0555419922,,,
34.1718750000,4,-1.4122309685,,,
34.1875000000,4,-1.6528320313,,,
34.2031250000,4,-1.7329100370,,,
34.2187500000,4,-1.6737060547,,,
34.2343750000,4,-1.5505369902,,,
34.2500000000,4,-1.4094239473,,,
34.2656250000,4,-1.2851560116,,,
34.2812500000,4,-1.1739499569,,,
34.2968750000,4,-1.0792239904,,,
34.3125000000,4,-1.0090329647,,,
34.3281250000,4,-0.9653319716,,,
34.3437500000,4,-0.9174805284,,,
34.3593750000,4,-0.7913817763,,,
34.3750000000,4,-0.5339354873,,,
34.3906250000,4,-0.1271972954,,,
34.4062500000,4,0.3533936143,,,
34.4218750000,4,0.7834473252,,,
34.4375000000,4,1.0566409826,,,
34.4531250000,4,1.1395260096,,,
34.4687500000,4,1.0775150061,,,
34.4843750000,4,0.9511718750,,,
34.5000000000,4,0.8021240234,,,
34.5156250000,4,0.5949707031,,,
34.5312500000,4,0.2932128906,,,
34.5468750000,4,-0.0834960863,,,
34.5625000000,4,-0.4183349907,,,
34.5781250000,4,-0.5390625000,,,
34.5937500000,4,-0.3203125000,,,
34.6093750000,4,0.2246094048,,,
34.6250000000,4,0.9096680284,,,
34.6406250000,4,1.4715579748,,,
34.6562500000,4,1.6911619902,,,
34.6718750000,4,1.5089110136,,,
34.6875000000,4,1.0294189453,,,
34.7031250000,4,0.4545898139,,,
34.7187500000,4,-0.0246581994,,,
34.7343750000,4,-0.3041991889,,,
34.7500000000,4,-0.3743895888,,,
34.7656250000,4,-0.3022460938,,,
34.7812500000,4,-0.1638184041,,,
34.7968750000,4,-0.0509033203,,,
34.8125000000,4,-0.0294189509,,,
34.8281250000,4,-0.1213378981,,,
34.8437500000,4,-0.3122558892,,,
34.8593750000,4,-0.5440673828,,,
34.8750000000,4,-0.7471923828,,,
34.8906250000,4,-0.8737792969,,,
34.9062500000,4,-0.9277343750,,,
34.9218750000,4,-0.9427490234,,,
34.9375000000,4,-0.9562988281,,,
34.9531250000,4,-0.9754639268,,,
34.9687500000,4,-0.9719238281,,,
34.9843750000,4,-0.9011229873,,,
35.0000000000,4,-0.7375488281,,,
35.0156250000,4,-0.5150145888,,,
35.0312500000,4,-0.3056640923,,,
35.0468750000,4,-0.1717528999,,,
35.0625000000,4,-0.1391602010,,,
35.0781250000,4,-0.1859131008,,,
35.0937500000,4,-0.2642821968,,,
35.1093750000,4,-0.3255614936,,,
35.1250000000,4,-0.3626708984,,,
35.1406250000,4,-0.3884277046,,,
35.1562500000,4,-0.4254150093,,,
35.1718750000,4,-0.4782715142,,,
35.1875000000,4,-0.5402832031,,,
35.2031250000,4,-0.5656738281,,,
35.2187500000,4,-0.5294188857,,,
35.2343750000,4,-0.4184570014,,,
35.2500000000,4,-0.2529296875,,,
35.2656250000,4,-0.0714111328,,,
35.2812500000,4,0.0979003906,,,
35.2968750000,4,0.2415771037,,,
35.3125000000,4,0.3547362983,,,
35.3281250000,4,0.4357909858,,,
35.3437500000,4,0.4890137017,,,
35.3593750000,4,0.4952392876,,,
35.3750000000,4,0.4400635064,,,
35.3906250000,4,0.3304443061,,,
35.4062500000,4,0.2011719048,,,
35.4218750000,4,0.1136474982,,,
35.4375000000,4,0.1396483928,,,
35.4531250000,4,0.3073729873,,,
35.4687500000,4,0.5986328125,,,
35.4843750000,4,0.9387207031,,,
35.5000000000,4,1.2369379997,,,
35.5156250000,4,1.4176030159,,,
35.5312500000,4,1.4406739473,,,
35.5468750000,4,1.3084720373,,,
35.5625000000,4,1.0399169922,,,
35.5781250000,4,0.6788330078,,,
35.5937500000,4,0.2716063857,,,
35.6093750000,4,-0.1164551005,,,
35.6250000000,4,-0.4315186143,,,
35.6406250000,4,-0.6452636719,,,
35.6562500000,4,-0.7700194716,,,
35.6718750000,4,-0.8406981826,,,
35.6875000000,4,-0.9029541016,,,
35.7031250000,4,-0.9504395127,,,
35.7187500000,4,-0.9345703125,,,
35.7343750000,4,-0.8021240234,,,
35.7500000000,4,-0.5310059190,,,
35.7656250000,4,-0.1751708984,,,
35.7812500000,4,0.1429443061,,,
35.7968750000,4,0.3161621094,,,
35.8125000000,4,0.3176270127,,,
35.8281250000,4,0.2203368992,,,
35.8437500000,4,0.1533202976,,,
35.8593750000,4,0.2115478963,,,
35.8750000000,4,0.3887938857,,,
35.8906250000,4,0.5726317763,,,
35.9062500000,4,0.6114501953,,,
35.9218750000,4,0.4125976861,,,
35.9375000000,4,0.0075683589,,,
35.9531250000,4,-0.4562987983,,,
35.9687500000,4,-0.7807617188,,,
35.9843750000,4,-0.8140869141,,,
36.0000000000,4,-0.5209960938,,,
36.0156250000,4,-0.0001220703,,,
36.0312500000,4,0.5584716797,,,
36.0468750000,4,0.9675292969,,,
36.0625000000,4,1.1120610237,,,
36.0781250000,4,0.9963378906,,,
36.0937500000,4,0.7028809190,,,
36.1093750000,4,0.3391112983,,,
36.1250000000,4,-0.0383300819,,,
36.1406250000,4,-0.4152832031,,,
36.1562500000,4,-0.8007813096,,,
36.1718750000,4,-1.1635739803,,,
36.1875000000,4,-1.4393310547,,,
36.2031250000,4,-1.5548100471,,,
36.2187500000,4,-1.4829100370,,,
36.2343750000,4,-1.2934570313,,,
36.2500000000,4,-1.1054689884,,,
36.2656250000,4,-0.9986572266,,,
36.2812500000,4,-0.9666748047,,,
36.2968750000,4,-0.9184569716,,,
36.3125000000,4,-0.7692871094,,,
36.3281250000,4,-0.5117188096,,,
36.3437500000,4,-0.2570801079,,,
36.3593750000,4,-0.1734618992,,,
36.3750000000,4,-0.3647460938,,,
36.3906250000,4,-0.8067626953,,,
36.4062500000,4,-1.3483890295,,,
36.4218750000,4,-1.7731930017,,,
36.4375000000,4,-1.9097900391,,,
36.4531250000,4,-1.6907960176,,,
36.4687500000,4,-1.1577149630,,,
36.4843750000,4,-0.4366455078,,,
36.5000000000,4,0.3079833984,,,
36.5156250000,4,0.9312744141,,,
36.5312500000,4,1.3233640194,,,
36.5468750000,4,1.4514160156,,,
36.5625000000,4,1.3701169491,,,
36.5781250000,4,1.2086180449,,,
36.5937500000,4,1.1005860567,,,
36.6093750000,4,1.1220699549,,,
36.6250000000,4,1.2352290154,,,
36.6406250000,4,1.3322750330,,,
36.6562500000,4,1.2878420353,,,
36.6718750000,4,1.0705569983,,,
36.6875000000,4,0.7327880859,,,
36.7031250000,4,0.4007568061,,,
36.7187500000,4,0.1804199070,,,
36.7343750000,4,0.0971679688,,,
36.7500000000,4,0.1151122972,,,
36.7656250000,4,0.1649170071,,,
36.7812500000,4,0.1967772990,,,
36.7968750000,4,0.2133789063,,,
36.8125000000,4,0.2420653999,,,
36.8281250000,4,0.3179931939,,,
36.8437500000,4,0.4482421875,,,
36.8593750000,4,0.5982666016,,,
36.8750000000,4,0.7336425781,,,
36.8906250000,4,0.8090819716,,,
36.9062500000,4,0.7847899795,,,
36.9218750000,4,0.6400145888,,,
36.9375000000,4,0.3582763970,,,
36.9531250000,4,-0.0433349609,,,
36.9687500000,4,-0.5035399795,,,
36.9843750000,4,-0.9213867188,,,
37.0000000000,4,-1.1950680017,,,
37.0156250000,4,-1.2556149960,,,
37.0312500000,4,-1.1092530489,,,
37.0468750000,4,-0.8302001953,,,
37.0625000000,4,-0.5294188857,,,
37.0781250000,4,-0.2966308892,,,
37.0937500000,4,-0.1617431939,,,
37.1093750000,4,-0.0971679688,,,
37.1250000000,4,-0.0496826209,,,
37.1406250000,4,0.0468750000,,,
37.1562500000,4,0.2163085938,,,
37.1718750000,4,0.4538573921,,,
37.1875000000,4,0.7139893174,,,
37.2031250000,4,0.9517822266,,,
37.2187500000,4,1.1342769861,,,
37.2343750000,4,1.2512209415,,,
37.2500000000,4,1.3177490234,,,
37.2656250000,4,1.3582760096,,,
37.2812500000,4,1.3811039925,,,
37.2968750000,4,1.3820799589,,,
37.3125000000,4,1.3439940214,,,
37.3281250000,4,1.2619630098,,,
37.3437500000,4,1.1440429688,,,
37.3593750000,4,1.0024410486,,,
37.3750000000,4,0.8474121094,,,
37.3906250000,4,0.6632080078,,,
37.4062500000,4,0.4261474907,,,
37.4218750000,4,0.1330565959,,,
37.4375000000,4,-0.1805420071,,,
37.4531250000,4,-0.4423828125,,,
37.4687500000,4,-0.5627440810,,,
37.4843750000,4,-0.4952392876,,,
37.5000000000,4,-0.2744140923,,,
37.5156250000,4,-0.0073242192,,,
37.5312500000,4,0.1555175930,,,
37.5468750000,4,0.1000977010,,,
37.5625000000,4,-0.2065429986,,,
37.5781250000,4,-0.6744384766,,,
37.5937500000,4,-1.1374510527,,,
37.6093750000,4,-1.4260250330,,,
37.6250000000,4,-1.4394530058,,,
37.6406250000,4,-1.1842039824,,,
37.6562500000,4,-0.7672119141,,,
37.6718750000,4,-0.3332520127,,,
37.6875000000,4,-0.0010986330,,,
37.7031250000,4,0.1745605022,,,
37.7187500000,4,0.2154541016,,,
37.7343750000,4,0.1762695014,,,
37.7500000000,4,0.1109618992,,,
37.7656250000,4,0.0424804688,,,
37.7812500000,4,-0.0197753906,,,
37.7968750000,4,-0.0781250000,,,
37.8125000000,4,-0.1389160007,,,
37.8281250000,4,-0.1868896037,,,
37.8437500000,4,-0.2130126953,,,
37.8593750000,4,-0.1884766072,,,
37.8750000000,4,-0.0836181566,,,
37.8906250000,4,0.1416016072,,,
37.9062500000,4,0.4835205078,,,
37.9218750000,4,0.8831787109,,,
37.9375000000,4,1.2172850370,,,
37.9531250000,4,1.3640140295,,,
37.9687500000,4,1.2806400061,,,
37.9843750000,4,1.0360109806,,,
38.0000000000,4,0.7823485732,,,
38.0156250000,4,0.6628417969,,,
38.0312500000,4,0.7055664063,,,
38.0468750000,4,0.8017578125,,,
38.0625000000,4,0.7769774795,,,
38.0781250000,4,0.5061035156,,,
38.0937500000,4,0.0109863300,,,
38.1093750000,4,-0.5651854873,,,
38.1250000000,4,-1.0428470373,,,
38.1406250000,4,-1.3164060116,,,
38.1562500000,4,-1.4064940214,,,
38.1718750000,4,-1.4345699549,,,
38.1875000000,4,-1.5067139864,,,
38.2031250000,4,-1.6553959846,,,
38.2187500000,4,-1.8227540255,,,
38.2343750000,4,-1.9200439453,,,
38.2500000000,4,-1.8990479708,,,
38.2656250000,4,-1.7812500000,,,
38.2812500000,4,-1.6177979708,,,
38.2968750000,4,-1.4543459415,,,
38.3125000000,4,-1.2828370333,,,
38.3281250000,4,-1.0662839413,,,
38.3437500000,4,-0.7478026748,,,
38.3593750000,4,-0.3150635064,,,
38.3750000000,4,0.1859131008,,,
38.3906250000,4,0.6660156250,,,
38.4062500000,4,1.0092769861,,,
38.4218750000,4,1.1375730038,,,
38.4375000000,4,1.0297850370,,,
38.4531250000,4,0.7658690810,,,
38.4687500000,4,0.4822998047,,,
38.4843750000,4,0.2917479873,,,
38.5000000000,4,0.2441405952,,,
38.5156250000,4,0.2966308892,,,
38.5312500000,4,0.3435058892,,,
38.5468750000,4,0.3048096001,,,
38.5625000000,4,0.1796875000,,,
38.5781250000,4,0.0544433594,,,
38.5937500000,4,0.0451660194,,,
38.6093750000,4,0.1979980022,,,
38.6250000000,4,0.4564208984,,,
38.6406250000,4,0.6660156250,,,
38.6562500000,4,0.6827393174,,,
38.6718750000,4,0.4556885064,,,
38.6875000000,4,0.0758056566,,,
38.7031250000,4,-0.2775878906,,,
38.7187500000,4,-0.4526366889,,,
38.7343750000,4,-0.3704833984,,,
38.7500000000,4,-0.0902099609,,,
38.7656250000,4,0.2558594048,,,
38.7812500000,4,0.5449218750,,,
38.7968750000,4,0.7153319716,,,
38.8125000000,4,0.7689208984,,,
38.8281250000,4,0.7340087891,,,
38.8437500000,4,0.6503906250,,,
38.8593750000,4,0.5065917969,,,
38.8750000000,4,0.2703857124,,,
38.8906250000,4,-0.0784912109,,,
38.9062500000,4,-0.5133057237,,,
38.9218750000,4,-0.9427490234,,,
38.9375000000,4,-1.2563480139,,,
38.9531250000,4,-1.3721920252,,,
38.9687500000,4,-1.2659909725,,,
38.9843750000,4,-1.0153809786,,,
39.0000000000,4,-0.7344970703,,,
39.0156250000,4,-0.5069580078,,,
39.0312500000,4,-0.3624267876,,,
39.0468750000,4,-0.2690429986,,,
39.0625000000,4,-0.1716309041,,,
39.0781250000,4,-0.0302734394,,,
39.0937500000,4,0.1495361030,,,
39.1093750000,4,0.3309325874,,,
39.1250000000,4,0.4781494141,,,
39.1406250000,4,0.5637207031,,,
39.1562500000,4,0.5759276748,,,
39.1718750000,4,0.5054932237,,,
39.1875000000,4,0.3417969048,,,
39.2031250000,4,0.0817871094,,,
39.2187500000,4,-0.2650145888,,,
39.2343750000,4,-0.6324462891,,,
39.2500000000,4,-0.9261475205,,,
39.2656250000,4,-1.0699460506,,,
39.2812500000,4,-1.0427249670,,,
39.2968750000,4,-0.8659667969,,,
39.3125000000,4,-0.6348876953,,,
39.3281250000,4,-0.4333496094,,,
39.3437500000,4,-0.2923583984,,,
39.3593750000,4,-0.1933594048,,,
39.3750000000,4,-0.0942382813,,,
39.3906250000,4,0.0482177697,,,
39.4062500000,4,0.2125243992,,,
39.4218750000,4,0.3417969048,,,
39.4375000000,4,0.3572998047,,,
39.4531250000,4,0.2196045071,,,
39.4687500000,4,-0.0026855471,,,
39.4843750000,4,-0.1574707031,,,
39.5000000000,4,-0.0870361328,,,
39.5156250000,4,0.2933349907,,,
39.5312500000,4,0.9022216797,,,
39.5468750000,4,1.5155030489,,,
39.5625000000,4,1.8685300350,,,
39.5781250000,4,1.8055419922,,,
39.5937500000,4,1.3367919922,,,
39.6093750000,4,0.6309813857,,,
39.6250000000,4,-0.0955810472,,,
39.6406250000,4,-0.6888427734,,,
39.6562500000,4,-1.1094969511,,,
39.6718750000,4,-1.3718260527,,,
39.6875000000,4,-1.4931639433,,,
39.7031250000,4,-1.4428709745,,,
39.7187500000,4,-1.1857910156,,,
39.7343750000,4,-0.7274169922,,,
39.7500000000,4,-0.1652832031,,,
39.7656250000,4,0.3387450874,,,
39.7812500000,4,0.6303710938,,,
39.7968750000,4,0.6697998047,,,
39.8125000000,4,0.5213623047,,,
39.8281250000,4,0.3288573921,,,
39.8437500000,4,0.2200928032,,,
39.8593750000,4,0.2414550930,,,
39.8750000000,4,0.3350830078,,,
39.8906250000,4,0.4082030952,,,
39.9062500000,4,0.3911133111,,,
39.9218750000,4,0.2835693061,,,
39.9375000000,4,0.1396483928,,,
39.9531250000,4,0.0325927697,,,
39.9687500000,4,-0.0024414060,,,
39.9843750000,4,0.0162353497,,,
40.0000000000,5,0.0217285194,,,
40.0156250000,5,-0.0488281287,,,
40.0312500000,5,-0.2139893025,,,
40.0468750000,5,-0.4311523139,,,
40.0625000000,5,-0.6312255859,,,
40.0781250000,5,-0.7365723252,,,
40.0937500000,5,-0.7226563096,,,
40.1093750000,5,-0.6000977159,,,
40.1250000000,5,-0.4084472954,,,
40.1406250000,5,-0.1749268025,,,
40.1562500000,5,0.0610351600,,,
40.1718750000,5,0.2620849907,,,
40.1875000000,5,0.3739013970,,,
40.2031250000,5,0.3803710938,,,
40.2187500000,5,0.3115234077,,,
40.2343750000,5,0.2554931939,,,
40.2500000000,5,0.3201903999,,,
40.2656250000,5,0.5654296875,,,
40.2812500000,5,0.9385985732,,,
40.2968750000,5,1.2928470373,,,
40.3125000000,5,1.4173580408,,,
40.3281250000,5,1.1762700081,,,
40.3437500000,5,0.5690917969,,,
40.3593750000,5,-0.2322998047,,,
40.3750000000,5,-0.9522705078,,,
40.3906250000,5,-1.3522950411,,,
40.4062500000,5,-1.3405760527,,,
40.4218750000,5,-0.9940186143,,,
40.4375000000,5,-0.5214843750,,,
40.4531250000,5,-0.1221923977,,,
40.4687500000,5,0.1044922024,,,
40.4843750000,5,0.1914062947,,,
40.5000000000,5,0.2406006008,,,
40.5156250000,5,0.3245849907,,,
40.5312500000,5,0.4289551079,,,
40.5468750000,5,0.4783936143,,,
40.5625000000,5,0.3945313096,,,
40.5781250000,5,0.1862792969,,,
40.5937500000,5,-0.0537109412,,,
40.6093750000,5,-0.2121582031,,,
40.6250000000,5,-0.2668457031,,,
40.6406250000,5,-0.2968750000,,,
40.6562500000,5,-0.4385986030,,,
40.6718750000,5,-0.7658690810,,,
40.6875000000,5,-1.2210689783,,,
40.7031250000,5,-1.6221920252,,,
40.7187500000,5,-1.7612299919,,,
40.7343750000,5,-1.5305180550,,,
40.7500000000,5,-0.9786376953,,,
40.7656250000,5,-0.2812500000,,,
40.7812500000,5,0.3363037109,,,
40.7968750000,5,0.7303466797,,,
40.8125000000,5,0.8613281250,,,
40.8281250000,5,0.7957764268,,,
40.8437500000,5,0.6437988281,,,
40.8593750000,5,0.5047606826,,,
40.8750000000,5,0.4276123047,,,
40.8906250000,5,0.4121094048,,,
40.9062500000,5,0.4240722954,,,
40.9218750000,5,0.4453125000,,,
40.9375000000,5,0.4721679986,,,
40.9531250000,5,0.5198975205,,,
40.9687500000,5,0.6057128906,,,
40.9843750000,5,0.7015380859,,,
41.0000000000,5,0.7506104112,,,
41.0156250000,5,0.6778563857,,,
41.0312500000,5,0.4409179986,,,
41.0468750000,5,0.0666503906,,,
41.0625000000,5,-0.3560791016,,,
41.0781250000,5,-0.7028809190,,,
41.0937500000,5,-0.8872069716,,,
41.1093750000,5,-0.8642578125,,,
41.1250000000,5,-0.6702880859,,,
41.1406250000,5,-0.3953857124,,,
41.1562500000,5,-0.1181640998,,,
41.1718750000,5,0.1069336012,,,
41.1875000000,5,0.2786864936,,,
41.2031250000,5,0.4245604873,,,
41.2187500000,5,0.5753173828,,,
41.2343750000,5,0.7327880859,,,
41.2500000000,5,0.8621826172,,,
41.2656250000,5,0.9283447266,,,
41.2812500000,5,0.9114990234,,,
41.2968750000,5,0.8393555284,,,
41.3125000000,5,0.7602539063,,,
41.3281250000,5,0.7229003906,,,
41.3437500000,5,0.7265625000,,,
41.3593750000,5,0.7222899795,,,
41.3750000000,5,0.6240233779,,,
41.3906250000,5,0.3676758111,,,
41.4062500000,5,-0.0494384803,,,
41.4218750000,5,-0.5493164063,,,
41.4375000000,5,-0.9948729873,,,
41.4531250000,5,-1.2686769962,,,
41.4687500000,5,-1.3017580509,,,
41.4843750000,5,-1.1215820313,,,
41.5000000000,5,-0.8189697266,,,
41.5156250000,5,-0.5222167969,,,
41.5312500000,5,-0.3356933892,,,
41.5468750000,5,-0.2950438857,,,
41.5625000000,5,-0.3532715142,,,
41.5781250000,5,-0.4111328125,,,
41.5937500000,5,-0.3944092095,,,
41.6093750000,5,-0.2777099907,,,
41.6250000000,5,-0.1201172024,,,
41.6406250000,5,-0.0323486291,,,
41.6562500000,5,-0.0888671875,,,
41.6718750000,5,-0.2852782905,,,
41.6875000000,5,-0.5384520888,,,
41.7031250000,5,-0.7462158203,,,
41.7187500000,5,-0.8278809190,,,
41.7343750000,5,-0.7751464844,,,
41.7500000000,5,-0.6275634766,,,
41.7656250000,5,-0.4237061143,,,
41.7812500000,5,-0.1871338040,,,
41.7968750000,5,0.0841064528,,,
41.8125000000,5,0.3460693061,,,
41.8281250000,5,0.5186768174,,,
41.8437500000,5,0.5062255859,,,
41.8593750000,5,0.2758789063,,,
41.8750000000,5,-0.0791015625,,,
41.8906250000,5,-0.3670653999,,,
41.9062500000,5,-0.3820801079,,,
41.9218750000,5,-0.0456543006,,,
41.9375000000,5,0.5496826172,,,
41.9531250000,5,1.1531980038,,,
41.9687500000,5,1.4996340275,,,
41.9843750000,5,1.4561769962,,,
42.0000000000,5,1.0909420252,,,
42.0156250000,5,0.6250000000,,,
42.0312500000,5,0.2956542969,,,
42.0468750000,5,0.2255858928,,,
42.0625000000,5,0.3933104873,,,
42.0781250000,5,0.6632080078,,,
42.0937500000,5,0.8770751953,,,
42.1093750000,5,0.9354248047,,,
42.1250000000,5,0.8026123047,,,
42.1406250000,5,0.4948729873,,,
42.1562500000,5,0.0478515588,,,
42.1718750000,5,-0.4726563096,,,
42.1875000000,5,-0.9858397841,,,
42.2031250000,5,-1.4106450081,,,
42.2187500000,5,-1.6739499569,,,
42.2343750000,5,-1.7609859705,,,
42.2500000000,5,-1.6901860237,,,
42.2656250000,5,-1.5069580078,,,
42.2812500000,5,-1.2514649630,,,
42.2968750000,5,-0.9476317763,,,
42.3125000000,5,-0.6088867188,,,
42.3281250000,5,-0.2679443061,,,
42.3437500000,5,0.0100097703,,,
42.3593750000,5,0.1706542969,,,
42.3750000000,5,0.1759033054,,,
42.3906250000,5,0.0513916016,,,
42.4062500000,5,-0.1491699070,,,
42.4218750000,5,-0.3712157905,,,
42.4375000000,5,-0.5731201172,,,
42.4531250000,5,-0.7327880859,,,
42.4687500000,5,-0.8529052734,,,
42.4843750000,5,-0.9233397841,,,
42.5000000000,5,-0.9381104112,,,
42.5156250000,5,-0.8850098252,,,
42.5312500000,5,-0.7552490234,,,
42.5468750000,5,-0.5395507813,,,
42.5625000000,5,-0.2380370945,,,
42.5781250000,5,0.1337891072,,,
42.5937500000,5,0.5162354112,,,
42.6093750000,5,0.8255615234,,,
42.6250000000,5,0.9764404297,,,
42.6406250000,5,0.9407958984,,,
42.6562500000,5,0.7681884766,,,
42.6718750000,5,0.5650634766,,,
42.6875000000,5,0.4411621094,,,
42.7031250000,5,0.4388428032,,,
42.7187500000,5,0.5235595703,,,
42.7343750000,5,0.6008300781,,,
42.7500000000,5,0.5839843750,,,
42.7656250000,5,0.4482421875,,,
42.7812500000,5,0.2523193061,,,
42.7968750000,5,0.0720214769,,,
42.8125000000,5,-0.0240478497,,,
42.8281250000,5,-0.0285644494,,,
42.8437500000,5,0.0034179690,,,
42.8593750000,5,0.0137939500,,,
42.8750000000,5,-0.0294189509,,,
42.8906250000,5,-0.0899658203,,,
42.9062500000,5,-0.1220702976,,,
42.9218750000,5,-0.1010741964,,,
42.9375000000,5,-0.0650634766,,,
42.9531250000,5,-0.0698242188,,,
42.9687500000,5,-0.1525879055,,,
42.9843750000,5,-0.2692871094,,,
43.0000000000,5,-0.3128662109,,,
43.0156250000,5,-0.1824951023,,,
43.0312500000,5,0.1289062947,,,
43.0468750000,5,0.5327147841,,,
43.0625000000,5,0.8693848252,,,
43.0781250000,5,1.0308840275,,,
43.0937500000,5,1.0025629997,,,
43.1093750000,5,0.8742675781,,,
43.1250000000,5,0.7548828125,,,
43.1406250000,5,0.6887207031,,,
43.1562500000,5,0.6560059190,,,
43.1718750000,5,0.5960692763,,,
43.1875000000,5,0.4849854112,,,
43.2031250000,5,0.3485107124,,,
43.2187500000,5,0.2277832031,,,
43.2343750000,5,0.1589355022,,,
43.2500000000,5,0.1336670071,,,
43.2656250000,5,0.1113281026,,,
43.2812500000,5,0.0595703088,,,
43.2968750000,5,-0.0328369103,,,
43.3125000000,5,-0.1533202976,,,
43.3281250000,5,-0.2780762017,,,
43.3437500000,5,-0.3717041016,,,
43.3593750000,5,-0.4290770888,,,
43.3750000000,5,-0.4661864936,,,
43.3906250000,5,-0.5267333984,,,
43.4062500000,5,-0.6735839844,,,
43.4218750000,5,-0.9295654297,,,
43.4375000000,5,-1.2725830078,,,
43.4531250000,5,-1.6021729708,,,
43.4687500000,5,-1.7723389864,,,
43.4843750000,5,-1.6760250330,,,
43.5000000000,5,-1.2902829647,,,
43.5156250000,5,-0.7125244141,,,
43.5312500000,5,-0.1187743992,,,
43.5468750000,5,0.3358153999,,,
43.5625000000,5,0.5826416016,,,
43.5781250000,5,0.6715087891,,,
43.5937500000,5,0.6977539063,,,
43.6093750000,5,0.7510985732,,,
43.6250000000,5,0.8487548828,,,
43.6406250000,5,0.9279785156,,,
43.6562500000,5,0.9050292969,,,
43.6718750000,5,0.7219238281,,,
43.6875000000,5,0.3957520127,,,
43.7031250000,5,0.0139160203,,,
43.7187500000,5,-0.3028563857,,,
43.7343750000,5,-0.4587402046,,,
43.7500000000,5,-0.4166260064,,,
43.7656250000,5,-0.2109375000,,,
43.7812500000,5,0.0714111328,,,
43.7968750000,5,0.3553467095,,,
43.8125000000,5,0.5920410156,,,
43.8281250000,5,0.7783203125,,,
43.8437500000,5,0.9344481826,,,
43.8593750000,5,1.0792239904,,,
43.8750000000,5,1.2067869902,,,
43.8906250000,5,1.2974849939,,,
43.9062500000,5,1.3231199980,,,
43.9218750000,5,1.2526860237,,,
43.9375000000,5,1.0758060217,,,
43.9531250000,5,0.7996826172,,,
43.9687500000,5,0.4678955078,,,
43.9843750000,5,0.1292725056,,,
44.0000000000,5,-0.1622314006,,,
44.0156250000,5,-0.3944092095,,,
44.0312500000,5,-0.5874022841,,,
44.0468750000,5,-0.7617188096,,,
44.0625000000,5,-0.9251708984,,,
44.0781250000,5,-1.0189210176,,,
44.0937500000,5,-0.9886475205,,,
44.1093750000,5,-0.7910156250,,,
44.1250000000,5,-0.4560546875,,,
44.1406250000,5,-0.0843505934,,,
44.1562500000,5,0.2044678032,,,
44.1718750000,5,0.3122558892,,,
44.1875000000,5,0.2302245945,,,
44.2031250000,5,0.0051269531,,,
44.2187500000,5,-0.2758789063,,,
44.2343750000,5,-0.5446776748,,,
44.2500000000,5,-0.7817382813,,,
44.2656250000,5,-0.9989014268,,,
44.2812500000,5,-1.2026369572,,,
44.2968750000,5,-1.3702390194,,,
44.3125000000,5,-1.4637449980,,,
44.3281250000,5,-1.4515379667,,,
44.3437500000,5,-1.3333740234,,,
44.3593750000,5,-1.1472170353,,,
44.3750000000,5,-0.9516602159,,,
44.3906250000,5,-0.7864990234,,,
44.4062500000,5,-0.6557617188,,,
44.4218750000,5,-0.5412598252,,,
44.4375000000,5,-0.4099121094,,,
44.4531250000,5,-0.2419434041,,,
44.4687500000,5,-0.0372314490,,,
44.4843750000,5,0.1951903999,,,
44.5000000000,5,0.4478760064,,,
44.5156250000,5,0.7125244141,,,
44.5312500000,5,0.9686279297,,,
44.5468750000,5,1.1926269531,,,
44.5625000000,5,1.3370360136,,,
44.5781250000,5,1.3843990564,,,
44.5937500000,5,1.3265379667,,,
44.6093750000,5,1.2055660486,,,
44.6250000000,5,1.0662839413,,,
44.6406250000,5,0.9331055284,,,
44.6562500000,5,0.8028563857,,,
44.6718750000,5,0.6313477159,,,
44.6875000000,5,0.3880614936,,,
44.7031250000,5,0.0656738281,,,
44.7187500000,5,-0.3004150093,,,
44.7343750000,5,-0.6337891221,,,
44.7500000000,5,-0.8430175781,,,
44.7656250000,5,-0.8752440810,,,
44.7812500000,5,-0.7150878906,,,
44.7968750000,5,-0.4071044922,,,
44.8125000000,5,-0.0373535194,,,
44.8281250000,5,0.2824707031,,,
44.8437500000,5,0.4687500000,,,
44.8593750000,5,0.4707030952,,,
44.8750000000,5,0.2943114936,,,
44.8906250000,5,-0.0032958980,,,
44.9062500000,5,-0.3375244141,,,
44.9218750000,5,-0.6396483779,,,
44.9375000000,5,-0.8607177734,,,
44.9531250000,5,-0.9738770127,,,
44.9687500000,5,-0.9749755859,,,
44.9843750000,5,-0.8599854112,,,
45.0000000000,5,-0.6391602159,,,
45.0156250000,5,-0.3505859077,,,
45.0312500000,5,-0.0594482385,,,
45.0468750000,5,0.1459960938,,,
45.0625000000,5,0.2091064006,,,
45.0781250000,5,0.1151122972,,,
45.0937500000,5,-0.0863037109,,,
45.1093750000,5,-0.2923583984,,,
45.1250000000,5,-0.3850097954,,,
45.1406250000,5,-0.2906494141,,,
45.1562500000,5,0.0148925800,,,
45.1718750000,5,0.4794921875,,,
45.1875000000,5,0.9837645888,,,
45.2031250000,5,1.4097900391,,,
45.2187500000,5,1.6538089514,,,
45.2343750000,5,1.6729739904,,,
45.2500000000,5,1.4992680550,,,
45.2656250000,5,1.1907960176,,,
45.2812500000,5,0.8214110732,,,
45.2968750000,5,0.4481200874,,,
45.3125000000,5,0.1186522990,,,
45.3281250000,5,-0.1475829929,,,
45.3437500000,5,-0.3355712891,,,
45.3593750000,5,-0.4470215142,,,
45.3750000000,5,-0.5080565810,,,
45.3906250000,5,-0.5788574219,,,
45.4062500000,5,-0.7065430284,,,
45.4218750000,5,-0.8979492188,,,
45.4375000000,5,-1.0848389864,,,
45.4531250000,5,-1.1425780058,,,
45.4687500000,5,-0.9647216797,,,
45.4843750000,5,-0.5395507813,,,
45.5000000000,5,0.0423583984,,,
45.5156250000,5,0.6210938096,,,
45.5312500000,5,1.0631099939,,,
45.5468750000,5,1.3137209415,,,
45.5625000000,5,1.4024660587,,,
45.5781250000,5,1.3762209415,,,
45.5937500000,5,1.2459720373,,,
45.6093750000,5,0.9796143174,,,
45.6250000000,5,0.5473632813,,,
45.6406250000,5,-0.0200195294,,,
45.6562500000,5,-0.6221923828,,,
45.6718750000,5,-1.1258540154,,,
45.6875000000,5,-1.4581300020,,,
45.7031250000,5,-1.6131589413,,,
45.7187500000,5,-1.6594239473,,,
45.7343750000,5,-1.6605219841,,,
45.7500000000,5,-1.6094969511,,,
45.7656250000,5,-1.4477540255,,,
45.7812500000,5,-1.1063230038,,,
45.7968750000,5,-0.5983886719,,,
45.8125000000,5,-0.0231933594,,,
45.8281250000,5,0.4683837891,,,
45.8437500000,5,0.7598876953,,,
45.8593750000,5,0.8422852159,,,
45.8750000000,5,0.7955322266,,,
45.8906250000,5,0.7243651748,,,
45.9062500000,5,0.6754149795,,,
45.9218750000,5,0.6284180284,,,
45.9375000000,5,0.5061035156,,,
45.9531250000,5,0.2835693061,,,
45.9687500000,5,-0.0043945308,,,
45.9843750000,5,-0.2667236030,,,
46.0000000000,5,-0.4189453125,,,
46.0156250000,5,-0.4486083984,,,
46.0312500000,5,-0.4095458984,,,
46.0468750000,5,-0.3808594048,,,
46.0625000000,5,-0.4160155952,,,
46.0781250000,5,-0.4990234077,,,
46.0937500000,5,-0.5627440810,,,
46.1093750000,5,-0.5299072266,,,
46.1250000000,5,-0.3823241889,,,
46.1406250000,5,-0.1599120945,,,
46.1562500000,5,0.0544433594,,,
46.1718750000,5,0.1914062947,,,
46.1875000000,5,0.2393798977,,,
46.2031250000,5,0.2329102010,,,
46.2187500000,5,0.2207030952,,,
46.2343750000,5,0.2237548977,,,
46.2500000000,5,0.2308350056,,,
46.2656250000,5,0.1873778999,,,
46.2812500000,5,0.0634765625,,,
46.2968750000,5,-0.1331786960,,,
46.3125000000,5,-0.3563232124,,,
46.3281250000,5,-0.5333251953,,,
46.3437500000,5,-0.6136475205,,,
46.3593750000,5,-0.5997313857,,,
46.3750000000,5,-0.5273438096,,,
46.3906250000,5,-0.4473876953,,,
46.4062500000,5,-0.3924561143,,,
46.4218750000,5,-0.3360596001,,,
46.4375000000,5,-0.2386475056,,,
46.4531250000,5,-0.0539550819,,,
46.4687500000,5,0.2117920071,,,
46.4843750000,5,0.5172119141,,,
46.5000000000,5,0.8123779297,,,
46.5156250000,5,1.0528559685,,,
46.5312500000,5,1.2282710075,,,
46.5468750000,5,1.3421629667,,,
46.5625000000,5,1.3964840174,,,
46.5781250000,5,1.4003909826,,,
46.5937500000,5,1.3590090275,,,
46.6093750000,5,1.2891850471,,,
46.6250000000,5,1.1999510527,,,
46.6406250000,5,1.0906980038,,,
46.6562500000,5,0.9456787109,,,
46.6718750000,5,0.7204589844,,,
46.6875000000,5,0.3956299126,,,
46.7031250000,5,-0.0211181603,,,
46.7187500000,5,-0.4652099907,,,
46.7343750000,5,-0.8359375000,,,
46.7500000000,5,-1.0478520393,,,
46.7656250000,5,-1.0745849609,,,
46.7812500000,5,-0.9721680284,,,
46.7968750000,5,-0.8493651748,,,
46.8125000000,5,-0.8205565810,,,
46.8281250000,5,-0.9254149795,,,
46.8437500000,5,-1.1113280058,,,
46.8593750000,5,-1.2590329647,,,
46.8750000000,5,-1.2294919491,,,
46.8906250000,5,-0.9625244141,,,
46.9062500000,5,-0.5074462891,,,
46.9218750000,5,-0.0092773438,,,
46.9375000000,5,0.3637695014,,,
46.9531250000,5,0.5117188096,,,
46.9687500000,5,0.4550780952,,,
46.9843750000,5,0.3397217095,,,
47.0000000000,5,0.3309325874,,,
47.0156250000,5,0.5128173828,,,
47.0312500000,5,0.8450927734,,,
47.0468750000,5,1.1777340174,,,
47.0625000000,5,1.3422850370,,,
47.0781250000,5,1.2434079647,,,
47.0937500000,5,0.9088134766,,,
47.1093750000,5,0.4655762017,,,
47.1250000000,5,0.0638427734,,,
47.1406250000,5,-0.2152100056,,,
47.1562500000,5,-0.3591308892,,,
47.1718750000,5,-0.4340820014,,,
47.1875000000,5,-0.5015869141,,,
47.2031250000,5,-0.5894774795,,,
47.2187500000,5,-0.6735839844,,,
47.2343750000,5,-0.6879882813,,,
47.2500000000,5,-0.5852050781,,,
47.2656250000,5,-0.3604736030,,,
47.2812500000,5,-0.0770263672,,,
47.2968750000,5,0.1789550930,,,
47.3125000000,5,0.3094482124,,,
47.3281250000,5,0.2922362983,,,
47.3437500000,5,0.1542969048,,,
47.3593750000,5,-0.0219726600,,,
47.3750000000,5,-0.1375731975,,,
47.3906250000,5,-0.1551513970,,,
47.4062500000,5,-0.0970458984,,,
47.4218750000,5,-0.0424804688,,,
47.4375000000,5,-0.0588378906,,,
47.4531250000,5,-0.1727295071,,,
47.4687500000,5,-0.3691405952,,,
47.4843750000,5,-0.5954589844,,,
47.5000000000,5,-0.8033447266,,,
47.5156250000,5,-0.9705811143,,,
47.5312500000,5,-1.0755620003,,,
47.5468750000,5,-1.0975339413,,,
47.5625000000,5,-1.0079350471,,,
47.5781250000,5,-0.7938231826,,,
47.5937500000,5,-0.4986571968,,,
47.6093750000,5,-0.1987304986,,,
47.6250000000,5,0.0173339806,,,
47.6406250000,5,0.1004638970,,,
47.6562500000,5,0.0845947266,,,
47.6718750000,5,0.0588378906,,,
47.6875000000,5,0.1037598029,,,
47.7031250000,5,0.2302245945,,,
47.7187500000,5,0.3673096001,,,
47.7343750000,5,0.4025878906,,,
47.7500000000,5,0.2744140923,,,
47.7656250000,5,0.0089111328,,,
47.7812500000,5,-0.3033446968,,,
47.7968750000,5,-0.5554199219,,,
47.8125000000,5,-0.7166748047,,,
47.8281250000,5,-0.8151854873,,,
47.8437500000,5,-0.9248046875,,,
47.8593750000,5,-1.0855710506,,,
47.8750000000,5,-1.2691650391,,,
47.8906250000,5,-1.3981930017,,,
47.9062500000,5,-1.3924560547,,,
47.9218750000,5,-1.2403559685,,,
47.9375000000,5,-0.9948729873,,,
47.9531250000,5,-0.7166748047,,,
47.9687500000,5,-0.4373778999,,,
47.9843750000,5,-0.1333007962,,,
48.0000000000,6,0.2344971001,,,
48.0156250000,6,0.6586914063,,,
48.0312500000,6,1.0460209846,,,
48.0468750000,6,1.2642819881,,,
48.0625000000,6,1.2104489803,,,
48.0781250000,6,0.9000244141,,,
48.0937500000,6,0.4696044922,,,
48.1093750000,6,0.1236571968,,,
48.1250000000,6,0.0042724609,,,
48.1406250000,6,0.1268310994,,,
48.1562500000,6,0.3797607124,,,
48.1718750000,6,0.6099854112,,,
48.1875000000,6,0.7142333984,,,
48.2031250000,6,0.6898192763,,,
48.2187500000,6,0.6132813096,,,
48.2343750000,6,0.5521240234,,,
48.2500000000,6,0.5090332031,,,
48.2656250000,6,0.4229736030,,,
48.2812500000,6,0.2368164063,,,
48.2968750000,6,-0.0302734394,,,
48.3125000000,6,-0.2636719048,,,
48.3281250000,6,-0.3201903999,,,
48.3437500000,6,-0.1119384989,,,
48.3593750000,6,0.3198241889,,,
48.3750000000,6,0.8233643174,,,
48.3906250000,6,1.2145999670,,,
48.4062500000,6,1.3843990564,,,
48.4218750000,6,1.3604739904,,,
48.4375000000,6,1.2390140295,,,
48.4531250000,6,1.1271970272,,,
48.4687500000,6,1.0684809685,,,
48.4843750000,6,1.0257569551,,,
48.5000000000,6,0.9185791016,,,
48.5156250000,6,0.7169188857,,,
48.5312500000,6,0.4423828125,,,
48.5468750000,6,0.1804199070,,,
48.5625000000,6,-0.0069580078,,,
48.5781250000,6,-0.1185303032,,,
48.5937500000,6,-0.2163085938,,,
48.6093750000,6,-0.3697510064,,,
48.6250000000,6,-0.6126708984,,,
48.6406250000,6,-0.9136962891,,,
48.6562500000,6,-1.1781009436,,,
48.6718750000,6,-1.3237299919,,,
48.6875000000,6,-1.3223880529,,,
48.7031250000,6,-1.2114260197,,,
48.7187500000,6,-1.0827640295,,,
48.7343750000,6,-1.0093990564,,,
48.7500000000,6,-1.0111080408,,,
48.7656250000,6,-1.0317380428,,,
48.7812500000,6,-0.9919434190,,,
48.7968750000,6,-0.8409423828,,,
48.8125000000,6,-0.5842285156,,,
48.8281250000,6,-0.2982178032,,,
48.8437500000,6,-0.0693359375,,,
48.8593750000,6,0.0329589806,,,
48.8750000000,6,0.0101318397,,,
48.8906250000,6,-0.0622558594,,,
48.9062500000,6,-0.0977783203,,,
48.9218750000,6,-0.0089111328,,,
48.9375000000,6,0.2253417969,,,
48.9531250000,6,0.5551757813,,,
48.9687500000,6,0.8891602159,,,
48.9843750000,6,1.1426999569,,,
49.0000000000,6,1.2615970373,,,
49.0156250000,6,1.2431639433,,,
49.0312500000,6,1.1127929688,,,
49.0468750000,6,0.9221190810,,,
49.0625000000,6,0.7065430284,,,
49.0781250000,6,0.4989013970,,,
49.0937500000,6,0.3066405952,,,
49.1093750000,6,0.1339111030,,,
49.1250000000,6,-0.0205078106,,,
49.1406250000,6,-0.1495361030,,,
49.1562500000,6,-0.2202147990,,,
49.1718750000,6,-0.2044678032,,,
49.1875000000,6,-0.1010741964,,,
49.2031250000,6,0.0605468787,,,
49.2187500000,6,0.2033690959,,,
49.2343750000,6,0.2370605022,,,
49.2500000000,6,0.0855712891,,,
49.2656250000,6,-0.2608642876,,,
49.2812500000,6,-0.7346190810,,,
49.2968750000,6,-1.2268069983,,,
49.3125000000,6,-1.6134029627,,,
49.3281250000,6,-1.8093260527,,,
49.3437500000,6,-1.7924799919,,,
49.3593750000,6,-1.5920410156,,,
49.3750000000,6,-1.2854000330,,,
49.3906250000,6,-0.9477539063,,,
49.4062500000,6,-0.6357421875,,,
49.4218750000,6,-0.3649902046,,,
49.4375000000,6,-0.1175537035,,,
49.4531250000,6,0.1301269978,,,
49.4687500000,6,0.3765869141,,,
49.4843750000,6,0.6094970703,,,
49.5000000000,6,0.7968750000,,,
49.5156250000,6,0.9213867188,,,
49.5312500000,6,0.9859619141,,,
49.5468750000,6,1.0241700411,,,
49.5625000000,6,1.0500489473,,,
49.5781250000,6,1.0612790585,,,
49.5937500000,6,1.0270999670,,,
49.6093750000,6,0.9348145127,,,
49.6250000000,6,0.8004149795,,,
49.6406250000,6,0.6910399795,,,
49.6562500000,6,0.6948242188,,,
49.6718750000,6,0.8397216797,,,
49.6875000000,6,1.0541989803,,,
49.7031250000,6,1.1942139864,,,
49.7187500000,6,1.1269530058,,,
49.7343750000,6,0.8267822266,,,
49.7500000000,6,0.4099121094,,,
49.7656250000,6,0.0795898363,,,
49.7812500000,6,0.0108642597,,,
49.7968750000,6,0.2397460938,,,
49.8125000000,6,0.6441649795,,,
49.8281250000,6,1.0183110237,,,
49.8437500000,6,1.1685789824,,,
49.8593750000,6,1.0242919922,,,
49.8750000000,6,0.6505126953,,,
49.8906250000,6,0.1843262017,,,
49.9062500000,6,-0.2456054986,,,
49.9218750000,6,-0.5758057237,,,
49.9375000000,6,-0.8037108779,,,
49.9531250000,6,-0.9484863281,,,
49.9687500000,6,-1.0200200081,,,
49.9843750000,6,-0.9985352159,,,
50.0000000000,6,-0.8626708984,,,
50.0156250000,6,-0.6362305284,,,
50.0312500000,6,-0.4007568061,,,
50.0468750000,6,-0.2518311143,,,
50.0625000000,6,-0.2675780952,,,
50.0781250000,6,-0.4483642876,,,
50.0937500000,6,-0.7098389268,,,
50.1093750000,6,-0.9057617188,,,
50.1250000000,6,-0.9067382813,,,
50.1406250000,6,-0.6608886719,,,
50.1562500000,6,-0.2297362983,,,
50.1718750000,6,0.2460937947,,,
50.1875000000,6,0.6154785156,,,
50.2031250000,6,0.7900391221,,,
50.2187500000,6,0.7753906250,,,
50.2343750000,6,0.6386718750,,,
50.2500000000,6,0.4455566108,,,
50.2656250000,6,0.2048339993,,,
50.2812500000,6,-0.1286620945,,,
50.2968750000,6,-0.5869141221,,,
50.3125000000,6,-1.1571040154,,,
50.3281250000,6,-1.7321779728,,,
50.3437500000,6,-2.1557619572,,,
50.3593750000,6,-2.2917480469,,,
50.3750000000,6,-2.0744628906,,,
50.3906250000,6,-1.5528559685,,,
50.4062500000,6,-0.8770751953,,,
50.4218750000,6,-0.2271728963,,,
50.4375000000,6,0.2348632962,,,
50.4531250000,6,0.4195556939,,,
50.4687500000,6,0.3286133111,,,
50.4843750000,6,0.0457763709,,,
50.5000000000,6,-0.2954101861,,,
50.5156250000,6,-0.5461425781,,,
50.5312500000,6,-0.5997313857,,,
50.5468750000,6,-0.4145508111,,,
50.5625000000,6,-0.0264892597,,,
50.5781250000,6,0.4760741889,,,
50.5937500000,6,0.9757080078,,,
50.6093750000,6,1.3702390194,,,
50.6250000000,6,1.6110839844,,,
50.6406250000,6,1.6994630098,,,
50.6562500000,6,1.6730959415,,,
50.6718750000,6,1.5804439783,,,
50.6875000000,6,1.4396970272,,,
50.7031250000,6,1.2268069983,,,
50.7187500000,6,0.8988037109,,,
50.7343750000,6,0.4399414063,,,
50.7500000000,6,-0.0909423828,,,
50.7656250000,6,-0.5527343750,,,
50.7812500000,6,-0.7966309190,,,
50.7968750000,6,-0.7226563096,,,
50.8125000000,6,-0.3614501953,,,
50.8281250000,6,0.1447754055,,,
50.8437500000,6,0.5963134766,,,
50.8593750000,6,0.8306884766,,,
50.8750000000,6,0.7987061143,,,
50.8906250000,6,0.5740966797,,,
50.9062500000,6,0.2989501953,,,
50.9218750000,6,0.1075439006,,,
50.9375000000,6,0.0693359375,,,
50.9531250000,6,0.1657714993,,,
50.9687500000,6,0.3265380859,,,
50.9843750000,6,0.4763183892,,,
51.0000000000,6,0.5505371094,,,
51.0156250000,6,0.5217285156,,,
51.0312500000,6,0.3717041016,,,
51.0468750000,6,0.1105957031,,,
51.0625000000,6,-0.2135010064,,,
51.0781250000,6,-0.5072020888,,,
51.0937500000,6,-0.6480712891,,,
51.1093750000,6,-0.5537108779,,,
51.1250000000,6,-0.2147216946,,,
51.1406250000,6,0.2563476861,,,
51.1562500000,6,0.6700438857,,,
51.1718750000,6,0.8366699219,,,
51.1875000000,6,0.6644287109,,,
51.2031250000,6,0.2104492038,,,
51.2187500000,6,-0.3421630859,,,
51.2343750000,6,-0.7801514268,,,
51.2500000000,6,-0.9931641221,,,
51.2656250000,6,-0.9915770888,,,
51.2812500000,6,-0.9040526748,,,
51.2968750000,6,-0.8677979112,,,
51.3125000000,6,-0.9619141221,,,
51.3281250000,6,-1.1824949980,,,
51.3437500000,6,-1.4792480469,,,
51.3593750000,6,-1.8026119471,,,
51.3750000000,6,-2.1278080940,,,
51.3906250000,6,-2.4498291016,,,
51.4062500000,6,-2.7386469841,,,
51.4218750000,6,-2.9239499569,,,
51.4375000000,6,-2.8974609375,,,
51.4531250000,6,-2.5896000862,,,
51.4687500000,6,-2.0189208984,,,
51.4843750000,6,-1.3258060217,,,
51.5000000000,6,-0.7154541016,,,
51.5156250000,6,-0.3662109077,,,
51.5312500000,6,-0.3424071968,,,
51.5468750000,6,-0.5632324219,,,
51.5625000000,6,-0.8468018174,,,
51.5781250000,6,-0.9803466797,,,
51.5937500000,6,-0.8234863281,,,
51.6093750000,6,-0.3634032905,,,
51.6250000000,6,0.2883301079,,,
51.6406250000,6,0.9641113281,,,
51.6562500000,6,1.5065920353,,,
51.6718750000,6,1.8455810547,,,
51.6875000000,6,1.9915770292,,,
51.7031250000,6,2.0051269531,,,
51.7187500000,6,1.9571529627,,,
51.7343750000,6,1.9099119902,,,
51.7500000000,6,1.9000240564,,,
51.7656250000,6,1.9514160156,,,
51.7812500000,6,2.0439450741,,,
51.7968750000,6,2.1341550350,,,
51.8125000000,6,2.1743159294,,,
51.8281250000,6,2.1345210075,,,
51.8437500000,6,2.0325930119,,,
51.8593750000,6,1.9144289494,,,
51.8750000000,6,1.8256839514,,,
51.8906250000,6,1.7952879667,,,
51.9062500000,6,1.8062740564,,,
51.9218750000,6,1.8275150061,,,
51.9375000000,6,1.8297120333,,,
51.9531250000,6,1.8011469841,,,
51.9687500000,6,1.7559809685,,,
51.9843750000,6,1.7020260096,,,
52.0000000000,6,1.6345210075,,,
52.0156250000,6,1.5340579748,,,
52.0312500000,6,1.3752440214,,,
52.0468750000,6,1.1502690315,,,
52.0625000000,6,0.8406981826,,,
52.0781250000,6,0.4404296875,,,
52.0937500000,6,-0.0618896484,,,
52.1093750000,6,-0.6462401748,,,
52.1250000000,6,-1.2711180449,,,
52.1406250000,6,-1.8508299589,,,
52.1562500000,6,-2.3039550781,,,
52.1718750000,6,-2.5577390194,,,
52.1875000000,6,-2.5883789063,,,
52.2031250000,6,-2.4271240234,,,
52.2187500000,6,-2.1407470703,,,
52.2343750000,6,-1.8282469511,,,
52.2500000000,6,-1.5781250000,,,
52.2656250000,6,-1.4499510527,,,
52.2812500000,6,-1.4621579647,,,
52.2968750000,6,-1.5659179688,,,
52.3125000000,6,-1.6707760096,,,
52.3281250000,6,-1.6784670353,,,
52.3437500000,6,-1.5388180017,,,
52.3593750000,6,-1.2548830509,,,
52.3750000000,6,-0.9047852159,,,
52.3906250000,6,-0.5828856826,,,
52.4062500000,6,-0.3636474907,,,
52.4218750000,6,-0.2453612983,,,
52.4375000000,6,-0.1750487983,,,
52.4531250000,6,-0.0662841797,,,
52.4687500000,6,0.1328125000,,,
52.4843750000,6,0.4078369141,,,
52.5000000000,6,0.7080078125,,,
52.5156250000,6,0.9556884766,,,
52.5312500000,6,1.1214599609,,,
52.5468750000,6,1.2363280058,,,
52.5625000000,6,1.3645019531,,,
52.5781250000,6,1.5629880428,,,
52.5937500000,6,1.8105469942,,,
52.6093750000,6,2.0328369141,,,
52.6250000000,6,2.1304929256,,,
52.6406250000,6,2.0626220703,,,
52.6562500000,6,1.8642580509,,,
52.6718750000,6,1.6484379768,,,
52.6875000000,6,1.5170899630,,,
52.7031250000,6,1.4931639433,,,
52.7187500000,6,1.5043950081,,,
52.7343750000,6,1.4371340275,,,
52.7500000000,6,1.2197270393,,,
52.7656250000,6,0.8833007813,,,
52.7812500000,6,0.5115966797,,,
52.7968750000,6,0.1889647990,,,
52.8125000000,6,-0.0609130897,,,
52.8281250000,6,-0.2644042969,,,
52.8437500000,6,-0.4680176079,,,
52.8593750000,6,-0.6556395888,,,
52.8750000000,6,-0.7468261719,,,
52.8906250000,6,-0.6503906250,,,
52.9062500000,6,-0.3209229112,,,
52.9218750000,6,0.1860352010,,,
52.9375000000,6,0.7219238281,,,
52.9531250000,6,1.1217039824,,,
52.9687500000,6,1.2611080408,,,
52.9843750000,6,1.0891109705,,,
53.0000000000,6,0.6677246094,,,
53.0156250000,6,0.1054688022,,,
53.0312500000,6,-0.4724121094,,,
53.0468750000,6,-0.9588623047,,,
53.0625000000,6,-1.3022459745,,,
53.0781250000,6,-1.4887700081,,,
53.0937500000,6,-1.5576169491,,,
53.1093750000,6,-1.5534670353,,,
53.1250000000,6,-1.5286870003,,,
53.1406250000,6,-1.5114749670,,,
53.1562500000,6,-1.5278320313,,,
53.1718750000,6,-1.5952149630,,,
53.1875000000,6,-1.7077640295,,,
53.2031250000,6,-1.8316650391,,,
53.2187500000,6,-1.9080810547,,,
53.2343750000,6,-1.8669430017,,,
53.2500000000,6,-1.6868900061,,,
53.2656250000,6,-1.4063719511,,,
53.2812500000,6,-1.1330569983,,,
53.2968750000,6,-0.9670410156,,,
53.3125000000,6,-0.9499511719,,,
53.3281250000,6,-1.0391850471,,,
53.3437500000,6,-1.1390379667,,,
53.3593750000,6,-1.1525880098,,,
53.3750000000,6,-1.0355219841,,,
53.3906250000,6,-0.7943115234,,,
53.4062500000,6,-0.4606933892,,,
53.4218750000,6,-0.0812988281,,,
53.4375000000,6,0.3103027046,,,
53.4531250000,6,0.6606444716,,,
53.4687500000,6,0.9172363281,,,
53.4843750000,6,1.0296629667,,,
53.5000000000,6,0.9934082031,,,
53.5156250000,6,0.8298339844,,,
53.5312500000,6,0.5931395888,,,
53.5468750000,6,0.3393554986,,,
53.5625000000,6,0.0911865234,,,
53.5781250000,6,-0.1457519978,,,
53.5937500000,6,-0.3962402046,,,
53.6093750000,6,-0.6633300781,,,
53.6250000000,6,-0.9285889268,,,
53.6406250000,6,-1.1586910486,,,
53.6562500000,6,-1.3055419922,,,
53.6718750000,6,-1.3306879997,,,
53.6875000000,6,-1.2235109806,,,
53.7031250000,6,-1.0048830509,,,
53.7187500000,6,-0.7226563096,,,
53.7343750000,6,-0.4311523139,,,
53.7500000000,6,-0.1688231975,,,
53.7656250000,6,0.0504150391,,,
53.7812500000,6,0.2344971001,,,
53.7968750000,6,0.3948974907,,,
53.8125000000,6,0.5261229873,,,
53.8281250000,6,0.6312255859,,,
53.8437500000,6,0.6917725205,,,
53.8593750000,6,0.7073975205,,,
53.8750000000,6,0.6683350205,,,
53.8906250000,6,0.5654296875,,,
53.9062500000,6,0.3981933892,,,
53.9218750000,6,0.1870117038,,,
53.9375000000,6,-0.0126953097,,,
53.9531250000,6,-0.1351318061,,,
53.9687500000,6,-0.1301269978,,,
53.9843750000,6,-0.0006103516,,,
54.0000000000,6,0.2033690959,,,
54.0156250000,6,0.4017333984,,,
54.0312500000,6,0.5412598252,,,
54.0468750000,6,0.6101074219,,,
54.0625000000,6,0.6302490234,,,
54.0781250000,6,0.6275634766,,,
54.0937500000,6,0.6053466797,,,
54.1093750000,6,0.5328369141,,,
54.1250000000,6,0.3970946968,,,
54.1406250000,6,0.2141112983,,,
54.1562500000,6,0.0209960900,,,
54.1718750000,6,-0.1334228963,,,
54.1875000000,6,-0.2307129055,,,
54.2031250000,6,-0.2828369141,,,
54.2187500000,6,-0.3189696968,,,
54.2343750000,6,-0.3610840142,,,
54.2500000000,6,-0.4100342095,,,
54.2656250000,6,-0.4479979873,,,
54.2812500000,6,-0.4584960938,,,
54.2968750000,6,-0.4486083984,,,
54.3125000000,6,-0.4572753906,,,
54.3281250000,6,-0.5260009766,,,
54.3437500000,6,-0.6804199219,,,
54.3593750000,6,-0.9102783203,,,
54.3750000000,6,-1.1688230038,,,
54.3906250000,6,-1.3854980469,,,
54.4062500000,6,-1.4942630529,,,
54.4218750000,6,-1.4530030489,,,
54.4375000000,6,-1.2565920353,,,
54.4531250000,6,-0.9366455078,,,
54.4687500000,6,-0.5423583984,,,
54.4843750000,6,-0.1257324070,,,
54.5000000000,6,0.2606200874,,,
54.5156250000,6,0.5847167969,,,
54.5312500000,6,0.8178710938,,,
54.5468750000,6,0.9378662109,,,
54.5625000000,6,0.9278563857,,,
54.5781250000,6,0.7789307237,,,
54.5937500000,6,0.5225830078,,,
54.6093750000,6,0.2312012017,,,
54.6250000000,6,0.0101318397,,,
54.6406250000,6,-0.0234375000,,,
54.6562500000,6,0.1854248047,,,
54.6718750000,6,0.5917968750,,,
54.6875000000,6,1.0430910587,,,
54.7031250000,6,1.3502199650,,,
54.7187500000,6,1.3876949549,,,
54.7343750000,6,1.1645510197,,,
54.7500000000,6,0.8245850205,,,
54.7656250000,6,0.5609130859,,,
54.7812500000,6,0.5008544922,,,
54.7968750000,6,0.6279296875,,,
54.8125000000,6,0.8200684190,,,
54.8281250000,6,0.9114990234,,,
54.8437500000,6,0.8116455078,,,
54.8593750000,6,0.5413817763,,,
54.8750000000,6,0.2126464993,,,
54.8906250000,6,-0.0479736291,,,
54.9062500000,6,-0.1680908054,,,
54.9218750000,6,-0.1558838040,,,
54.9375000000,6,-0.0609130897,,,
54.9531250000,6,0.0583496094,,,
54.9687500000,6,0.1778564006,,,
54.9843750000,6,0.3006592095,,,
55.0000000000,6,0.4100342095,,,
55.0156250000,6,0.4593505859,,,
55.0312500000,6,0.3803710938,,,
55.0468750000,6,0.1333007962,,,
55.0625000000,6,-0.2498778999,,,
55.0781250000,6,-0.6571044922,,,
55.0937500000,6,-0.9312744141,,,
55.1093750000,6,-0.9450684190,,,
55.1250000000,6,-0.6846923828,,,
55.1406250000,6,-0.2449951023,,,
55.1562500000,6,0.2075195014,,,
55.1718750000,6,0.5222167969,,,
55.1875000000,6,0.6402587891,,,
55.2031250000,6,0.5925292969,,,
55.2187500000,6,0.4482421875,,,
55.2343750000,6,0.2513428032,,,
55.2500000000,6,-0.0035400391,,,
55.2656250000,6,-0.3425292969,,,
55.2812500000,6,-0.7355957031,,,
55.2968750000,6,-1.0936280489,,,
55.3125000000,6,-1.2817380428,,,
55.3281250000,6,-1.2272950411,,,
55.3437500000,6,-0.9722899795,,,
55.3593750000,6,-0.6998291016,,,
55.3750000000,6,-0.6215819716,,,
55.3906250000,6,-0.8505858779,,,
55.4062500000,6,-1.3416750431,,,
55.4218750000,6,-1.8856199980,,,
55.4375000000,6,-2.2476809025,,,
55.4531250000,6,-2.2862548828,,,
55.4687500000,6,-2.0280759335,,,
55.4843750000,6,-1.6212160587,,,
55.5000000000,6,-1.2235109806,,,
55.5156250000,6,-0.9094238281,,,
55.5312500000,6,-0.6376953125,,,
55.5468750000,6,-0.3071289063,,,
55.5625000000,6,0.1610106975,,,
55.5781250000,6,0.7656250000,,,
55.5937500000,6,1.4105219841,,,
55.6093750000,6,1.9622800350,,,
55.6250000000,6,2.3194580078,,,
55.6406250000,6,2.4354250431,,,
55.6562500000,6,2.3233640194,,,
55.6718750000,6,2.0180659294,,,
55.6875000000,6,1.5692139864,,,
55.7031250000,6,1.0488280058,,,
55.7187500000,6,0.5489501953,,,
55.7343750000,6,0.1693114936,,,
55.7500000000,6,-0.0220947303,,,
55.7656250000,6,-0.0157470703,,,
55.7812500000,6,0.1204833984,,,
55.7968750000,6,0.2871094048,,,
55.8125000000,6,0.4079590142,,,
55.8281250000,6,0.4555664063,,,
55.8437500000,6,0.4676513970,,,
55.8593750000,6,0.5063477159,,,
55.8750000000,6,0.6104735732,,,
55.8906250000,6,0.7651367188,,,
55.9062500000,6,0.9036865234,,,
55.9218750000,6,0.9477539063,,,
55.9375000000,6,0.8591309190,,,
55.9531250000,6,0.6535645127,,,
55.9687500000,6,0.3909912109,,,
55.9843750000,6,0.1263428032,,,
56.0000000000,7,-0.1181640998,,,
56.0156250000,7,-0.3406982124,,,
56.0312500000,7,-0.5292968750,,,
56.0468750000,7,-0.6622313857,,,
56.0625000000,7,-0.7290039063,,,
56.0781250000,7,-0.7353516221,,,
56.0937500000,7,-0.7164307237,,,
56.1093750000,7,-0.7081298828,,,
56.1250000000,7,-0.7091063857,,,
56.1406250000,7,-0.6804199219,,,
56.1562500000,7,-0.5728759766,,,
56.1718750000,7,-0.3776854873,,,
56.1875000000,7,-0.1444091946,,,
56.2031250000,7,0.0422363319,,,
