Time:64Hz,Epoch,Channel 1,Event Id,Event Date,Event Duration
0.0000000000,0,-0.6426392198,,,
0.0156250000,0,-0.6024169922,,,
0.0312500000,0,-0.6233521104,,,
0.0468750000,0,-0.6858521104,,,
0.0625000000,0,-0.7231444716,,,
0.0781250000,0,-0.6871337891,,,
0.0937500000,0,-0.5441284180,,,
0.1093750000,0,-0.3132323921,,,
0.1250000000,0,-0.0312500000,,,
0.1406250000,0,0.2575683892,,,
0.1562500000,0,0.5230103135,,,
0.1718750000,0,0.7306519151,,,
0.1875000000,0,0.8466796875,,,
0.2031250000,0,0.8271483779,,,
0.2187500000,0,0.6446533203,,,
0.2343750000,0,0.3295288086,,,
0.2500000000,0,-0.0487670898,,,
0.2656250000,0,-0.3953247070,,,
0.2812500000,0,-0.6257935166,,,
0.2968750000,0,-0.6995239258,,,
0.3125000000,0,-0.6392822266,,,
0.3281250000,0,-0.5070189834,,,
0.3437500000,0,-0.3735961914,,,
0.3593750000,0,-0.2994995117,,,
0.3750000000,0,-0.3109740913,,,
0.3906250000,0,-0.4136353135,,,
0.4062500000,0,-0.5981444716,,,
0.4218750000,0,-0.8347167969,,,
0.4375000000,0,-1.0791629553,,,
0.4531250000,0,-1.2827149630,,,
0.4687500000,0,-1.4190059900,,,
0.4843750000,0,-1.4711910486,,,
0.5000000000,0,-1.4470829964,,,
0.5156250000,0,-1.3597409725,,,
0.5312500000,0,-1.2070920467,,,
0.5468750000,0,-0.9914550781,,,
0.5625000000,0,-0.7265625000,,,
0.5781250000,0,-0.4526366889,,,
0.5937500000,0,-0.2221069038,,,
0.6093750000,0,-0.0911865234,,,
0.6250000000,0,-0.0734252930,,,
0.6406250000,0,-0.1484375000,,,
0.6562500000,0,-0.2395019978,,,
0.6718750000,0,-0.2467651069,,,
0.6875000000,0,-0.0869750977,,,
0.7031250000,0,0.2290039063,,,
0.7187500000,0,0.5909423828,,,
0.7343750000,0,0.8046265244,,,
0.7500000000,0,0.6914672852,,,
0.7656250000,0,0.1914673001,,,
0.7812500000,0,-0.5791625977,,,
0.7968750000,0,-1.3696899414,,,
0.8125000000,0,-1.9016109705,,,
0.8281250000,0,-2.0184330940,,,
0.8437500000,0,-1.7582399845,,,
0.8593750000,0,-1.3192750216,,,
0.8750000000,0,-0.9298095703,,,
0.8906250000,0,-0.7192993164,,,
0.9062500000,0,-0.6551514268,,,
0.9218750000,0,-0.5988770127,,,
0.9375000000,0,-0.4132690132,,,
0.9531250000,0,-0.0632934570,,,
0.9687500000,0,0.3591308892,,,
0.9843750000,0,0.7124022841,,,
1.0000000000,0,0.8979492188,,,
1.0156250000,0,0.9024658203,,,
1.0312500000,0,0.8019409180,,,
1.0468750000,0,0.6949462891,,,
1.0625000000,0,0.6464232802,,,
1.0781250000,0,0.6762084961,,,
1.0937500000,0,0.7507935166,,,
1.1093750000,0,0.8175048828,,,
1.1250000000,0,0.8350219727,,,
1.1406250000,0,0.7773438096,,,
1.1562500000,0,0.6497802734,,,
1.1718750000,0,0.4720458984,,,
1.1875000000,0,0.2875365913,,,
1.2031250000,0,0.1312256008,,,
1.2187500000,0,0.0289306603,,,
1.2343750000,0,-0.0345458984,,,
1.2500000000,0,-0.1030272990,,,
1.2656250000,0,-0.2277221978,,,
1.2812500000,0,-0.4264526069,,,
1.2968750000,0,-0.6980590820,,,
1.3125000000,0,-0.9828491211,,,
1.3281250000,0,-1.2036130428,,,
1.3437500000,0,-1.2767939568,,,
1.3593750000,0,-1.1508790255,,,
1.3750000000,0,-0.8234863281,,,
1.3906250000,0,-0.3607178032,,,
1.4062500000,0,0.1195679009,,,
1.4218750000,0,0.4857788086,,,
1.4375000000,0,0.6613159180,,,
1.4531250000,0,0.6531981826,,,
1.4687500000,0,0.5513306260,,,
1.4843750000,0,0.4685668945,,,
1.5000000000,0,0.4899291992,,,
1.5156250000,0,0.6242064834,,,
1.5312500000,0,0.8191527724,,,
1.5468750000,0,0.9976807237,,,
1.5625000000,0,1.1024780273,,,
1.5781250000,0,1.0966190100,,,
1.5937500000,0,0.9914550781,,,
1.6093750000,0,0.8140869141,,,
1.6250000000,0,0.6021729112,,,
1.6406250000,0,0.3868407905,,,
1.6562500000,0,0.1990355998,,,
1.6718750000,0,0.0693359375,,,
1.6875000000,0,0.0180053692,,,
1.7031250000,0,0.0568237305,,,
1.7187500000,0,0.1878661960,,,
1.7343750000,0,0.3871459961,,,
1.7500000000,0,0.6041870117,,,
1.7656250000,0,0.7608032227,,,
1.7812500000,0,0.7864990234,,,
1.7968750000,0,0.6256713867,,,
1.8125000000,0,0.2722167969,,,
1.8281250000,0,-0.2186278999,,,
1.8437500000,0,-0.7296143174,,,
1.8593750000,0,-1.1261600256,,,
1.8750000000,0,-1.2840579748,,,
1.8906250000,0,-1.1354370117,,,
1.9062500000,0,-0.6821898818,,,
1.9218750000,0,-0.0126953097,,,
1.9375000000,0,0.6999511719,,,
1.9531250000,0,1.2653199434,,,
1.9687500000,0,1.5200200081,,,
1.9843750000,0,1.4071660042,,,
2.0000000000,0,1.0187989473,,,
2.0156250000,0,0.5454711914,,,
2.0312500000,0,0.1815185994,,,
2.0468750000,0,0.0499877892,,,
2.0625000000,0,0.1522826999,,,
2.0781250000,0,0.3652344048,,,
2.0937500000,0,0.5518798828,,,
2.1093750000,0,0.6102294922,,,
2.1250000000,0,0.5625000000,,,
2.1406250000,0,0.5048217773,,,
2.1562500000,0,0.5322875977,,,
2.1718750000,0,0.6737670898,,,
2.1875000000,0,0.8422241211,,,
2.2031250000,0,0.8939818740,,,
2.2187500000,0,0.7161865234,,,
2.2343750000,0,0.3196411133,,,
2.2500000000,0,-0.1574096978,,,
2.2656250000,0,-0.5083007813,,,
2.2812500000,0,-0.5661010742,,,
2.2968750000,0,-0.2828369141,,,
2.3125000000,0,0.2426757962,,,
2.3281250000,0,0.8212891221,,,
2.3437500000,0,1.2565310001,,,
2.3593750000,0,1.4271240234,,,
2.3750000000,0,1.3262330294,,,
2.3906250000,0,1.0193480253,,,
2.4062500000,0,0.6080322266,,,
2.4218750000,0,0.1972046047,,,
2.4375000000,0,-0.1521605998,,,
2.4531250000,0,-0.3825072944,,,
2.4687500000,0,-0.4648438096,,,
2.4843750000,0,-0.3983153999,,,
2.5000000000,0,-0.2115478963,,,
2.5156250000,0,0.0462646484,,,
2.5312500000,0,0.2919312119,,,
2.5468750000,0,0.4423828125,,,
2.5625000000,0,0.4390869141,,,
2.5781250000,0,0.2627562881,,,
2.5937500000,0,-0.0378418006,,,
2.6093750000,0,-0.3828735054,,,
2.6250000000,0,-0.6544799805,,,
2.6406250000,0,-0.7552490234,,,
2.6562500000,0,-0.6522827148,,,
2.6718750000,0,-0.3859252930,,,
2.6875000000,0,-0.0549926795,,,
2.7031250000,0,0.2259521037,,,
2.7187500000,0,0.3695679009,,,
2.7343750000,0,0.3424071968,,,
2.7500000000,0,0.1702881008,,,
2.7656250000,0,-0.0755004883,,,
2.7812500000,0,-0.3087768853,,,
2.7968750000,0,-0.4546509087,,,
2.8125000000,0,-0.4815062881,,,
2.8281250000,0,-0.4101563096,,,
2.8437500000,0,-0.3005981147,,,
2.8593750000,0,-0.2446898967,,,
2.8750000000,0,-0.3038940132,,,
2.8906250000,0,-0.4932861030,,,
2.9062500000,0,-0.7499390244,,,
2.9218750000,0,-0.9694824219,,,
2.9375000000,0,-1.0502320528,,,
2.9531250000,0,-0.9783936143,,,
2.9687500000,0,-0.8245850205,,,
2.9843750000,0,-0.7247313857,,,
3.0000000000,0,-0.7959594727,,,
3.0156250000,0,-1.0434570313,,,
3.0312500000,0,-1.3619379997,,,
3.0468750000,0,-1.5915529728,,,
3.0625000000,0,-1.6181639433,,,
3.0781250000,0,-1.4421390295,,,
3.0937500000,0,-1.1761469841,,,
3.1093750000,0,-0.9579467773,,,
3.1250000000,0,-0.8690795898,,,
3.1406250000,0,-0.8876953125,,,
3.1562500000,0,-0.9210205078,,,
3.1718750000,0,-0.8746337891,,,
3.1875000000,0,-0.7070313096,,,
3.2031250000,0,-0.4608764946,,,
3.2187500000,0,-0.2063598931,,,
3.2343750000,0,-0.0142822303,,,
3.2500000000,0,0.0880737305,,,
3.2656250000,0,0.1179198995,,,
3.2812500000,0,0.1072387993,,,
3.2968750000,0,0.1015625000,,,
3.3125000000,0,0.1389160007,,,
3.3281250000,0,0.2299804986,,,
3.3437500000,0,0.3576659858,,,
3.3593750000,0,0.4739379883,,,
3.3750000000,0,0.5236206055,,,
3.3906250000,0,0.4702148139,,,
3.4062500000,0,0.3462524116,,,
3.4218750000,0,0.2359618992,,,
3.4375000000,0,0.2503662109,,,
3.4531250000,0,0.4064941108,,,
3.4687500000,0,0.6428223252,,,
3.4843750000,0,0.7929077148,,,
3.5000000000,0,0.7055664063,,,
3.5156250000,0,0.3269042969,,,
3.5312500000,0,-0.2468262017,,,
3.5468750000,0,-0.8236693740,,,
3.5625000000,0,-1.2153929472,,,
3.5781250000,0,-1.3278199434,,,
3.5937500000,0,-1.2167969942,,,
3.6093750000,0,-1.0186769962,,,
3.6250000000,0,-0.8724365234,,,
3.6406250000,0,-0.8189697266,,,
3.6562500000,0,-0.7965087891,,,
3.6718750000,0,-0.7020874023,,,
3.6875000000,0,-0.4759520888,,,
3.7031250000,0,-0.1548462063,,,
3.7187500000,0,0.1702881008,,,
3.7343750000,0,0.4107666016,,,
3.7500000000,0,0.5487670898,,,
3.7656250000,0,0.6639404297,,,
3.7812500000,0,0.8505249023,,,
3.7968750000,0,1.1394649744,,,
3.8125000000,0,1.4793089628,,,
3.8281250000,0,1.7615970373,,,
3.8437500000,0,1.8953249454,,,
3.8593750000,0,1.8804320097,,,
3.8750000000,0,1.7927249670,,,
3.8906250000,0,1.7177729607,,,
3.9062500000,0,1.6773680449,,,
3.9218750000,0,1.6037600040,,,
3.9375000000,0,1.3825069666,,,
3.9531250000,0,0.9337158203,,,
3.9687500000,0,0.2929688096,,,
3.9843750000,0,-0.4016723931,,,
4.0000000000,0,-0.9807128906,,,
4.0156250000,0,-1.3349610567,,,
4.0312500000,0,-1.4597779512,,,
4.0468750000,0,-1.4348139763,,,
4.0625000000,0,-1.3722529411,,,
4.0781250000,0,-1.3464970589,,,
4.0937500000,0,-1.3740229607,,,
4.1093750000,0,-1.4385989904,,,
4.1250000000,0,-1.5228879452,,,
4.1406250000,0,-1.6322629452,,,
4.1562500000,0,-1.7886960506,,,
4.1718750000,0,-2.0049440861,,,
4.1875000000,0,-2.2680659294,,,
4.2031250000,0,-2.5070800781,,,
4.2187500000,0,-2.6247560978,,,
4.2343750000,0,-2.5163569450,,,
4.2500000000,0,-2.1473391056,,,
4.2656250000,0,-1.5684809685,,,
4.2812500000,0,-0.9188231826,,,
4.2968750000,0,-0.3824462891,,,
4.3125000000,0,-0.1143188030,,,
4.3281250000,0,-0.1582642049,,,
4.3437500000,0,-0.4075928032,,,
4.3593750000,0,-0.6557617188,,,
4.3750000000,0,-0.6810302734,,,
4.3906250000,0,-0.3607178032,,,
4.4062500000,0,0.2669678032,,,
4.4218750000,0,1.0341190100,,,
4.4375000000,0,1.7293699980,,,
4.4531250000,0,2.2111821175,,,
4.4687500000,0,2.4512939453,,,
4.4843750000,0,2.5251460075,,,
4.5000000000,0,2.5465090275,,,
4.5156250000,0,2.5737919807,,,
4.5312500000,0,2.5711059570,,,
4.5468750000,0,2.4511721134,,,
4.5625000000,0,2.1354980469,,,
4.5781250000,0,1.6185909510,,,
4.5937500000,0,0.9831542969,,,
4.6093750000,0,0.3577880859,,,
4.6250000000,0,-0.1268310994,,,
4.6406250000,0,-0.4105224907,,,
4.6562500000,0,-0.5048217773,,,
4.6718750000,0,-0.4701538086,,,
4.6875000000,0,-0.3900757134,,,
4.7031250000,0,-0.3178100884,,,
4.7187500000,0,-0.2808837891,,,
4.7343750000,0,-0.2610473931,,,
4.7500000000,0,-0.2239989936,,,
4.7656250000,0,-0.1469116062,,,
4.7812500000,0,-0.0283813495,,,
4.7968750000,0,0.1148070991,,,
4.8125000000,0,0.2609252930,,,
4.8281250000,0,0.3904418945,,,
4.8437500000,0,0.5104370117,,,
4.8593750000,0,0.6210327148,,,
4.8750000000,0,0.7387694716,,,
4.8906250000,0,0.8733521104,,,
4.9062500000,0,1.0247189999,,,
4.9218750000,0,1.1775510311,,,
4.9375000000,0,1.2924799919,,,
4.9531250000,0,1.3079220057,,,
4.9687500000,0,1.1691889763,,,
4.9843750000,0,0.8419799805,,,
5.0000000000,0,0.3464966118,,,
5.0156250000,0,-0.2274170071,,,
5.0312500000,0,-0.7670288086,,,
5.0468750000,0,-1.1668089628,,,
5.0625000000,0,-1.3713380098,,,
5.0781250000,0,-1.3794560432,,,
5.0937500000,0,-1.2294919491,,,
5.1093750000,0,-0.9677124023,,,
5.1250000000,0,-0.6178588867,,,
5.1406250000,0,-0.2147216946,,,
5.1562500000,0,0.1854248047,,,
5.1718750000,0,0.4903563857,,,
5.1875000000,0,0.5874633789,,,
5.2031250000,0,0.4257202148,,,
5.2187500000,0,0.0498046912,,,
5.2343750000,0,-0.4031372070,,,
5.2500000000,0,-0.7410277724,,,
5.2656250000,0,-0.8284912109,,,
5.2812500000,0,-0.6372681260,,,
5.2968750000,0,-0.2736206055,,,
5.3125000000,0,0.1032714993,,,
5.3281250000,0,0.3435058892,,,
5.3437500000,0,0.3929443061,,,
5.3593750000,0,0.2921142876,,,
5.3750000000,0,0.1459960938,,,
5.3906250000,0,0.0493774414,,,
5.4062500000,0,0.0477294885,,,
5.4218750000,0,0.1337279975,,,
5.4375000000,0,0.2762450874,,,
5.4531250000,0,0.4414672852,,,
5.4687500000,0,0.6126099229,,,
5.4843750000,0,0.7783812881,,,
5.5000000000,0,0.9101563096,,,
5.5156250000,0,0.9685059190,,,
5.5312500000,0,0.9318848252,,,
5.5468750000,0,0.8122559190,,,
5.5625000000,0,0.6422119141,,,
5.5781250000,0,0.4647827148,,,
5.5937500000,0,0.3054809868,,,
5.6093750000,0,0.1680298001,,,
5.6250000000,0,0.0537109412,,,
5.6406250000,0,-0.0283203106,,,
5.6562500000,0,-0.0685424805,,,
5.6718750000,0,-0.0551757813,,,
5.6875000000,0,-0.0032958980,,,
5.7031250000,0,0.0609741211,,,
5.7187500000,0,0.1159667969,,,
5.7343750000,0,0.1349487007,,,
5.7500000000,0,0.1204833984,,,
5.7656250000,0,0.0810546875,,,
5.7812500000,0,0.0353393592,,,
5.7968750000,0,-0.0048217769,,,
5.8125000000,0,-0.0109863300,,,
5.8281250000,0,0.0427856408,,,
5.8437500000,0,0.1635131985,,,
5.8593750000,0,0.3286742866,,,
5.8750000000,0,0.4796752930,,,
5.8906250000,0,0.5549315810,,,
5.9062500000,0,0.5386353135,,,
5.9218750000,0,0.4755859077,,,
5.9375000000,0,0.4514771104,,,
5.9531250000,0,0.5092163086,,,
5.9687500000,0,0.6145629883,,,
5.9843750000,0,0.6684569716,,,
6.0000000000,0,0.5778198242,,,
6.0156250000,0,0.3280639946,,,
6.0312500000,0,0.0056762700,,,
6.0468750000,0,-0.2553710938,,,
6.0625000000,0,-0.3607788086,,,
6.0781250000,0,-0.3386841118,,,
6.0937500000,0,-0.3115845025,,,
6.1093750000,0,-0.4193725884,,,
6.1250000000,0,-0.7350463867,,,
6.1406250000,0,-1.2139890194,,,
6.1562500000,0,-1.7117309570,,,
6.1718750000,0,-2.0706789494,,,
6.1875000000,0,-2.1820070744,,,
6.2031250000,0,-2.0316770077,,,
6.2187500000,0,-1.6971440315,,,
6.2343750000,0,-1.3038940430,,,
6.2500000000,0,-0.9729614258,,,
6.2656250000,0,-0.7523803711,,,
6.2812500000,0,-0.6021729112,,,
6.2968750000,0,-0.4157103896,,,
6.3125000000,0,-0.0795898363,,,
6.3281250000,0,0.4351195991,,,
6.3437500000,0,1.0176390409,,,
6.3593750000,0,1.4537349939,,,
6.3750000000,0,1.5249019861,,,
6.3906250000,0,1.1387939453,,,
6.4062500000,0,0.4041748047,,,
6.4218750000,0,-0.4207763970,,,
6.4375000000,0,-1.0291140079,,,
6.4531250000,0,-1.2440190315,,,
6.4687500000,0,-1.0619510412,,,
6.4843750000,0,-0.6386107802,,,
6.5000000000,0,-0.1916504055,,,
6.5156250000,0,0.1326903999,,,
6.5312500000,0,0.2947998047,,,
6.5468750000,0,0.3533324897,,,
6.5625000000,0,0.3930664063,,,
6.5781250000,0,0.4618529975,,,
6.5937500000,0,0.5419921875,,,
6.6093750000,0,0.5778809190,,,
6.6250000000,0,0.5308228135,,,
6.6406250000,0,0.3834229112,,,
6.6562500000,0,0.1704102010,,,
6.6718750000,0,-0.0667724609,,,
6.6875000000,0,-0.2944335938,,,
6.7031250000,0,-0.4887084961,,,
6.7187500000,0,-0.6336060166,,,
6.7343750000,0,-0.7196044922,,,
6.7500000000,0,-0.7440795898,,,
6.7656250000,0,-0.7092896104,,,
6.7812500000,0,-0.6450194716,,,
6.7968750000,0,-0.5923461914,,,
6.8125000000,0,-0.5867310166,,,
6.8281250000,0,-0.6298217773,,,
6.8437500000,0,-0.6817017198,,,
6.8593750000,0,-0.6666259766,,,
6.8750000000,0,-0.5131226182,,,
6.8906250000,0,-0.1942138970,,,
6.9062500000,0,0.2481689006,,,
6.9218750000,0,0.7102050781,,,
6.9375000000,0,1.0566409826,,,
6.9531250000,0,1.1668699980,,,
6.9687500000,0,1.0164179802,,,
6.9843750000,0,0.6728516221,,,
7.0000000000,0,0.2702026069,,,
7.0156250000,0,-0.0474243201,,,
7.0312500000,0,-0.1936035007,,,
7.0468750000,0,-0.1683959961,,,
7.0625000000,0,-0.0546875000,,,
7.0781250000,0,0.0476684608,,,
7.0937500000,0,0.0691528320,,,
7.1093750000,0,0.0120239304,,,
7.1250000000,0,-0.0695190430,,,
7.1406250000,0,-0.1166991964,,,
7.1562500000,0,-0.1146240011,,,
7.1718750000,0,-0.0853271484,,,
7.1875000000,0,-0.0729980469,,,
7.2031250000,0,-0.1026611030,,,
7.2187500000,0,-0.1499022990,,,
7.2343750000,0,-0.1724853963,,,
7.2500000000,0,-0.1427001953,,,
7.2656250000,0,-0.0747070313,,,
7.2812500000,0,-0.0140380897,,,
7.2968750000,0,-0.0222778302,,,
7.3125000000,0,-0.1188353971,,,
7.3281250000,0,-0.2710570991,,,
7.3437500000,0,-0.4092406929,,,
7.3593750000,0,-0.4677734077,,,
7.3750000000,0,-0.4296264946,,,
7.3906250000,0,-0.3074341118,,,
7.4062500000,0,-0.1501464993,,,
7.4218750000,0,0.0291747991,,,
7.4375000000,0,0.2232666016,,,
7.4531250000,0,0.4019775093,,,
7.4687500000,0,0.5092163086,,,
7.4843750000,0,0.4724731147,,,
7.5000000000,0,0.2508544922,,,
7.5156250000,0,-0.1248778999,,,
7.5312500000,0,-0.5377808213,,,
7.5468750000,0,-0.8450927734,,,
7.5625000000,0,-0.9202880859,,,
7.5781250000,0,-0.7095336914,,,
7.5937500000,0,-0.2460326999,,,
7.6093750000,0,0.3809813857,,,
7.6250000000,0,1.0498050451,,,
7.6406250000,0,1.6315920353,,,
7.6562500000,0,1.9878540039,,,
7.6718750000,0,2.0053100586,,,
7.6875000000,0,1.6316529512,,,
7.7031250000,0,0.9304199219,,,
7.7187500000,0,0.0754394531,,,
7.7343750000,0,-0.7141113281,,,
7.7500000000,0,-1.2713010311,,,
7.7656250000,0,-1.5581049919,,,
7.7812500000,0,-1.6616820097,,,
7.7968750000,0,-1.7275999784,,,
7.8125000000,0,-1.8364870548,,,
7.8281250000,0,-1.9774780273,,,
7.8437500000,0,-2.0479741096,,,
7.8593750000,0,-1.9566040039,,,
7.8750000000,0,-1.6810909510,,,
7.8906250000,0,-1.2944949865,,,
7.9062500000,0,-0.9279785156,,,
7.9218750000,0,-0.6981812119,,,
7.9375000000,0,-0.6414185166,,,
7.9531250000,0,-0.7175292969,,,
7.9687500000,0,-0.8285521865,,,
7.9843750000,0,-0.8831787109,,,
8.0000000000,1,-0.8339843750,,,
8.0156250000,1,-0.6897583008,,,
8.0312500000,1,-0.4757690132,,,
8.0468750000,1,-0.2216186970,,,
8.0625000000,1,0.0459594689,,,
8.0781250000,1,0.3167113960,,,
8.0937500000,1,0.5723876953,,,
8.1093750000,1,0.7775269151,,,
8.1250000000,1,0.9041138291,,,
8.1406250000,1,0.9549561143,,,
8.1562500000,1,0.9683837891,,,
8.1718750000,1,0.9984741211,,,
8.1875000000,1,1.0745240450,,,
8.2031250000,1,1.1715090275,,,
8.2187500000,1,1.2297359705,,,
8.2343750000,1,1.1831669807,,,
8.2500000000,1,1.0209350586,,,
8.2656250000,1,0.7982788086,,,
8.2812500000,1,0.6039428711,,,
8.2968750000,1,0.4923706055,,,
8.3125000000,1,0.4519653022,,,
8.3281250000,1,0.4132690132,,,
8.3437500000,1,0.3053588867,,,
8.3593750000,1,0.1094359979,,,
8.3750000000,1,-0.1130980998,,,
8.3906250000,1,-0.2915039063,,,
8.4062500000,1,-0.3712768853,,,
8.4218750000,1,-0.3796997070,,,
8.4375000000,1,-0.3908691108,,,
8.4531250000,1,-0.4892578125,,,
8.4687500000,1,-0.6898192763,,,
8.4843750000,1,-0.9307250977,,,
8.5000000000,1,-1.0795290470,,,
8.5156250000,1,-1.0278320313,,,
8.5312500000,1,-0.7463378906,,,
8.5468750000,1,-0.3057250977,,,
8.5625000000,1,0.1222534031,,,
8.5781250000,1,0.3756104112,,,
8.5937500000,1,0.3662109077,,,
8.6093750000,1,0.1103515998,,,
8.6250000000,1,-0.2731933892,,,
8.6406250000,1,-0.6161499023,,,
8.6562500000,1,-0.7814940810,,,
8.6718750000,1,-0.6948853135,,,
8.6875000000,1,-0.3578490913,,,
8.7031250000,1,0.1726074070,,,
8.7187500000,1,0.8096312881,,,
8.7343750000,1,1.4439699650,,,
8.7500000000,1,1.9543459415,,,
8.7656250000,1,2.2202761173,,,
8.7812500000,1,2.1708979607,,,
8.7968750000,1,1.8153690100,,,
8.8125000000,1,1.2640990019,,,
8.8281250000,1,0.7203978896,,,
8.8437500000,1,0.3646239936,,,
8.8593750000,1,0.3043212891,,,
8.8750000000,1,0.5194091797,,,
8.8906250000,1,0.8712158203,,,
8.9062500000,1,1.1910400391,,,
8.9218750000,1,1.3555300236,,,
8.9375000000,1,1.3159179688,,,
8.9531250000,1,1.1124880314,,,
8.9687500000,1,0.8251953125,,,
8.9843750000,1,0.5310668945,,,
9.0000000000,1,0.2949219048,,,
9.0156250000,1,0.1537476033,,,
9.0312500000,1,0.1163330004,,,
9.0468750000,1,0.1883545071,,,
9.0625000000,1,0.3643187881,,,
9.0781250000,1,0.6380004883,,,
9.0937500000,1,1.0067750216,,,
9.1093750000,1,1.4354250431,,,
9.1250000000,1,1.8457640409,,,
9.1406250000,1,2.1314699650,,,
9.1562500000,1,2.1776120663,,,
9.1718750000,1,1.9277950525,,,
9.1875000000,1,1.4053339958,,,
9.2031250000,1,0.7169799805,,,
9.2187500000,1,0.0000610352,,,
9.2343750000,1,-0.6213989258,,,
9.2500000000,1,-1.0908809900,,,
9.2656250000,1,-1.4210820198,,,
9.2812500000,1,-1.6211550236,,,
9.2968750000,1,-1.6915279627,,,
9.3125000000,1,-1.6181030273,,,
9.3281250000,1,-1.4039310217,,,
9.3437500000,1,-1.1199339628,,,
9.3593750000,1,-0.8933715820,,,
9.3750000000,1,-0.8505858779,,,
9.3906250000,1,-1.0346070528,,,
9.4062500000,1,-1.3833620548,,,
9.4218750000,1,-1.7252810001,,,
9.4375000000,1,-1.8934329748,,,
9.4531250000,1,-1.7812500000,,,
9.4687500000,1,-1.3914179802,,,
9.4843750000,1,-0.8297119141,,,
9.5000000000,1,-0.2470093071,,,
9.5156250000,1,0.2192382962,,,
9.5312500000,1,0.4692992866,,,
9.5468750000,1,0.4782103896,,,
9.5625000000,1,0.2805176079,,,
9.5781250000,1,-0.0310058594,,,
9.5937500000,1,-0.3406982124,,,
9.6093750000,1,-0.5515747070,,,
9.6250000000,1,-0.6351928711,,,
9.6406250000,1,-0.6218261719,,,
9.6562500000,1,-0.5740966797,,,
9.6718750000,1,-0.5266113281,,,
9.6875000000,1,-0.4877319038,,,
9.7031250000,1,-0.4276733100,,,
9.7187500000,1,-0.3405151069,,,
9.7343750000,1,-0.2497559041,,,
9.7500000000,1,-0.1882324070,,,
9.7656250000,1,-0.1735839993,,,
9.7812500000,1,-0.1717528999,,,
9.7968750000,1,-0.1251221001,,,
9.8125000000,1,0.0099487295,,,
9.8281250000,1,0.2025146037,,,
9.8437500000,1,0.3892821968,,,
9.8593750000,1,0.4990234077,,,
9.8750000000,1,0.5320435166,,,
9.8906250000,1,0.5420532227,,,
9.9062500000,1,0.5915526748,,,
9.9218750000,1,0.6889647841,,,
9.9375000000,1,0.7544556260,,,
9.9531250000,1,0.6629027724,,,
9.9687500000,1,0.3244628906,,,
9.9843750000,1,-0.2318114936,,,
10.0000000000,1,-0.8513793945,,,
10.0156250000,1,-1.3007810116,,,
10.0312500000,1,-1.3850710392,,,
10.0468750000,1,-1.0231319666,,,
10.0625000000,1,-0.2969360054,,,
10.0781250000,1,0.5726317763,,,
10.0937500000,1,1.3113399744,,,
10.1093750000,1,1.7027590275,,,
10.1250000000,1,1.6768800020,,,
10.1406250000,1,1.3276979923,,,
10.1562500000,1,0.8505249023,,,
10.1718750000,1,0.4580078125,,,
10.1875000000,1,0.2540282905,,,
10.2031250000,1,0.2526245117,,,
10.2187500000,1,0.3707886040,,,
10.2343750000,1,0.5233765244,,,
10.2500000000,1,0.6528319716,,,
10.2656250000,1,0.7600098252,,,
10.2812500000,1,0.8589478135,,,
10.2968750000,1,0.9508666992,,,
10.3125000000,1,1.0100710392,,,
10.3281250000,1,0.9836425781,,,
10.3437500000,1,0.8315430284,,,
10.3593750000,1,0.5303344727,,,
10.3750000000,1,0.1288451999,,,
10.3906250000,1,-0.2966918945,,,
10.4062500000,1,-0.6597290039,,,
10.4218750000,1,-0.8999633789,,,
10.4375000000,1,-1.0094599724,,,
10.4531250000,1,-1.0056760311,,,
10.4687500000,1,-0.9370117188,,,
10.4843750000,1,-0.8480225205,,,
10.5000000000,1,-0.7823485732,,,
10.5156250000,1,-0.7580565810,,,
10.5312500000,1,-0.8048095703,,,
10.5468750000,1,-0.9506835938,,,
10.5625000000,1,-1.1896970272,,,
10.5781250000,1,-1.4816279411,,,
10.5937500000,1,-1.7330319881,,,
10.6093750000,1,-1.8489990234,,,
10.6250000000,1,-1.7627559900,,,
10.6406250000,1,-1.4920649529,,,
10.6562500000,1,-1.1254270077,,,
10.6718750000,1,-0.7725830078,,,
10.6875000000,1,-0.5197753906,,,
10.7031250000,1,-0.3756104112,,,
10.7187500000,1,-0.2946166992,,,
10.7343750000,1,-0.1965941936,,,
10.7500000000,1,-0.0324706994,,,
10.7656250000,1,0.2119750977,,,
10.7812500000,1,0.4857788086,,,
10.7968750000,1,0.7246704102,,,
10.8125000000,1,0.8621215820,,,
10.8281250000,1,0.8823242188,,,
10.8437500000,1,0.8272094727,,,
10.8593750000,1,0.7671508789,,,
10.8750000000,1,0.7681273818,,,
10.8906250000,1,0.8536986709,,,
10.9062500000,1,0.9866942763,,,
10.9218750000,1,1.0922850370,,,
10.9375000000,1,1.0987550020,,,
10.9531250000,1,0.9688720703,,,
10.9687500000,1,0.7333983779,,,
10.9843750000,1,0.4679565132,,,
11.0000000000,1,0.2509154975,,,
11.0156250000,1,0.1386107951,,,
11.0312500000,1,0.1148070991,,,
11.0468750000,1,0.1151733026,,,
11.0625000000,1,0.0628662109,,,
11.0781250000,1,-0.0639648363,,,
11.0937500000,1,-0.2098999023,,,
11.1093750000,1,-0.2908936143,,,
11.1250000000,1,-0.2453002930,,,
11.1406250000,1,-0.1040038988,,,
11.1562500000,1,0.0355834998,,,
11.1718750000,1,0.0486450195,,,
11.1875000000,1,-0.0963745117,,,
11.2031250000,1,-0.3352661133,,,
11.2187500000,1,-0.5184326172,,,
11.2343750000,1,-0.5174561143,,,
11.2500000000,1,-0.3035888970,,,
11.2656250000,1,0.0214233398,,,
11.2812500000,1,0.2812500000,,,
11.2968750000,1,0.3350830078,,,
11.3125000000,1,0.1411743015,,,
11.3281250000,1,-0.2111206055,,,
11.3437500000,1,-0.5708007813,,,
11.3593750000,1,-0.8072509766,,,
11.3750000000,1,-0.8851317763,,,
11.3906250000,1,-0.8583374023,,,
11.4062500000,1,-0.8333740234,,,
11.4218750000,1,-0.9097290039,,,
11.4375000000,1,-1.1146240234,,,
11.4531250000,1,-1.4188230038,,,
11.4687500000,1,-1.7359620333,,,
11.4843750000,1,-1.9750369787,,,
11.5000000000,1,-2.0700678825,,,
11.5156250000,1,-2.0028080940,,,
11.5312500000,1,-1.7924799919,,,
11.5468750000,1,-1.4610600471,,,
11.5625000000,1,-1.0343630314,,,
11.5781250000,1,-0.5515747070,,,
11.5937500000,1,-0.0704956129,,,
11.6093750000,1,0.3357543945,,,
11.6250000000,1,0.6051024795,,,
11.6406250000,1,0.7177733779,,,
11.6562500000,1,0.7109375000,,,
11.6718750000,1,0.6270751953,,,
11.6875000000,1,0.4952392876,,,
11.7031250000,1,0.3011474907,,,
11.7187500000,1,0.0213012695,,,
11.7343750000,1,-0.3297728896,,,
11.7500000000,1,-0.6845703125,,,
11.7656250000,1,-0.9497069716,,,
11.7812500000,1,-1.0406490564,,,
11.7968750000,1,-0.9478759766,,,
11.8125000000,1,-0.7387084961,,,
11.8281250000,1,-0.5080565810,,,
11.8437500000,1,-0.3202514946,,,
11.8593750000,1,-0.1824951023,,,
11.8750000000,1,-0.0509643592,,,
11.8906250000,1,0.1183471978,,,
11.9062500000,1,0.3198853135,,,
11.9218750000,1,0.4985961914,,,
11.9375000000,1,0.5891724229,,,
11.9531250000,1,0.5701904297,,,
11.9687500000,1,0.4871216118,,,
11.9843750000,1,0.4263305962,,,
12.0000000000,1,0.4555664063,,,
12.0156250000,1,0.5709838867,,,
12.0312500000,1,0.6931151748,,,
12.0468750000,1,0.7156981826,,,
12.0625000000,1,0.6085205078,,,
12.0781250000,1,0.4259032905,,,
12.0937500000,1,0.2789306939,,,
12.1093750000,1,0.2516478896,,,
12.1250000000,1,0.3262938857,,,
12.1406250000,1,0.3833008111,,,
12.1562500000,1,0.2998046875,,,
12.1718750000,1,0.0451049805,,,
12.1875000000,1,-0.2833251953,,,
12.2031250000,1,-0.4895629883,,,
12.2187500000,1,-0.4254761040,,,
12.2343750000,1,-0.0733032227,,,
12.2500000000,1,0.4266357124,,,
12.2656250000,1,0.8644409180,,,
12.2812500000,1,1.0848389864,,,
12.2968750000,1,1.0563349724,,,
12.3125000000,1,0.8618164063,,,
12.3281250000,1,0.6318358779,,,
12.3437500000,1,0.4688721001,,,
12.3593750000,1,0.3963623047,,,
12.3750000000,1,0.3726195991,,,
12.3906250000,1,0.3291015923,,,
12.4062500000,1,0.2179564983,,,
12.4218750000,1,0.0423583984,,,
12.4375000000,1,-0.1608887017,,,
12.4531250000,1,-0.3217773139,,,
12.4687500000,1,-0.3797607124,,,
12.4843750000,1,-0.2933959961,,,
12.5000000000,1,-0.0983886719,,,
12.5156250000,1,0.1350708008,,,
12.5312500000,1,0.3135986030,,,
12.5468750000,1,0.3437500000,,,
12.5625000000,1,0.2152100056,,,
12.5781250000,1,-0.0191650409,,,
12.5937500000,1,-0.2460937947,,,
12.6093750000,1,-0.3541260064,,,
12.6250000000,1,-0.2685546875,,,
12.6406250000,1,-0.0046386719,,,
12.6562500000,1,0.3510132134,,,
12.6718750000,1,0.6636962891,,,
12.6875000000,1,0.8112183213,,,
12.7031250000,1,0.7335814834,,,
12.7187500000,1,0.4709472954,,,
12.7343750000,1,0.1464232951,,,
12.7500000000,1,-0.1051635966,,,
12.7656250000,1,-0.1964111030,,,
12.7812500000,1,-0.1511840969,,,
12.7968750000,1,-0.0767822266,,,
12.8125000000,1,-0.1041869968,,,
12.8281250000,1,-0.2839966118,,,
12.8437500000,1,-0.5506591797,,,
12.8593750000,1,-0.7592772841,,,
12.8750000000,1,-0.7560424805,,,
12.8906250000,1,-0.4920043945,,,
12.9062500000,1,-0.0545043908,,,
12.9218750000,1,0.3789063096,,,
12.9375000000,1,0.6138916016,,,
12.9531250000,1,0.5575562119,,,
12.9687500000,1,0.2224120945,,,
12.9843750000,1,-0.2726440132,,,
13.0000000000,1,-0.7814940810,,,
13.0156250000,1,-1.1769410372,,,
13.0312500000,1,-1.3898930550,,,
13.0468750000,1,-1.3964229822,,,
13.0625000000,1,-1.2118530273,,,
13.0781250000,1,-0.8939818740,,,
13.0937500000,1,-0.5197753906,,,
13.1093750000,1,-0.1928101033,,,
13.1250000000,1,-0.0083007813,,,
13.1406250000,1,-0.0299072303,,,
13.1562500000,1,-0.2343139946,,,
13.1718750000,1,-0.5493773818,,,
13.1875000000,1,-0.8594359756,,,
13.2031250000,1,-1.0694580078,,,
13.2187500000,1,-1.1302490234,,,
13.2343750000,1,-1.0465699434,,,
13.2500000000,1,-0.8836669922,,,
13.2656250000,1,-0.6944580078,,,
13.2812500000,1,-0.5045775771,,,
13.2968750000,1,-0.3023070991,,,
13.3125000000,1,-0.0664672926,,,
13.3281250000,1,0.2229004055,,,
13.3437500000,1,0.5538939834,,,
13.3593750000,1,0.8609008789,,,
13.3750000000,1,1.0706789494,,,
13.3906250000,1,1.1333620548,,,
13.4062500000,1,1.0396729708,,,
13.4218750000,1,0.8298339844,,,
13.4375000000,1,0.5738524795,,,
13.4531250000,1,0.3530884087,,,
13.4687500000,1,0.2217406929,,,
13.4843750000,1,0.2001952976,,,
13.5000000000,1,0.2799071968,,,
13.5156250000,1,0.4163208008,,,
13.5312500000,1,0.5275878906,,,
13.5468750000,1,0.5507813096,,,
13.5625000000,1,0.4538573921,,,
13.5781250000,1,0.2705687881,,,
13.5937500000,1,0.0744628906,,,
13.6093750000,1,-0.0548095703,,,
13.6250000000,1,-0.0716552734,,,
13.6406250000,1,0.0039062500,,,
13.6562500000,1,0.1307982951,,,
13.6718750000,1,0.2747803032,,,
13.6875000000,1,0.4279175103,,,
13.7031250000,1,0.5919799805,,,
13.7187500000,1,0.7586669922,,,
13.7343750000,1,0.9005736709,,,
13.7500000000,1,0.9635009766,,,
13.7656250000,1,0.9114379883,,,
13.7812500000,1,0.7432250977,,,
13.7968750000,1,0.5131835938,,,
13.8125000000,1,0.2963866889,,,
13.8281250000,1,0.1736450046,,,
13.8437500000,1,0.2020263970,,,
13.8593750000,1,0.3760375977,,,
13.8750000000,1,0.6459351182,,,
13.8906250000,1,0.9434204102,,,
13.9062500000,1,1.2071529627,,,
13.9218750000,1,1.4054570198,,,
13.9375000000,1,1.5295410156,,,
13.9531250000,1,1.5800780058,,,
13.9687500000,1,1.5593260527,,,
13.9843750000,1,1.4714970589,,,
14.0000000000,1,1.3229980469,,,
14.0156250000,1,1.1426390409,,,
14.0312500000,1,0.9617919922,,,
14.0468750000,1,0.8052979112,,,
14.0625000000,1,0.6593627930,,,
14.0781250000,1,0.4908446968,,,
14.0937500000,1,0.2472534031,,,
14.1093750000,1,-0.0915527269,,,
14.1250000000,1,-0.4846191108,,,
14.1406250000,1,-0.8383178711,,,
14.1562500000,1,-1.0209350586,,,
14.1718750000,1,-0.9451293945,,,
14.1875000000,1,-0.6044312119,,,
14.2031250000,1,-0.1052246019,,,
14.2187500000,1,0.3777466118,,,
14.2343750000,1,0.6620482802,,,
14.2500000000,1,0.6173706055,,,
14.2656250000,1,0.2324219048,,,
14.2812500000,1,-0.3884887993,,,
14.2968750000,1,-1.0337519646,,,
14.3125000000,1,-1.4852290154,,,
14.3281250000,1,-1.5794680119,,,
14.3437500000,1,-1.2859499454,,,
14.3593750000,1,-0.7068480849,,,
14.3750000000,1,-0.0537109412,,,
14.3906250000,1,0.4383544922,,,
14.4062500000,1,0.5934448242,,,
14.4218750000,1,0.3775635064,,,
14.4375000000,1,-0.0902710035,,,
14.4531250000,1,-0.5687255859,,,
14.4687500000,1,-0.8111572266,,,
14.4843750000,1,-0.6851196289,,,
14.5000000000,1,-0.2440185994,,,
14.5156250000,1,0.3057250977,,,
14.5312500000,1,0.7133789063,,,
14.5468750000,1,0.8412476182,,,
14.5625000000,1,0.7133178711,,,
14.5781250000,1,0.5019531250,,,
14.5937500000,1,0.4003295898,,,
14.6093750000,1,0.5098876953,,,
14.6250000000,1,0.8064575195,,,
14.6406250000,1,1.1764529943,,,
14.6562500000,1,1.5231319666,,,
14.6718750000,1,1.7984620333,,,
14.6875000000,1,2.0193479061,,,
14.7031250000,1,2.1862180233,,,
14.7187500000,1,2.2515261173,,,
14.7343750000,1,2.1376340389,,,
14.7500000000,1,1.7868649960,,,
14.7656250000,1,1.2188110352,,,
14.7812500000,1,0.5505980849,,,
14.7968750000,1,-0.0561523400,,,
14.8125000000,1,-0.4785766900,,,
14.8281250000,1,-0.6661376953,,,
14.8437500000,1,-0.6500244141,,,
14.8593750000,1,-0.5060424805,,,
14.8750000000,1,-0.3132934868,,,
14.8906250000,1,-0.1394653022,,,
14.9062500000,1,-0.0364990197,,,
14.9218750000,1,-0.0393066406,,,
14.9375000000,1,-0.1788939983,,,
14.9531250000,1,-0.4530639946,,,
14.9687500000,1,-0.8075562119,,,
14.9843750000,1,-1.1489870548,,,
15.0000000000,1,-1.3813480139,,,
15.0156250000,1,-1.4508060217,,,
15.0312500000,1,-1.3740229607,,,
15.0468750000,1,-1.2416989803,,,
15.0625000000,1,-1.1544799805,,,
15.0781250000,1,-1.1701049805,,,
15.0937500000,1,-1.2623289824,,,
15.1093750000,1,-1.3500369787,,,
15.1250000000,1,-1.3309940100,,,
15.1406250000,1,-1.1471560001,,,
15.1562500000,1,-0.7988281250,,,
15.1718750000,1,-0.3343505859,,,
15.1875000000,1,0.1710814983,,,
15.2031250000,1,0.6474608779,,,
15.2187500000,1,1.0307010412,,,
15.2343750000,1,1.2603149414,,,
15.2500000000,1,1.2697139978,,,
15.2656250000,1,1.0172729492,,,
15.2812500000,1,0.5300292969,,,
15.2968750000,1,-0.0831909180,,,
15.3125000000,1,-0.6452636719,,,
15.3281250000,1,-0.9883422852,,,
15.3437500000,1,-1.0086059570,,,
15.3593750000,1,-0.7434082031,,,
15.3750000000,1,-0.3331908882,,,
15.3906250000,1,0.0275268592,,,
15.4062500000,1,0.1945189983,,,
15.4218750000,1,0.1281737983,,,
15.4375000000,1,-0.0938110426,,,
15.4531250000,1,-0.3395386040,,,
15.4687500000,1,-0.5070189834,,,
15.4843750000,1,-0.5701904297,,,
15.5000000000,1,-0.5838623047,,,
15.5156250000,1,-0.6323853135,,,
15.5312500000,1,-0.7365723252,,,
15.5468750000,1,-0.8309937119,,,
15.5625000000,1,-0.7951660156,,,
15.5781250000,1,-0.5377808213,,,
15.5937500000,1,-0.0727539137,,,
15.6093750000,1,0.4507445991,,,
15.6250000000,1,0.8455811143,,,
15.6406250000,1,0.9785156250,,,
15.6562500000,1,0.8486328125,,,
15.6718750000,1,0.5935668945,,,
15.6875000000,1,0.4010620117,,,
15.7031250000,1,0.4138183892,,,
15.7187500000,1,0.6580200195,,,
15.7343750000,1,1.0419919491,,,
15.7500000000,1,1.4036250114,,,
15.7656250000,1,1.5905150175,,,
15.7812500000,1,1.5148930550,,,
15.7968750000,1,1.1786500216,,,
15.8125000000,1,0.6748657227,,,
15.8281250000,1,0.1291504055,,,
15.8437500000,1,-0.3289184868,,,
15.8593750000,1,-0.6115723252,,,
15.8750000000,1,-0.7023314834,,,
15.8906250000,1,-0.6648560166,,,
15.9062500000,1,-0.5935059190,,,
15.9218750000,1,-0.5613402724,,,
15.9375000000,1,-0.5857543945,,,
15.9531250000,1,-0.6123657227,,,
15.9687500000,1,-0.5886840820,,,
15.9843750000,1,-0.5186768174,,,
16.0000000000,2,-0.4682007134,,,
16.0156250000,2,-0.5294799805,,,
16.0312500000,2,-0.7318115234,,,
16.0468750000,2,-0.9912719727,,,
16.0625000000,2,-1.1351319551,,,
16.0781250000,2,-1.0175169706,,,
16.0937500000,2,-0.5887451172,,,
16.1093750000,2,0.0213012695,,,
16.1250000000,2,0.5907592773,,,
16.1406250000,2,0.9201660156,,,
16.1562500000,2,0.9622802734,,,
16.1718750000,2,0.8276367188,,,
16.1875000000,2,0.7042235732,,,
16.2031250000,2,0.7151489258,,,
16.2187500000,2,0.8345947266,,,
16.2343750000,2,0.9135742188,,,
16.2500000000,2,0.7694702148,,,
16.2656250000,2,0.3491820991,,,
16.2812500000,2,-0.2391968071,,,
16.2968750000,2,-0.7728270888,,,
16.3125000000,2,-1.0152590275,,,
16.3281250000,2,-0.8547974229,,,
16.3437500000,2,-0.3471679986,,,
16.3593750000,2,0.3057250977,,,
16.3750000000,2,0.8511962891,,,
16.3906250000,2,1.0830080509,,,
16.4062500000,2,0.9260253906,,,
16.4218750000,2,0.4459838867,,,
16.4375000000,2,-0.2042236030,,,
16.4531250000,2,-0.8368530273,,,
16.4687500000,2,-1.3150629997,,,
16.4843750000,2,-1.5574949980,,,
16.5000000000,2,-1.5701899529,,,
16.5156250000,2,-1.3914179802,,,
16.5312500000,2,-1.0877079964,,,
16.5468750000,2,-0.7265625000,,,
16.5625000000,2,-0.3612670898,,,
16.5781250000,2,-0.0460815392,,,
16.5937500000,2,0.1835326999,,,
16.6093750000,2,0.2971802056,,,
16.6250000000,2,0.2855224907,,,
16.6406250000,2,0.1466064006,,,
16.6562500000,2,-0.0962524414,,,
16.6718750000,2,-0.4143066108,,,
16.6875000000,2,-0.7563477159,,,
16.7031250000,2,-1.0605469942,,,
16.7187500000,2,-1.2736819983,,,
16.7343750000,2,-1.3500369787,,,
16.7500000000,2,-1.3079830408,,,
16.7656250000,2,-1.1940310001,,,
16.7812500000,2,-1.0931400061,,,
16.7968750000,2,-1.0668950081,,,
16.8125000000,2,-1.1257929802,,,
16.8281250000,2,-1.2187500000,,,
16.8437500000,2,-1.2597659826,,,
16.8593750000,2,-1.1763919592,,,
16.8750000000,2,-0.9473876953,,,
16.8906250000,2,-0.6308593750,,,
16.9062500000,2,-0.3148804009,,,
16.9218750000,2,-0.0885620117,,,
16.9375000000,2,0.0128173800,,,
16.9531250000,2,-0.0057983398,,,
16.9687500000,2,-0.1040038988,,,
16.9843750000,2,-0.2174071968,,,
17.0000000000,2,-0.3055419922,,,
17.0156250000,2,-0.3243407905,,,
17.0312500000,2,-0.2432250977,,,
17.0468750000,2,-0.0271606408,,,
17.0625000000,2,0.3470458984,,,
17.0781250000,2,0.8706055284,,,
17.0937500000,2,1.4900510311,,,
17.1093750000,2,2.0964360237,,,
17.1250000000,2,2.5512080193,,,
17.1406250000,2,2.7389531136,,,
17.1562500000,2,2.6257929802,,,
17.1718750000,2,2.2672119141,,,
17.1875000000,2,1.7830200195,,,
17.2031250000,2,1.3012700081,,,
17.2187500000,2,0.9014282227,,,
17.2343750000,2,0.5886840820,,,
17.2500000000,2,0.3106079102,,,
17.2656250000,2,0.0130615197,,,
17.2812500000,2,-0.3068237007,,,
17.2968750000,2,-0.5900878906,,,
17.3125000000,2,-0.7760620117,,,
17.3281250000,2,-0.8381958008,,,
17.3437500000,2,-0.8332520127,,,
17.3593750000,2,-0.8706055284,,,
17.3750000000,2,-1.0283199549,,,
17.3906250000,2,-1.2869260311,,,
17.4062500000,2,-1.5171509981,,,
17.4218750000,2,-1.5479739904,,,
17.4375000000,2,-1.2523189783,,,
17.4531250000,2,-0.6403809190,,,
17.4687500000,2,0.1328735054,,,
17.4843750000,2,0.8311768174,,,
17.5000000000,2,1.2480469942,,,
17.5156250000,2,1.3093869686,,,
17.5312500000,2,1.0932010412,,,
17.5468750000,2,0.7686157227,,,
17.5625000000,2,0.5073853135,,,
17.5781250000,2,0.3926391900,,,
17.5937500000,2,0.3994140923,,,
17.6093750000,2,0.4514771104,,,
17.6250000000,2,0.4929198921,,,
17.6406250000,2,0.5283203125,,,
17.6562500000,2,0.6121826172,,,
17.6718750000,2,0.7838745117,,,
17.6875000000,2,0.9881591797,,,
17.7031250000,2,1.0726319551,,,
17.7187500000,2,0.8801879883,,,
17.7343750000,2,0.3518066108,,,
17.7500000000,2,-0.3950195014,,,
17.7656250000,2,-1.1263430119,,,
17.7812500000,2,-1.5942380428,,,
17.7968750000,2,-1.6751710176,,,
17.8125000000,2,-1.4190670252,,,
17.8281250000,2,-1.0088499784,,,
17.8437500000,2,-0.6390991211,,,
17.8593750000,2,-0.4147948921,,,
17.8750000000,2,-0.3372192085,,,
17.8906250000,2,-0.3410033882,,,
17.9062500000,2,-0.3847045898,,,
17.9218750000,2,-0.4541625977,,,
17.9375000000,2,-0.5715332031,,,
17.9531250000,2,-0.7183228135,,,
17.9687500000,2,-0.8287354112,,,
17.9843750000,2,-0.8140258789,,,
18.0000000000,2,-0.6311035156,,,
18.0156250000,2,-0.3055419922,,,
18.0312500000,2,0.0838622972,,,
18.0468750000,2,0.4335327148,,,
18.0625000000,2,0.6737061143,,,
18.0781250000,2,0.7756958008,,,
18.0937500000,2,0.7305297852,,,
18.1093750000,2,0.5411376953,,,
18.1250000000,2,0.2282714993,,,
18.1406250000,2,-0.1574096978,,,
18.1562500000,2,-0.5208740234,,,
18.1718750000,2,-0.7493286133,,,
18.1875000000,2,-0.7500000000,,,
18.2031250000,2,-0.4980469048,,,
18.2187500000,2,-0.0683593825,,,
18.2343750000,2,0.3907471001,,,
18.2500000000,2,0.7114868164,,,
18.2656250000,2,0.7757567763,,,
18.2812500000,2,0.5685424805,,,
18.2968750000,2,0.1872559041,,,
18.3125000000,2,-0.2010498047,,,
18.3281250000,2,-0.4405517876,,,
18.3437500000,2,-0.4571532905,,,
18.3593750000,2,-0.2694092095,,,
18.3750000000,2,0.0361938514,,,
18.3906250000,2,0.3700562119,,,
18.4062500000,2,0.6758422852,,,
18.4218750000,2,0.9517822266,,,
18.4375000000,2,1.2050169706,,,
18.4531250000,2,1.4164429903,,,
18.4687500000,2,1.5079350471,,,
18.4843750000,2,1.3893430233,,,
18.5000000000,2,1.0053100586,,,
18.5156250000,2,0.3931274116,,,
18.5312500000,2,-0.3161011040,,,
18.5468750000,2,-0.9367675781,,,
18.5625000000,2,-1.2994379997,,,
18.5781250000,2,-1.2988280058,,,
18.5937500000,2,-0.9479979873,,,
18.6093750000,2,-0.3578490913,,,
18.6250000000,2,0.2807616889,,,
18.6406250000,2,0.7712401748,,,
18.6562500000,2,0.9889525771,,,
18.6718750000,2,0.9146729112,,,
18.6875000000,2,0.6320800781,,,
18.7031250000,2,0.2913818061,,,
18.7187500000,2,0.0061035161,,,
18.7343750000,2,-0.1677245945,,,
18.7500000000,2,-0.2372436970,,,
18.7656250000,2,-0.2291260064,,,
18.7812500000,2,-0.1739501953,,,
18.7968750000,2,-0.0802002028,,,
18.8125000000,2,0.0346679688,,,
18.8281250000,2,0.1168823019,,,
18.8437500000,2,0.0982055664,,,
18.8593750000,2,-0.0656738281,,,
18.8750000000,2,-0.3428345025,,,
18.8906250000,2,-0.6195067763,,,
18.9062500000,2,-0.7503051758,,,
18.9218750000,2,-0.6539916992,,,
18.9375000000,2,-0.3620604873,,,
18.9531250000,2,-0.0090942383,,,
18.9687500000,2,0.2355957031,,,
18.9843750000,2,0.2572020888,,,
19.0000000000,2,0.0454711914,,,
19.0156250000,2,-0.3210448921,,,
19.0312500000,2,-0.7260131836,,,
19.0468750000,2,-1.0724489689,,,
19.0625000000,2,-1.3124389648,,,
19.0781250000,2,-1.4268800020,,,
19.0937500000,2,-1.4227290154,,,
19.1093750000,2,-1.3250730038,,,
19.1250000000,2,-1.1394040585,,,
19.1406250000,2,-0.9046021104,,,
19.1562500000,2,-0.6668090820,,,
19.1718750000,2,-0.4731445014,,,
19.1875000000,2,-0.3795776069,,,
19.2031250000,2,-0.3876343071,,,
19.2187500000,2,-0.4619140923,,,
19.2343750000,2,-0.5343018174,,,
19.2500000000,2,-0.5209960938,,,
19.2656250000,2,-0.3773193061,,,
19.2812500000,2,-0.1226195991,,,
19.2968750000,2,0.1752319038,,,
19.3125000000,2,0.4540404975,,,
19.3281250000,2,0.6809691787,,,
19.3437500000,2,0.8908690810,,,
19.3593750000,2,1.1465450525,,,
19.3750000000,2,1.4916989803,,,
19.3906250000,2,1.8903809786,,,
19.4062500000,2,2.2349851131,,,
19.4218750000,2,2.3846440315,,,
19.4375000000,2,2.2528688908,,,
19.4531250000,2,1.8663940430,,,
19.4687500000,2,1.3405760527,,,
19.4843750000,2,0.8389282227,,,
19.5000000000,2,0.4721679986,,,
19.5156250000,2,0.2571411133,,,
19.5312500000,2,0.1403197944,,,
19.5468750000,2,0.0169677697,,,
19.5625000000,2,-0.1750487983,,,
19.5781250000,2,-0.4380492866,,,
19.5937500000,2,-0.7022705078,,,
19.6093750000,2,-0.8919677734,,,
19.6250000000,2,-0.9303588867,,,
19.6406250000,2,-0.7945557237,,,
19.6562500000,2,-0.5161743164,,,
19.6718750000,2,-0.1697998047,,,
19.6875000000,2,0.1526488960,,,
19.7031250000,2,0.3866577148,,,
19.7187500000,2,0.5161743164,,,
19.7343750000,2,0.5322266221,,,
19.7500000000,2,0.4332275093,,,
19.7656250000,2,0.2048950046,,,
19.7812500000,2,-0.1389770955,,,
19.7968750000,2,-0.5459594727,,,
19.8125000000,2,-0.9005736709,,,
19.8281250000,2,-1.0828249454,,,
19.8437500000,2,-1.0260009766,,,
19.8593750000,2,-0.7829589844,,,
19.8750000000,2,-0.5115355849,,,
19.8906250000,2,-0.3963623047,,,
19.9062500000,2,-0.5243530273,,,
19.9218750000,2,-0.8178710938,,,
19.9375000000,2,-1.0883790255,,,
19.9531250000,2,-1.1239620447,,,
19.9687500000,2,-0.8310546875,,,
19.9843750000,2,-0.2718505859,,,
20.0000000000,2,0.3867797852,,,
20.0156250000,2,0.9547728896,,,
20.0312500000,2,1.3228149414,,,
20.0468750000,2,1.4628299475,,,
20.0625000000,2,1.4111939669,,,
20.0781250000,2,1.2113039494,,,
20.0937500000,2,0.9008789063,,,
20.1093750000,2,0.5153809190,,,
20.1250000000,2,0.0949096680,,,
20.1406250000,2,-0.2808228135,,,
20.1562500000,2,-0.5241088867,,,
20.1718750000,2,-0.5722045898,,,
20.1875000000,2,-0.4335938096,,,
20.2031250000,2,-0.1982422024,,,
20.2187500000,2,0.0149536096,,,
20.2343750000,2,0.0988769531,,,
20.2500000000,2,0.0155029297,,,
20.2656250000,2,-0.2127685994,,,
20.2812500000,2,-0.4935913086,,,
20.2968750000,2,-0.7378540039,,,
20.3125000000,2,-0.8627318740,,,
20.3281250000,2,-0.8416748047,,,
20.3437500000,2,-0.6903687119,,,
20.3593750000,2,-0.4504395127,,,
20.3750000000,2,-0.1838379055,,,
20.3906250000,2,0.0376586914,,,
20.4062500000,2,0.1486206055,,,
20.4218750000,2,0.1312866062,,,
20.4375000000,2,0.0202636700,,,
20.4531250000,2,-0.0838012695,,,
20.4687500000,2,-0.0503540002,,,
20.4843750000,2,0.1743773967,,,
20.5000000000,2,0.5245972276,,,
20.5156250000,2,0.8016356826,,,
20.5312500000,2,0.7916870117,,,
20.5468750000,2,0.3847655952,,,
20.5625000000,2,-0.3377074897,,,
20.5781250000,2,-1.1346440315,,,
20.5937500000,2,-1.7196040154,,,
20.6093750000,2,-1.9100949764,,,
20.6250000000,2,-1.7237550020,,,
20.6406250000,2,-1.3391720057,,,
20.6562500000,2,-0.9909667969,,,
20.6718750000,2,-0.8137816787,,,
20.6875000000,2,-0.7988892198,,,
20.7031250000,2,-0.8019409180,,,
20.7187500000,2,-0.6578978896,,,
20.7343750000,2,-0.2943725884,,,
20.7500000000,2,0.2313843071,,,
20.7656250000,2,0.7738037109,,,
20.7812500000,2,1.1910400391,,,
20.7968750000,2,1.4101560116,,,
20.8125000000,2,1.4729000330,,,
20.8281250000,2,1.4744869471,,,
20.8437500000,2,1.5044560432,,,
20.8593750000,2,1.5925899744,,,
20.8750000000,2,1.6997070313,,,
20.8906250000,2,1.7368160486,,,
20.9062500000,2,1.6234129667,,,
20.9218750000,2,1.3527829647,,,
20.9375000000,2,1.0027470589,,,
20.9531250000,2,0.6884155273,,,
20.9687500000,2,0.5061035156,,,
20.9843750000,2,0.4692992866,,,
21.0000000000,2,0.4899902046,,,
21.0156250000,2,0.4365845025,,,
21.0312500000,2,0.2039185017,,,
21.0468750000,2,-0.2038574070,,,
21.0625000000,2,-0.6751708984,,,
21.0781250000,2,-1.0642700195,,,
21.0937500000,2,-1.2932740450,,,
21.1093750000,2,-1.3876949549,,,
21.1250000000,2,-1.4420779943,,,
21.1406250000,2,-1.5455319881,,,
21.1562500000,2,-1.6798709631,,,
21.1718750000,2,-1.7300419807,,,
21.1875000000,2,-1.5789790154,,,
21.2031250000,2,-1.2139890194,,,
21.2187500000,2,-0.7509155273,,,
21.2343750000,2,-0.3915404975,,,
21.2500000000,2,-0.2857055962,,,
21.2656250000,2,-0.4555054009,,,
21.2812500000,2,-0.7883911133,,,
21.2968750000,2,-1.1232299805,,,
21.3125000000,2,-1.3500980139,,,
21.3281250000,2,-1.4408570528,,,
21.3437500000,2,-1.4193120003,,,
21.3593750000,2,-1.2948609591,,,
21.3750000000,2,-1.0338129997,,,
21.3906250000,2,-0.5934448242,,,
21.4062500000,2,0.0025024409,,,
21.4218750000,2,0.6239014268,,,
21.4375000000,2,1.0866700411,,,
21.4531250000,2,1.2566529512,,,
21.4687500000,2,1.1235350370,,,
21.4843750000,2,0.8111572266,,,
21.5000000000,2,0.5057982802,,,
21.5156250000,2,0.3593139946,,,
21.5312500000,2,0.4013062119,,,
21.5468750000,2,0.5671997070,,,
21.5625000000,2,0.7438353896,,,
21.5781250000,2,0.8564453125,,,
21.5937500000,2,0.8842772841,,,
21.6093750000,2,0.8574218750,,,
21.6250000000,2,0.8186035156,,,
21.6406250000,2,0.7833861709,,,
21.6562500000,2,0.7567749023,,,
21.6718750000,2,0.7420654297,,,
21.6875000000,2,0.7661132813,,,
21.7031250000,2,0.8190308213,,,
21.7187500000,2,0.8710938096,,,
21.7343750000,2,0.8441771865,,,
21.7500000000,2,0.6726685166,,,
21.7656250000,2,0.3511962891,,,
21.7812500000,2,-0.0663452074,,,
21.7968750000,2,-0.4798583984,,,
21.8125000000,2,-0.7853394151,,,
21.8281250000,2,-0.9287719727,,,
21.8437500000,2,-0.8906859756,,,
21.8593750000,2,-0.6715698242,,,
21.8750000000,2,-0.3037109077,,,
21.8906250000,2,0.1641235054,,,
21.9062500000,2,0.6607056260,,,
21.9218750000,2,1.0751340389,,,
21.9375000000,2,1.2869260311,,,
21.9531250000,2,1.2063599825,,,
21.9687500000,2,0.8310546875,,,
21.9843750000,2,0.2324828953,,,
22.0000000000,2,-0.4446411133,,,
22.0156250000,2,-1.0529170036,,,
22.0312500000,2,-1.4909670353,,,
22.0468750000,2,-1.7030639648,,,
22.0625000000,2,-1.6958620548,,,
22.0781250000,2,-1.4990839958,,,
22.0937500000,2,-1.1723630428,,,
22.1093750000,2,-0.7955322266,,,
22.1250000000,2,-0.4539184868,,,
22.1406250000,2,-0.1951293945,,,
22.1562500000,2,-0.0418701209,,,
22.1718750000,2,0.0275268592,,,
22.1875000000,2,0.0557251014,,,
22.2031250000,2,0.0745239332,,,
22.2187500000,2,0.1031493992,,,
22.2343750000,2,0.1472778022,,,
22.2500000000,2,0.1994019002,,,
22.2656250000,2,0.2673949897,,,
22.2812500000,2,0.3412475884,,,
22.2968750000,2,0.4047851861,,,
22.3125000000,2,0.4353027046,,,
22.3281250000,2,0.3943481147,,,
22.3437500000,2,0.2528075874,,,
22.3593750000,2,0.0213622991,,,
22.3750000000,2,-0.2664184868,,,
22.3906250000,2,-0.5689086914,,,
22.4062500000,2,-0.8448485732,,,
22.4218750000,2,-1.0821529627,,,
22.4375000000,2,-1.2822879553,,,
22.4531250000,2,-1.4353029728,,,
22.4687500000,2,-1.4961550236,,,
22.4843750000,2,-1.4073489904,,,
22.5000000000,2,-1.1283570528,,,
22.5156250000,2,-0.6822509766,,,
22.5312500000,2,-0.1601562947,,,
22.5468750000,2,0.3003540039,,,
22.5625000000,2,0.5713500977,,,
22.5781250000,2,0.5957642198,,,
22.5937500000,2,0.4068604112,,,
22.6093750000,2,0.1154175028,,,
22.6250000000,2,-0.1436156929,,,
22.6406250000,2,-0.2675780952,,,
22.6562500000,2,-0.2099608928,,,
22.6718750000,2,0.0150756799,,,
22.6875000000,2,0.3577271104,,,
22.7031250000,2,0.7487792969,,,
22.7187500000,2,1.1184689999,,,
22.7343750000,2,1.3830569983,,,
22.7500000000,2,1.4636839628,,,
22.7656250000,2,1.3184200525,,,
22.7812500000,2,0.9590454102,,,
22.7968750000,2,0.4714966118,,,
22.8125000000,2,-0.0163574200,,,
22.8281250000,2,-0.3752441108,,,
22.8437500000,2,-0.5639038086,,,
22.8593750000,2,-0.6177368164,,,
22.8750000000,2,-0.6340941787,,,
22.8906250000,2,-0.7027587891,,,
22.9062500000,2,-0.8453978896,,,
22.9218750000,2,-1.0101319551,,,
22.9375000000,2,-1.1184689999,,,
22.9531250000,2,-1.1328740120,,,
22.9687500000,2,-1.0850219727,,,
22.9843750000,2,-1.0667109489,,,
23.0000000000,2,-1.1583249569,,,
23.0156250000,2,-1.3546140194,,,
23.0312500000,2,-1.5494379997,,,
23.0468750000,2,-1.5797729492,,,
23.0625000000,2,-1.3231199980,,,
23.0781250000,2,-0.7414550781,,,
23.0937500000,2,0.0891113281,,,
23.1093750000,2,1.0200810432,,,
23.1250000000,2,1.9011230469,,,
23.1406250000,2,2.5843510628,,,
23.1562500000,2,2.9840090275,,,
23.1718750000,2,3.0588989258,,,
23.1875000000,2,2.8453979492,,,
23.2031250000,2,2.4279170036,,,
23.2187500000,2,1.9340820313,,,
23.2343750000,2,1.4711300135,,,
23.2500000000,2,1.1029659510,,,
23.2656250000,2,0.8336791992,,,
23.2812500000,2,0.6298828125,,,
23.2968750000,2,0.4523315132,,,
23.3125000000,2,0.2787475884,,,
23.3281250000,2,0.1149901971,,,
23.3437500000,2,-0.0552368201,,,
23.3593750000,2,-0.2620849907,,,
23.3750000000,2,-0.5568236709,,,
23.3906250000,2,-0.9228516221,,,
23.4062500000,2,-1.2670290470,,,
23.4218750000,2,-1.4248659611,,,
23.4375000000,2,-1.2564699650,,,
23.4531250000,2,-0.7608643174,,,
23.4687500000,2,-0.0915527269,,,
23.4843750000,2,0.5073853135,,,
23.5000000000,2,0.8079224229,,,
23.5156250000,2,0.7323607802,,,
23.5312500000,2,0.3494262993,,,
23.5468750000,2,-0.1611327976,,,
23.5625000000,2,-0.6351928711,,,
23.5781250000,2,-0.9835814834,,,
23.5937500000,2,-1.2039179802,,,
23.6093750000,2,-1.3291629553,,,
23.6250000000,2,-1.3666379452,,,
23.6406250000,2,-1.3030400276,,,
23.6562500000,2,-1.1195679903,,,
23.6718750000,2,-0.8570557237,,,
23.6875000000,2,-0.5896605849,,,
23.7031250000,2,-0.4115600884,,,
23.7187500000,2,-0.3469237983,,,
23.7343750000,2,-0.3522948921,,,
23.7500000000,2,-0.3297119141,,,
23.7656250000,2,-0.2034911960,,,
23.7812500000,2,0.0241699200,,,
23.7968750000,2,0.2648315132,,,
23.8125000000,2,0.3939208984,,,
23.8281250000,2,0.3374634087,,,
23.8437500000,2,0.0938110426,,,
23.8593750000,2,-0.2532958984,,,
23.8750000000,2,-0.5863037109,,,
23.8906250000,2,-0.8029785156,,,
23.9062500000,2,-0.8613892198,,,
23.9218750000,2,-0.7755736709,,,
23.9375000000,2,-0.5856934190,,,
23.9531250000,2,-0.3509520888,,,
23.9687500000,2,-0.1175537035,,,
23.9843750000,2,0.0861206129,,,
24.0000000000,3,0.2373656929,,,
24.0156250000,3,0.3364867866,,,
24.0312500000,3,0.3851929009,,,
24.0468750000,3,0.3987427056,,,
24.0625000000,3,0.3922119141,,,
24.0781250000,3,0.3558959961,,,
24.0937500000,3,0.2672119141,,,
24.1093750000,3,0.1141356975,,,
24.1250000000,3,-0.0812988281,,,
24.1406250000,3,-0.2559813857,,,
24.1562500000,3,-0.3175049126,,,
24.1718750000,3,-0.2017212063,,,
24.1875000000,3,0.1072997972,,,
24.2031250000,3,0.5451660156,,,
24.2187500000,3,1.0046999454,,,
24.2343750000,3,1.3552249670,,,
24.2500000000,3,1.5179439783,,,
24.2656250000,3,1.4748539925,,,
24.2812500000,3,1.2832030058,,,
24.2968750000,3,1.0117189884,,,
24.3125000000,3,0.7056273818,,,
24.3281250000,3,0.3811646104,,,
24.3437500000,3,0.0195312500,,,
24.3593750000,3,-0.3906250000,,,
24.3750000000,3,-0.8209229112,,,
24.3906250000,3,-1.2070310116,,,
24.4062500000,3,-1.4588010311,,,
24.4218750000,3,-1.5039670467,,,
24.4375000000,3,-1.3189090490,,,
24.4531250000,3,-0.9566649795,,,
24.4687500000,3,-0.5187988281,,,
24.4843750000,3,-0.1180419996,,,
24.5000000000,3,0.1610718071,,,
24.5156250000,3,0.3114013970,,,
24.5312500000,3,0.3718872070,,,
24.5468750000,3,0.4146729112,,,
24.5625000000,3,0.4908446968,,,
24.5781250000,3,0.5978394151,,,
24.5937500000,3,0.6951293945,,,
24.6093750000,3,0.7373046875,,,
24.6250000000,3,0.7063599229,,,
24.6406250000,3,0.6351317763,,,
24.6562500000,3,0.5725098252,,,
24.6718750000,3,0.5695189834,,,
24.6875000000,3,0.6320800781,,,
24.7031250000,3,0.7310181260,,,
24.7187500000,3,0.8327636719,,,
24.7343750000,3,0.9000244141,,,
24.7500000000,3,0.9259033203,,,
24.7656250000,3,0.8778687119,,,
24.7812500000,3,0.7326660156,,,
24.7968750000,3,0.4641723931,,,
24.8125000000,3,0.0929565430,,,
24.8281250000,3,-0.2959595025,,,
24.8437500000,3,-0.5798339844,,,
24.8593750000,3,-0.6703491211,,,
24.8750000000,3,-0.5728759766,,,
24.8906250000,3,-0.3818970025,,,
24.9062500000,3,-0.2396239936,,,
24.9218750000,3,-0.2343750000,,,
24.9375000000,3,-0.3564453125,,,
24.9531250000,3,-0.5074462891,,,
24.9687500000,3,-0.5786743164,,,
24.9843750000,3,-0.5133057237,,,
25.0000000000,3,-0.3555297852,,,
25.0156250000,3,-0.2045897990,,,
25.0312500000,3,-0.1488647014,,,
25.0468750000,3,-0.2296752930,,,
25.0625000000,3,-0.4263916016,,,
25.0781250000,3,-0.6841431260,,,
25.0937500000,3,-0.9453125000,,,
25.1093750000,3,-1.1406860352,,,
25.1250000000,3,-1.1986080408,,,
25.1406250000,3,-1.0446170568,,,
25.1562500000,3,-0.6774901748,,,
25.1718750000,3,-0.1722411960,,,
25.1875000000,3,0.3072510064,,,
25.2031250000,3,0.5939940810,,,
25.2187500000,3,0.6069335938,,,
25.2343750000,3,0.3952026069,,,
25.2500000000,3,0.1220092997,,,
25.2656250000,3,-0.0461425819,,,
25.2812500000,3,-0.0067749019,,,
25.2968750000,3,0.2161255032,,,
25.3125000000,3,0.5186157227,,,
25.3281250000,3,0.7720336914,,,
25.3437500000,3,0.8951416016,,,
25.3593750000,3,0.8702393174,,,
25.3750000000,3,0.7313231826,,,
25.3906250000,3,0.5336303711,,,
25.4062500000,3,0.3195190132,,,
25.4218750000,3,0.1147461012,,,
25.4375000000,3,-0.0706787109,,,
25.4531250000,3,-0.2238159031,,,
25.4687500000,3,-0.3233642876,,,
25.4843750000,3,-0.3244018853,,,
25.5000000000,3,-0.1638184041,,,
25.5156250000,3,0.1838988960,,,
25.5312500000,3,0.6941527724,,,
25.5468750000,3,1.2645870447,,,
25.5625000000,3,1.7243039608,,,
25.5781250000,3,1.9168089628,,,
25.5937500000,3,1.7725219727,,,
25.6093750000,3,1.3692630529,,,
25.6250000000,3,0.8905029297,,,
25.6406250000,3,0.5632324219,,,
25.6562500000,3,0.5132446289,,,
25.6718750000,3,0.7208251953,,,
25.6875000000,3,1.0264279842,,,
25.7031250000,3,1.2387700081,,,
25.7187500000,3,1.2206419706,,,
25.7343750000,3,0.9692382813,,,
25.7500000000,3,0.5942382813,,,
25.7656250000,3,0.2312622070,,,
25.7812500000,3,-0.0219116192,,,
25.7968750000,3,-0.1562500000,,,
25.8125000000,3,-0.2420043945,,,
25.8281250000,3,-0.3596191108,,,
25.8437500000,3,-0.5647583008,,,
25.8593750000,3,-0.8573607802,,,
25.8750000000,3,-1.1837769747,,,
25.8906250000,3,-1.4708859921,,,
25.9062500000,3,-1.6571040154,,,
25.9218750000,3,-1.7036130428,,,
25.9375000000,3,-1.5931400061,,,
25.9531250000,3,-1.3394169807,,,
25.9687500000,3,-0.9602050781,,,
25.9843750000,3,-0.4956665039,,,
26.0000000000,3,0.0244750995,,,
26.0156250000,3,0.5655518174,,,
26.0312500000,3,1.0892330408,,,
26.0468750000,3,1.5502929688,,,
26.0625000000,3,1.8790889978,,,
26.0781250000,3,2.0081789494,,,
26.0937500000,3,1.8800050020,,,
26.1093750000,3,1.5184329748,,,
26.1250000000,3,1.0241090059,,,
26.1406250000,3,0.5546875000,,,
26.1562500000,3,0.2463379055,,,
26.1718750000,3,0.1549683064,,,
26.1875000000,3,0.2280883938,,,
26.2031250000,3,0.3537597954,,,
26.2187500000,3,0.4247437119,,,
26.2343750000,3,0.3778687119,,,
26.2500000000,3,0.2192382962,,,
26.2656250000,3,-0.0142822303,,,
26.2812500000,3,-0.2774047852,,,
26.2968750000,3,-0.5175170898,,,
26.3125000000,3,-0.7081298828,,,
26.3281250000,3,-0.8268433213,,,
26.3437500000,3,-0.8839110732,,,
26.3593750000,3,-0.9110106826,,,
26.3750000000,3,-0.9561768174,,,
26.3906250000,3,-1.0448609591,,,
26.4062500000,3,-1.1644899845,,,
26.4218750000,3,-1.2501829863,,,
26.4375000000,3,-1.2127079964,,,
26.4531250000,3,-1.0073239803,,,
26.4687500000,3,-0.6771851182,,,
26.4843750000,3,-0.3418579102,,,
26.5000000000,3,-0.1449584961,,,
26.5156250000,3,-0.1697998047,,,
26.5312500000,3,-0.3654784858,,,
26.5468750000,3,-0.5778809190,,,
26.5625000000,3,-0.6540526748,,,
26.5781250000,3,-0.5213013291,,,
26.5937500000,3,-0.2438354045,,,
26.6093750000,3,0.0302734394,,,
26.6250000000,3,0.1683959961,,,
26.6406250000,3,0.1356201023,,,
26.6562500000,3,-0.0033569341,,,
26.6718750000,3,-0.1182861030,,,
26.6875000000,3,-0.1226807013,,,
26.7031250000,3,-0.0330810510,,,
26.7187500000,3,0.0503540002,,,
26.7343750000,3,0.0255127009,,,
26.7500000000,3,-0.1146240011,,,
26.7656250000,3,-0.2691040039,,,
26.7812500000,3,-0.2908936143,,,
26.7968750000,3,-0.0933227465,,,
26.8125000000,3,0.2744140923,,,
26.8281250000,3,0.6397705078,,,
26.8437500000,3,0.7970581055,,,
26.8593750000,3,0.6373900771,,,
26.8750000000,3,0.1956786960,,,
26.8906250000,3,-0.3613891900,,,
26.9062500000,3,-0.8391724229,,,
26.9218750000,3,-1.0957640409,,,
26.9375000000,3,-1.0840450525,,,
26.9531250000,3,-0.8329467773,,,
26.9687500000,3,-0.4105224907,,,
26.9843750000,3,0.1257324070,,,
27.0000000000,3,0.7321776748,,,
27.0156250000,3,1.3557130098,,,
27.0312500000,3,1.8870849609,,,
27.0468750000,3,2.1801149845,,,
27.0625000000,3,2.0898439884,,,
27.0781250000,3,1.5645140409,,,
27.0937500000,3,0.6931763291,,,
27.1093750000,3,-0.2931518853,,,
27.1250000000,3,-1.0997309685,,,
27.1406250000,3,-1.4731450081,,,
27.1562500000,3,-1.3327640295,,,
27.1718750000,3,-0.7796021104,,,
27.1875000000,3,-0.0612793006,,,
27.2031250000,3,0.5517578125,,,
27.2187500000,3,0.8720092773,,,
27.2343750000,3,0.8627930284,,,
27.2500000000,3,0.6184082031,,,
27.2656250000,3,0.2999877930,,,
27.2812500000,3,0.0420532189,,,
27.2968750000,3,-0.0907592773,,,
27.3125000000,3,-0.0959472731,,,
27.3281250000,3,-0.0062255859,,,
27.3437500000,3,0.1303101033,,,
27.3593750000,3,0.2720336914,,,
27.3750000000,3,0.3839721978,,,
27.3906250000,3,0.4230346978,,,
27.4062500000,3,0.3638305962,,,
27.4218750000,3,0.2005614936,,,
27.4375000000,3,-0.0562744103,,,
27.4531250000,3,-0.3978270888,,,
27.4687500000,3,-0.8083496094,,,
27.4843750000,3,-1.2575069666,,,
27.5000000000,3,-1.6969599724,,,
27.5156250000,3,-2.0502319336,,,
27.5312500000,3,-2.2360229492,,,
27.5468750000,3,-2.2117309570,,,
27.5625000000,3,-1.9971920252,,,
27.5781250000,3,-1.6536870003,,,
27.5937500000,3,-1.2519530058,,,
27.6093750000,3,-0.8349608779,,,
27.6250000000,3,-0.4246825874,,,
27.6406250000,3,-0.0435180701,,,
27.6562500000,3,0.2539672852,,,
27.6718750000,3,0.3904418945,,,
27.6875000000,3,0.3273315132,,,
27.7031250000,3,0.1092528999,,,
27.7187500000,3,-0.1257935017,,,
27.7343750000,3,-0.1926269978,,,
27.7500000000,3,0.0120849600,,,
27.7656250000,3,0.4436646104,,,
27.7812500000,3,0.9005126953,,,
27.7968750000,3,1.1393430233,,,
27.8125000000,3,1.0280150175,,,
27.8281250000,3,0.6174315810,,,
27.8437500000,3,0.1270751953,,,
27.8593750000,3,-0.1920166016,,,
27.8750000000,3,-0.1910399944,,,
27.8906250000,3,0.0911865234,,,
27.9062500000,3,0.4584960938,,,
27.9218750000,3,0.6886597276,,,
27.9375000000,3,0.6418457031,,,
27.9531250000,3,0.3287354112,,,
27.9687500000,3,-0.1126099005,,,
27.9843750000,3,-0.4837036133,,,
28.0000000000,3,-0.6306151748,,,
28.0156250000,3,-0.5221558213,,,
28.0312500000,3,-0.2296752930,,,
28.0468750000,3,0.1075439006,,,
28.0625000000,3,0.3681640923,,,
28.0781250000,3,0.4880981147,,,
28.0937500000,3,0.4946899116,,,
28.1093750000,3,0.4617919922,,,
28.1250000000,3,0.4879761040,,,
28.1406250000,3,0.6193236709,,,
28.1562500000,3,0.8229979873,,,
28.1718750000,3,1.0057369471,,,
28.1875000000,3,1.0429079533,,,
28.2031250000,3,0.8604125977,,,
28.2187500000,3,0.4562377930,,,
28.2343750000,3,-0.0896606371,,,
28.2500000000,3,-0.6588134766,,,
28.2656250000,3,-1.1336669922,,,
28.2812500000,3,-1.4472049475,,,
28.2968750000,3,-1.6031490564,,,
28.3125000000,3,-1.6419069767,,,
28.3281250000,3,-1.6486209631,,,
28.3437500000,3,-1.6828609705,,,
28.3593750000,3,-1.7423100471,,,
28.3750000000,3,-1.7650760412,,,
28.3906250000,3,-1.6502690315,,,
28.4062500000,3,-1.3481450081,,,
28.4218750000,3,-0.8743286133,,,
28.4375000000,3,-0.3250122070,,,
28.4531250000,3,0.1978148967,,,
28.4687500000,3,0.6137694716,,,
28.4843750000,3,0.9122924805,,,
28.5000000000,3,1.1168210506,,,
28.5156250000,3,1.2457890511,,,
28.5312500000,3,1.2907099724,,,
28.5468750000,3,1.2338260412,,,
28.5625000000,3,1.1036989689,,,
28.5781250000,3,0.9678955078,,,
28.5937500000,3,0.9183959961,,,
28.6093750000,3,0.9830322266,,,
28.6250000000,3,1.1067500114,,,
28.6406250000,3,1.1730959415,,,
28.6562500000,3,1.0832519531,,,
28.6718750000,3,0.8533936143,,,
28.6875000000,3,0.5969849229,,,
28.7031250000,3,0.4664306939,,,
28.7187500000,3,0.5383911133,,,
28.7343750000,3,0.7781981826,,,
28.7500000000,3,1.0532840490,,,
28.7656250000,3,1.2138669491,,,
28.7812500000,3,1.1682740450,,,
28.7968750000,3,0.8903198242,,,
28.8125000000,3,0.4369507134,,,
28.8281250000,3,-0.1194458008,,,
28.8437500000,3,-0.6835938096,,,
28.8593750000,3,-1.1537480354,,,
28.8750000000,3,-1.4329830408,,,
28.8906250000,3,-1.4624019861,,,
28.9062500000,3,-1.2631230354,,,
28.9218750000,3,-0.9271851182,,,
28.9375000000,3,-0.5949097276,,,
28.9531250000,3,-0.3623656929,,,
28.9687500000,3,-0.2644653022,,,
28.9843750000,3,-0.2613525093,,,
29.0000000000,3,-0.2793579102,,,
29.0156250000,3,-0.2531127930,,,
29.0312500000,3,-0.1573486030,,,
29.0468750000,3,-0.0189819299,,,
29.0625000000,3,0.1177368015,,,
29.0781250000,3,0.2122803032,,,
29.0937500000,3,0.2476195991,,,
29.1093750000,3,0.2387084961,,,
29.1250000000,3,0.2203979045,,,
29.1406250000,3,0.2232666016,,,
29.1562500000,3,0.2575683892,,,
29.1718750000,3,0.3084106147,,,
29.1875000000,3,0.3411864936,,,
29.2031250000,3,0.3408203125,,,
29.2187500000,3,0.2976073921,,,
29.2343750000,3,0.2337035984,,,
29.2500000000,3,0.1900023967,,,
29.2656250000,3,0.2165527046,,,
29.2812500000,3,0.3386841118,,,
29.2968750000,3,0.5333251953,,,
29.3125000000,3,0.7529907227,,,
29.3281250000,3,0.9125977159,,,
29.3437500000,3,0.9454345703,,,
29.3593750000,3,0.8074951172,,,
29.3750000000,3,0.5073853135,,,
29.3906250000,3,0.0983276367,,,
29.4062500000,3,-0.3358153999,,,
29.4218750000,3,-0.7028198242,,,
29.4375000000,3,-0.9409180284,,,
29.4531250000,3,-1.0308229923,,,
29.4687500000,3,-1.0003050566,,,
29.4843750000,3,-0.8996582031,,,
29.5000000000,3,-0.7769165039,,,
29.5156250000,3,-0.6790161133,,,
29.5312500000,3,-0.6280518174,,,
29.5468750000,3,-0.6412963867,,,
29.5625000000,3,-0.7266234756,,,
29.5781250000,3,-0.8638916016,,,
29.5937500000,3,-1.0134890079,,,
29.6093750000,3,-1.1178590059,,,
29.6250000000,3,-1.1288449764,,,
29.6406250000,3,-1.0218509436,,,
29.6562500000,3,-0.8098754883,,,
29.6718750000,3,-0.5349121094,,,
29.6875000000,3,-0.2774047852,,,
29.7031250000,3,-0.1136474982,,,
29.7187500000,3,-0.1060181037,,,
29.7343750000,3,-0.2705078125,,,
29.7500000000,3,-0.5677490234,,,
29.7656250000,3,-0.9115601182,,,
29.7812500000,3,-1.2114870548,,,
29.7968750000,3,-1.3918459415,,,
29.8125000000,3,-1.4210820198,,,
29.8281250000,3,-1.3261109591,,,
29.8437500000,3,-1.1708979607,,,
29.8593750000,3,-1.0214229822,,,
29.8750000000,3,-0.9332274795,,,
29.8906250000,3,-0.9131469727,,,
29.9062500000,3,-0.9322509766,,,
29.9218750000,3,-0.9376831055,,,
29.9375000000,3,-0.8824462891,,,
29.9531250000,3,-0.7234497070,,,
29.9687500000,3,-0.4498291016,,,
29.9843750000,3,-0.1000977010,,,
30.0000000000,3,0.2802124023,,,
30.0156250000,3,0.6262207031,,,
30.0312500000,3,0.9068604112,,,
30.0468750000,3,1.1284790039,,,
30.0625000000,3,1.3087769747,,,
30.0781250000,3,1.4635009766,,,
30.0937500000,3,1.5620729923,,,
30.1093750000,3,1.5538940430,,,
30.1250000000,3,1.4133909941,,,
30.1406250000,3,1.1735839844,,,
30.1562500000,3,0.9306641221,,,
30.1718750000,3,0.8131713867,,,
30.1875000000,3,0.8935546875,,,
30.2031250000,3,1.1382449865,,,
30.2187500000,3,1.4103389978,,,
30.2343750000,3,1.5322879553,,,
30.2500000000,3,1.3701169491,,,
30.2656250000,3,0.9168701172,,,
30.2812500000,3,0.2772827148,,,
30.2968750000,3,-0.3612670898,,,
30.3125000000,3,-0.8337401748,,,
30.3281250000,3,-1.0609740019,,,
30.3437500000,3,-1.0889890194,,,
30.3593750000,3,-1.0333859921,,,
30.3750000000,3,-1.0154420137,,,
30.3906250000,3,-1.0882569551,,,
30.4062500000,3,-1.2055050135,,,
30.4218750000,3,-1.2663569450,,,
30.4375000000,3,-1.1750489473,,,
30.4531250000,3,-0.8914185166,,,
30.4687500000,3,-0.4597778022,,,
30.4843750000,3,-0.0019531250,,,
30.5000000000,3,0.3656615913,,,
30.5156250000,3,0.5645751953,,,
30.5312500000,3,0.5805664063,,,
30.5468750000,3,0.4691771865,,,
30.5625000000,3,0.2997437119,,,
30.5781250000,3,0.1215820014,,,
30.5937500000,3,-0.0527954102,,,
30.6093750000,3,-0.2321777046,,,
30.6250000000,3,-0.4229736030,,,
30.6406250000,3,-0.6127318740,,,
30.6562500000,3,-0.7707520127,,,
30.6718750000,3,-0.8518065810,,,
30.6875000000,3,-0.8242797852,,,
30.7031250000,3,-0.6800537109,,,
30.7187500000,3,-0.4537963867,,,
30.7343750000,3,-0.1992187947,,,
30.7500000000,3,0.0165405292,,,
30.7656250000,3,0.1339111030,,,
30.7812500000,3,0.1119994968,,,
30.7968750000,3,-0.0595703088,,,
30.8125000000,3,-0.3519287109,,,
30.8281250000,3,-0.6906738281,,,
30.8437500000,3,-0.9709473252,,,
30.8593750000,3,-1.0971070528,,,
30.8750000000,3,-1.0001829863,,,
30.8906250000,3,-0.6542357802,,,
30.9062500000,3,-0.0723266602,,,
30.9218750000,3,0.6882324219,,,
30.9375000000,3,1.5355219841,,,
30.9531250000,3,2.3399660587,,,
30.9687500000,3,2.9309079647,,,
30.9843750000,3,3.1398930550,,,
31.0000000000,3,2.8657839298,,,
31.0156250000,3,2.1442871094,,,
31.0312500000,3,1.1436769962,,,
31.0468750000,3,0.1226195991,,,
31.0625000000,3,-0.6730957031,,,
31.0781250000,3,-1.1231080294,,,
31.0937500000,3,-1.2458499670,,,
31.1093750000,3,-1.1594239473,,,
31.1250000000,3,-0.9899291992,,,
31.1406250000,3,-0.8054199219,,,
31.1562500000,3,-0.6126099229,,,
31.1718750000,3,-0.3937377930,,,
31.1875000000,3,-0.1816405952,,,
31.2031250000,3,-0.0459594689,,,
31.2187500000,3,-0.0732421875,,,
31.2343750000,3,-0.2993774116,,,
31.2500000000,3,-0.6726685166,,,
31.2656250000,3,-1.0582280159,,,
31.2812500000,3,-1.2962650061,,,
31.2968750000,3,-1.2677609921,,,
31.3125000000,3,-0.9571533203,,,
31.3281250000,3,-0.4467773139,,,
31.3437500000,3,0.1109009013,,,
31.3593750000,3,0.5675048828,,,
31.3750000000,3,0.8200684190,,,
31.3906250000,3,0.8482666016,,,
31.4062500000,3,0.7037963867,,,
31.4218750000,3,0.5021973252,,,
31.4375000000,3,0.3687744141,,,
31.4531250000,3,0.4008789063,,,
31.4687500000,3,0.6215209961,,,
31.4843750000,3,0.9618530273,,,
31.5000000000,3,1.2976069450,,,
31.5156250000,3,1.4811400175,,,
31.5312500000,3,1.4382319450,,,
31.5468750000,3,1.1741939783,,,
31.5625000000,3,0.7955933213,,,
31.5781250000,3,0.4210815132,,,
31.5937500000,3,0.1546631008,,,
31.6093750000,3,0.0213012695,,,
31.6250000000,3,0.0006713867,,,
31.6406250000,3,0.0510864295,,,
31.6562500000,3,0.1435547024,,,
31.6718750000,3,0.2770386040,,,
31.6875000000,3,0.4428710938,,,
31.7031250000,3,0.6046752930,,,
31.7187500000,3,0.6786499023,,,
31.7343750000,3,0.5869750977,,,
31.7500000000,3,0.3046264946,,,
31.7656250000,3,-0.1018066034,,,
31.7812500000,3,-0.4782715142,,,
31.7968750000,3,-0.6517333984,,,
31.8125000000,3,-0.5020751953,,,
31.8281250000,3,-0.0186767597,,,
31.8437500000,3,0.6699218750,,,
31.8593750000,3,1.3513180017,,,
31.8750000000,3,1.8314820528,,,
31.8906250000,3,1.9924930334,,,
31.9062500000,3,1.8248289824,,,
31.9218750000,3,1.4193730354,,,
31.9375000000,3,0.8898925781,,,
31.9531250000,3,0.3482666016,,,
31.9687500000,3,-0.1149901971,,,
31.9843750000,3,-0.4465332031,,,
32.0000000000,4,-0.5964965820,,,
32.0156250000,4,-0.5586547852,,,
32.0312500000,4,-0.3822020888,,,
32.0468750000,4,-0.2042846978,,,
32.0625000000,4,-0.1713867038,,,
32.0781250000,4,-0.3729858100,,,
32.0937500000,4,-0.7537841797,,,
32.1093750000,4,-1.1459350586,,,
32.1250000000,4,-1.3441770077,,,
32.1406250000,4,-1.2184449434,,,
32.1562500000,4,-0.7866821289,,,
32.1718750000,4,-0.1934203953,,,
32.1875000000,4,0.3730469048,,,
32.2031250000,4,0.7924805284,,,
32.2187500000,4,1.0390009880,,,
32.2343750000,4,1.1499630213,,,
32.2500000000,4,1.1733399630,,,
32.2656250000,4,1.0987550020,,,
32.2812500000,4,0.8930053711,,,
32.2968750000,4,0.5326538086,,,
32.3125000000,4,0.0624389611,,,
32.3281250000,4,-0.3956299126,,,
32.3437500000,4,-0.6834105849,,,
32.3593750000,4,-0.6802979112,,,
32.3750000000,4,-0.3413695991,,,
32.3906250000,4,0.2547607124,,,
32.4062500000,4,0.9248046875,,,
32.4218750000,4,1.4514160156,,,
32.4375000000,4,1.6284790039,,,
32.4531250000,4,1.3778690100,,,
32.4687500000,4,0.7746582031,,,
32.4843750000,4,0.0083618164,,,
32.5000000000,4,-0.7035521865,,,
32.5156250000,4,-1.2175290585,,,
32.5312500000,4,-1.5294799805,,,
32.5468750000,4,-1.7248539925,,,
32.5625000000,4,-1.8959350586,,,
32.5781250000,4,-2.0588989258,,,
32.5937500000,4,-2.1257319450,,,
32.6093750000,4,-1.9805910587,,,
32.6250000000,4,-1.5700680017,,,
32.6406250000,4,-0.9774780273,,,
32.6562500000,4,-0.3831177056,,,
32.6718750000,4,0.0514526404,,,
32.6875000000,4,0.2700805962,,,
32.7031250000,4,0.3652954102,,,
32.7187500000,4,0.4809570014,,,
32.7343750000,4,0.6988524795,,,
32.7500000000,4,0.9866942763,,,
32.7656250000,4,1.2073359489,,,
32.7812500000,4,1.2232060432,,,
32.7968750000,4,0.9968261719,,,
32.8125000000,4,0.6012573242,,,
32.8281250000,4,0.1799315959,,,
32.8437500000,4,-0.1471558064,,,
32.8593750000,4,-0.3393554986,,,
32.8750000000,4,-0.4108276069,,,
32.8906250000,4,-0.3919678032,,,
32.9062500000,4,-0.2863158882,,,
32.9218750000,4,-0.0867309570,,,
32.9375000000,4,0.1773681939,,,
32.9531250000,4,0.4280396104,,,
32.9687500000,4,0.5501099229,,,
32.9843750000,4,0.4496459961,,,
33.0000000000,4,0.1181029975,,,
33.0156250000,4,-0.3421630859,,,
33.0312500000,4,-0.7760620117,,,
33.0468750000,4,-1.0366820097,,,
33.0625000000,4,-1.0729980469,,,
33.0781250000,4,-0.9418334961,,,
33.0937500000,4,-0.7710571289,,,
33.1093750000,4,-0.6975708008,,,
33.1250000000,4,-0.7634888291,,,
33.1406250000,4,-0.9249268174,,,
33.1562500000,4,-1.0599980354,,,
33.1718750000,4,-1.0583499670,,,
33.1875000000,4,-0.8870239258,,,
33.2031250000,4,-0.5891113281,,,
33.2187500000,4,-0.2463988960,,,
33.2343750000,4,0.0881347731,,,
33.2500000000,4,0.4470215142,,,
33.2656250000,4,0.8972167969,,,
33.2812500000,4,1.4576419592,,,
33.2968750000,4,2.0612790585,,,
33.3125000000,4,2.5249629021,,,
33.3281250000,4,2.6607060432,,,
33.3437500000,4,2.3756101131,,,
33.3593750000,4,1.7412719727,,,
33.3750000000,4,0.9477539063,,,
33.3906250000,4,0.2026977986,,,
33.4062500000,4,-0.3576659858,,,
33.4218750000,4,-0.7176514268,,,
33.4375000000,4,-0.9337769151,,,
33.4531250000,4,-1.0711059570,,,
33.4687500000,4,-1.1361689568,,,
33.4843750000,4,-1.0939940214,,,
33.5000000000,4,-0.9085692763,,,
33.5156250000,4,-0.5913085938,,,
33.5312500000,4,-0.2210083008,,,
33.5468750000,4,0.0993652269,,,
33.5625000000,4,0.2919921875,,,
33.5781250000,4,0.3170166016,,,
33.5937500000,4,0.1837769002,,,
33.6093750000,4,-0.0667724609,,,
33.6250000000,4,-0.3446654975,,,
33.6406250000,4,-0.5537719727,,,
33.6562500000,4,-0.5952147841,,,
33.6718750000,4,-0.4164429009,,,
33.6875000000,4,-0.0562744103,,,
33.7031250000,4,0.3520508111,,,
33.7187500000,4,0.6293334961,,,
33.7343750000,4,0.6291503906,,,
33.7500000000,4,0.3219603896,,,
33.7656250000,4,-0.1898804009,,,
33.7812500000,4,-0.7223510742,,,
33.7968750000,4,-1.1050419807,,,
33.8125000000,4,-1.2534790039,,,
33.8281250000,4,-1.1826779842,,,
33.8437500000,4,-0.9897460938,,,
33.8593750000,4,-0.7662963867,,,
33.8750000000,4,-0.5570678711,,,
33.8906250000,4,-0.3742676079,,,
33.9062500000,4,-0.2102660984,,,
33.9218750000,4,-0.0722656325,,,
33.9375000000,4,0.0172119103,,,
33.9531250000,4,0.0474853516,,,
33.9687500000,4,0.0302124005,,,
33.9843750000,4,0.0129394503,,,
34.0000000000,4,0.0450439490,,,
34.0156250000,4,0.1419678032,,,
34.0312500000,4,0.2687377930,,,
34.0468750000,4,0.3513183892,,,
34.0625000000,4,0.3253783882,,,
34.0781250000,4,0.1737671047,,,
34.0937500000,4,-0.0495605506,,,
34.1093750000,4,-0.2576293945,,,
34.1250000000,4,-0.3520508111,,,
34.1406250000,4,-0.2785645127,,,
34.1562500000,4,-0.0487060510,,,
34.1718750000,4,0.2715454102,,,
34.1875000000,4,0.5961303711,,,
34.2031250000,4,0.8549805284,,,
34.2187500000,4,1.0086669922,,,
34.2343750000,4,1.0590209961,,,
34.2500000000,4,1.0045779943,,,
34.2656250000,4,0.8529052734,,,
34.2812500000,4,0.6201782227,,,
34.2968750000,4,0.3156737983,,,
34.3125000000,4,-0.0303955097,,,
34.3281250000,4,-0.3685913086,,,
34.3437500000,4,-0.6545410156,,,
34.3593750000,4,-0.8572998047,,,
34.3750000000,4,-0.9382935166,,,
34.3906250000,4,-0.8806151748,,,
34.4062500000,4,-0.6705933213,,,
34.4218750000,4,-0.3070679009,,,
34.4375000000,4,0.1672362983,,,
34.4531250000,4,0.6665039063,,,
34.4687500000,4,1.0695799589,,,
34.4843750000,4,1.2705689669,,,
34.5000000000,4,1.2093509436,,,
34.5156250000,4,0.9161986709,,,
34.5312500000,4,0.4856567085,,,
34.5468750000,4,0.0332031287,,,
34.5625000000,4,-0.3494262993,,,
34.5781250000,4,-0.6193848252,,,
34.5937500000,4,-0.7707520127,,,
34.6093750000,4,-0.8220214844,,,
34.6250000000,4,-0.7996826172,,,
34.6406250000,4,-0.7307128906,,,
34.6562500000,4,-0.6316527724,,,
34.6718750000,4,-0.5324707031,,,
34.6875000000,4,-0.4539794922,,,
34.7031250000,4,-0.3928222954,,,
34.7187500000,4,-0.3386841118,,,
34.7343750000,4,-0.2494506985,,,
34.7500000000,4,-0.0971069336,,,
34.7656250000,4,0.1276244968,,,
34.7812500000,4,0.3815917969,,,
34.7968750000,4,0.5999146104,,,
34.8125000000,4,0.7222899795,,,
34.8281250000,4,0.7352294922,,,
34.8437500000,4,0.6739501953,,,
34.8593750000,4,0.5997924805,,,
34.8750000000,4,0.5522460938,,,
34.8906250000,4,0.5306395888,,,
34.9062500000,4,0.4782103896,,,
34.9218750000,4,0.3420409858,,,
34.9375000000,4,0.1195067987,,,
34.9531250000,4,-0.1344604045,,,
34.9687500000,4,-0.3141478896,,,
34.9843750000,4,-0.3363037109,,,
35.0000000000,4,-0.2077637017,,,
35.0156250000,4,0.0017700200,,,
35.0312500000,4,0.1891479045,,,
35.0468750000,4,0.2680664063,,,
35.0625000000,4,0.2266235054,,,
35.0781250000,4,0.1154175028,,,
35.0937500000,4,0.0010375980,,,
35.1093750000,4,-0.0594482385,,,
35.1250000000,4,-0.0510253906,,,
35.1406250000,4,0.0070800781,,,
35.1562500000,4,0.0817260668,,,
35.1718750000,4,0.1356811970,,,
35.1875000000,4,0.1417236030,,,
35.2031250000,4,0.0917968825,,,
35.2187500000,4,-0.0150756799,,,
35.2343750000,4,-0.1653441936,,,
35.2500000000,4,-0.3491210938,,,
35.2656250000,4,-0.5463867188,,,
35.2812500000,4,-0.7496337891,,,
35.2968750000,4,-0.9478148818,,,
35.3125000000,4,-1.1244510412,,,
35.3281250000,4,-1.2545169592,,,
35.3437500000,4,-1.3196409941,,,
35.3593750000,4,-1.3085939884,,,
35.3750000000,4,-1.2508540154,,,
35.3906250000,4,-1.1915279627,,,
35.4062500000,4,-1.1629029512,,,
35.4218750000,4,-1.1614379883,,,
35.4375000000,4,-1.1338499784,,,
35.4531250000,4,-1.0333859921,,,
35.4687500000,4,-0.8243408203,,,
35.4843750000,4,-0.5230103135,,,
35.5000000000,4,-0.1849976033,,,
35.5156250000,4,0.1292725056,,,
35.5312500000,4,0.3773193061,,,
35.5468750000,4,0.5446776748,,,
35.5625000000,4,0.6229857802,,,
35.5781250000,4,0.6156616211,,,
35.5937500000,4,0.5126953125,,,
35.6093750000,4,0.3181762993,,,
35.6250000000,4,0.0635375977,,,
35.6406250000,4,-0.1720581055,,,
35.6562500000,4,-0.3162231147,,,
35.6718750000,4,-0.3009032905,,,
35.6875000000,4,-0.1164551005,,,
35.7031250000,4,0.1748047024,,,
35.7187500000,4,0.4786987007,,,
35.7343750000,4,0.6879882813,,,
35.7500000000,4,0.7450562119,,,
35.7656250000,4,0.6539916992,,,
35.7812500000,4,0.4888916016,,,
35.7968750000,4,0.3479003906,,,
35.8125000000,4,0.3192138970,,,
35.8281250000,4,0.4381104112,,,
35.8437500000,4,0.6596068740,,,
35.8593750000,4,0.8995360732,,,
35.8750000000,4,1.0723270178,,,
35.8906250000,4,1.1145629883,,,
35.9062500000,4,1.0048220158,,,
35.9218750000,4,0.7337645888,,,
35.9375000000,4,0.3315429986,,,
35.9531250000,4,-0.1397704929,,,
35.9687500000,4,-0.5644531250,,,
35.9843750000,4,-0.8126220703,,,
36.0000000000,4,-0.7828369141,,,
36.0156250000,4,-0.4741820991,,,
36.0312500000,4,-0.0049438481,,,
36.0468750000,4,0.4370728135,,,
36.0625000000,4,0.6742553711,,,
36.0781250000,4,0.6492310166,,,
36.0937500000,4,0.4285888970,,,
36.1093750000,4,0.1552124023,,,
36.1250000000,4,-0.0620117188,,,
36.1406250000,4,-0.1884766072,,,
36.1562500000,4,-0.2862549126,,,
36.1718750000,4,-0.4127196968,,,
36.1875000000,4,-0.5770874023,,,
36.2031250000,4,-0.7271729112,,,
36.2187500000,4,-0.7734984756,,,
36.2343750000,4,-0.6764525771,,,
36.2500000000,4,-0.4608153999,,,
36.2656250000,4,-0.2132568061,,,
36.2812500000,4,-0.0207519494,,,
36.2968750000,4,0.0347290002,,,
36.3125000000,4,-0.0456543006,,,
36.3281250000,4,-0.2104492038,,,
36.3437500000,4,-0.3743895888,,,
36.3593750000,4,-0.4442138970,,,
36.3750000000,4,-0.3670653999,,,
36.3906250000,4,-0.1594848931,,,
36.4062500000,4,0.1187134013,,,
36.4218750000,4,0.3713988960,,,
36.4375000000,4,0.5308837891,,,
36.4531250000,4,0.5820313096,,,
36.4687500000,4,0.5664063096,,,
36.4843750000,4,0.5357666016,,,
36.5000000000,4,0.5086060166,,,
36.5156250000,4,0.4560546875,,,
36.5312500000,4,0.3202514946,,,
36.5468750000,4,0.0661621094,,,
36.5625000000,4,-0.2780151069,,,
36.5781250000,4,-0.6547241211,,,
36.5937500000,4,-0.9830933213,,,
36.6093750000,4,-1.2155760527,,,
36.6250000000,4,-1.3524169922,,,
36.6406250000,4,-1.4310300350,,,
36.6562500000,4,-1.4863280058,,,
36.6718750000,4,-1.5413210392,,,
36.6875000000,4,-1.5807499886,,,
36.7031250000,4,-1.5632319450,,,
36.7187500000,4,-1.4389649630,,,
36.7343750000,4,-1.1698000431,,,
36.7500000000,4,-0.7757567763,,,
36.7656250000,4,-0.3198853135,,,
36.7812500000,4,0.1184692010,,,
36.7968750000,4,0.4648438096,,,
36.8125000000,4,0.7092896104,,,
36.8281250000,4,0.9026489258,,,
36.8437500000,4,1.1008909941,,,
36.8593750000,4,1.3170779943,,,
36.8750000000,4,1.4893189669,,,
36.8906250000,4,1.4865720272,,,
36.9062500000,4,1.1953740120,,,
36.9218750000,4,0.5868530273,,,
36.9375000000,4,-0.2326660007,,,
36.9531250000,4,-1.0452879667,,,
36.9687500000,4,-1.6009520292,,,
36.9843750000,4,-1.7203979492,,,
37.0000000000,4,-1.3673709631,,,
37.0156250000,4,-0.6757813096,,,
37.0312500000,4,0.1025390998,,,
37.0468750000,4,0.6934813857,,,
37.0625000000,4,0.9188842773,,,
37.0781250000,4,0.7420043945,,,
37.0937500000,4,0.3060913086,,,
37.1093750000,4,-0.1514281929,,,
37.1250000000,4,-0.4029541016,,,
37.1406250000,4,-0.3438721001,,,
37.1562500000,4,-0.0248413105,,,
37.1718750000,4,0.3634643853,,,
37.1875000000,4,0.6128540039,,,
37.2031250000,4,0.5827636719,,,
37.2187500000,4,0.2579346001,,,
37.2343750000,4,-0.2411499023,,,
37.2500000000,4,-0.7445678711,,,
37.2656250000,4,-1.0985720158,,,
37.2812500000,4,-1.2210079432,,,
37.2968750000,4,-1.1165159941,,,
37.3125000000,4,-0.8626099229,,,
37.3281250000,4,-0.5457764268,,,
37.3437500000,4,-0.2570190132,,,
37.3593750000,4,-0.0605468787,,,
37.3750000000,4,0.0190429706,,,
37.3906250000,4,0.0097045898,,,
37.4062500000,4,-0.0249633808,,,
37.4218750000,4,-0.0110473596,,,
37.4375000000,4,0.1005859002,,,
37.4531250000,4,0.3095093071,,,
37.4687500000,4,0.5838623047,,,
37.4843750000,4,0.8739014268,,,
37.5000000000,4,1.1436769962,,,
37.5156250000,4,1.3601069450,,,
37.5312500000,4,1.4987790585,,,
37.5468750000,4,1.5388790369,,,
37.5625000000,4,1.4676510096,,,
37.5781250000,4,1.2885129452,,,
37.5937500000,4,1.0422970057,,,
37.6093750000,4,0.7852172852,,,
37.6250000000,4,0.5538330078,,,
37.6406250000,4,0.3455199897,,,
37.6562500000,4,0.1218871996,,,
37.6718750000,4,-0.1495971978,,,
37.6875000000,4,-0.4544678032,,,
37.7031250000,4,-0.7133789063,,,
37.7187500000,4,-0.7995604873,,,
37.7343750000,4,-0.6221312881,,,
37.7500000000,4,-0.1810303032,,,
37.7656250000,4,0.4164429009,,,
37.7812500000,4,1.0028690100,,,
37.7968750000,4,1.4236450195,,,
37.8125000000,4,1.5890500546,,,
37.8281250000,4,1.5083620548,,,
37.8437500000,4,1.2492070198,,,
37.8593750000,4,0.9044799805,,,
37.8750000000,4,0.5227050781,,,
37.8906250000,4,0.1190185994,,,
37.9062500000,4,-0.2968750000,,,
37.9218750000,4,-0.6956176758,,,
37.9375000000,4,-0.9990844727,,,
37.9531250000,4,-1.1163330078,,,
37.9687500000,4,-1.0058590174,,,
37.9843750000,4,-0.7116699219,,,
38.0000000000,4,-0.3732909858,,,
38.0156250000,4,-0.1625366062,,,
38.0312500000,4,-0.2111206055,,,
38.0468750000,4,-0.5220336914,,,
38.0625000000,4,-0.9693604112,,,
38.0781250000,4,-1.3688960075,,,
38.0937500000,4,-1.5593869686,,,
38.1093750000,4,-1.4707030058,,,
38.1250000000,4,-1.1356810331,,,
38.1406250000,4,-0.6535034180,,,
38.1562500000,4,-0.1463623047,,,
38.1718750000,4,0.2835693061,,,
38.1875000000,4,0.5572509766,,,
38.2031250000,4,0.6123046875,,,
38.2187500000,4,0.4235840142,,,
38.2343750000,4,0.0308837909,,,
38.2500000000,4,-0.4678955078,,,
38.2656250000,4,-0.9147949219,,,
38.2812500000,4,-1.1480100155,,,
38.2968750000,4,-1.0721440315,,,
38.3125000000,4,-0.6907349229,,,
38.3281250000,4,-0.1264037937,,,
38.3437500000,4,0.4450072944,,,
38.3593750000,4,0.8641356826,,,
38.3750000000,4,1.0563349724,,,
38.3906250000,4,1.0515140295,,,
38.4062500000,4,0.9443358779,,,
38.4218750000,4,0.8455811143,,,
38.4375000000,4,0.8176270127,,,
38.4531250000,4,0.8849486709,,,
38.4687500000,4,1.0315550566,,,
38.4843750000,4,1.2557369471,,,
38.5000000000,4,1.5568850040,,,
38.5156250000,4,1.9334720373,,,
38.5312500000,4,2.3178100586,,,
38.5468750000,4,2.5723879337,,,
38.5625000000,4,2.5418701172,,,
38.5781250000,4,2.1238400936,,,
38.5937500000,4,1.3594360352,,,
38.6093750000,4,0.4491577148,,,
38.6250000000,4,-0.3339844048,,,
38.6406250000,4,-0.7733765244,,,
38.6562500000,4,-0.8034058213,,,
38.6718750000,4,-0.5372924805,,,
38.6875000000,4,-0.1919555962,,,
38.7031250000,4,0.0321044885,,,
38.7187500000,4,0.0363769494,,,
38.7343750000,4,-0.1517333984,,,
38.7500000000,4,-0.4494628906,,,
38.7656250000,4,-0.7867432237,,,
38.7812500000,4,-1.1146850586,,,
38.7968750000,4,-1.4071040154,,,
38.8125000000,4,-1.6231689453,,,
38.8281250000,4,-1.7111819983,,,
38.8437500000,4,-1.6090699434,,,
38.8593750000,4,-1.3007199764,,,
38.8750000000,4,-0.8389893174,,,
38.8906250000,4,-0.3182983100,,,
38.9062500000,4,0.1345825046,,,
38.9218750000,4,0.4151000977,,,
38.9375000000,4,0.4775390923,,,
38.9531250000,4,0.3606567085,,,
38.9687500000,4,0.1635131985,,,
38.9843750000,4,0.0350341797,,,
39.0000000000,4,0.1022339016,,,
39.0156250000,4,0.4207763970,,,
39.0312500000,4,0.9326782227,,,
39.0468750000,4,1.4697879553,,,
39.0625000000,4,1.8345949650,,,
39.0781250000,4,1.8928829432,,,
39.0937500000,4,1.6313480139,,,
39.1093750000,4,1.1678470373,,,
39.1250000000,4,0.6834716797,,,
39.1406250000,4,0.3240967095,,,
39.1562500000,4,0.1401977986,,,
39.1718750000,4,0.1094971001,,,
39.1875000000,4,0.1726685017,,,
39.2031250000,4,0.2832641900,,,
39.2187500000,4,0.4380492866,,,
39.2343750000,4,0.6510009766,,,
39.2500000000,4,0.9147949219,,,
39.2656250000,4,1.1696170568,,,
39.2812500000,4,1.3169560432,,,
39.2968750000,4,1.2596440315,,,
39.3125000000,4,0.9639893174,,,
39.3281250000,4,0.4646606147,,,
39.3437500000,4,-0.1245727986,,,
39.3593750000,4,-0.6658325195,,,
39.3750000000,4,-1.0639040470,,,
39.3906250000,4,-1.2957760096,,,
39.4062500000,4,-1.4086300135,,,
39.4218750000,4,-1.4926760197,,,
39.4375000000,4,-1.6063230038,,,
39.4531250000,4,-1.7320560217,,,
39.4687500000,4,-1.7887569666,,,
39.4843750000,4,-1.6835329533,,,
39.5000000000,4,-1.3856199980,,,
39.5156250000,4,-0.9669799805,,,
39.5312500000,4,-0.5903319716,,,
39.5468750000,4,-0.4150390923,,,
39.5625000000,4,-0.5059204102,,,
39.5781250000,4,-0.7800902724,,,
39.5937500000,4,-1.0369260311,,,
39.6093750000,4,-1.0841059685,,,
39.6250000000,4,-0.8322144151,,,
39.6406250000,4,-0.3452148139,,,
39.6562500000,4,0.1897583008,,,
39.6718750000,4,0.5655518174,,,
39.6875000000,4,0.6846923828,,,
39.7031250000,4,0.5621337891,,,
39.7187500000,4,0.3360596001,,,
39.7343750000,4,0.1683959961,,,
39.7500000000,4,0.1522216946,,,
39.7656250000,4,0.2815552056,,,
39.7812500000,4,0.4705811143,,,
39.7968750000,4,0.6091918945,,,
39.8125000000,4,0.6290283203,,,
39.8281250000,4,0.5505371094,,,
39.8437500000,4,0.4500122070,,,
39.8593750000,4,0.4116820991,,,
39.8750000000,4,0.4656372070,,,
39.8906250000,4,0.5476685166,,,
39.9062500000,4,0.5557250977,,,
39.9218750000,4,0.3874512017,,,
39.9375000000,4,0.0258178692,,,
39.9531250000,4,-0.4578857124,,,
39.9687500000,4,-0.9113770127,,,
39.9843750000,4,-1.1983640194,,,
40.0000000000,5,-1.2363280058,,,
40.0156250000,5,-1.0256960392,,,
40.0312500000,5,-0.6631469727,,,
40.0468750000,5,-0.2760620117,,,
40.0625000000,5,0.0145263700,,,
40.0781250000,5,0.1384277046,,,
40.0937500000,5,0.1050414965,,,
40.1093750000,5,-0.0304565392,,,
40.1250000000,5,-0.1906737983,,,
40.1406250000,5,-0.3052367866,,,
40.1562500000,5,-0.3177489936,,,
40.1718750000,5,-0.2226562947,,,
40.1875000000,5,-0.0239868201,,,
40.2031250000,5,0.2482910007,,,
40.2187500000,5,0.5446776748,,,
40.2343750000,5,0.8078002930,,,
40.2500000000,5,0.9740601182,,,
40.2656250000,5,0.9843750000,,,
40.2812500000,5,0.8244628906,,,
40.2968750000,5,0.5605468750,,,
40.3125000000,5,0.2768554986,,,
40.3281250000,5,0.0729370117,,,
40.3437500000,5,-0.0085449219,,,
40.3593750000,5,0.0028686521,,,
40.3750000000,5,0.0432128906,,,
40.3906250000,5,0.0571289100,,,
40.4062500000,5,0.0325927697,,,
40.4218750000,5,-0.0198364295,,,
40.4375000000,5,-0.0786743164,,,
40.4531250000,5,-0.1629638970,,,
40.4687500000,5,-0.2884520888,,,
40.4843750000,5,-0.4612427056,,,
40.5000000000,5,-0.6345825195,,,
40.5156250000,5,-0.7136840820,,,
40.5312500000,5,-0.6232299805,,,
40.5468750000,5,-0.3583984077,,,
40.5625000000,5,-0.0021972661,,,
40.5781250000,5,0.3065186143,,,
40.5937500000,5,0.4575805962,,,
40.6093750000,5,0.4421387017,,,
40.6250000000,5,0.3311767876,,,
40.6406250000,5,0.2332763970,,,
40.6562500000,5,0.2303466946,,,
40.6718750000,5,0.3327026069,,,
40.6875000000,5,0.4822387993,,,
40.7031250000,5,0.6181641221,,,
40.7187500000,5,0.7023925781,,,
40.7343750000,5,0.7357788086,,,
40.7500000000,5,0.7515258789,,,
40.7656250000,5,0.7474365234,,,
40.7812500000,5,0.6942139268,,,
40.7968750000,5,0.5517578125,,,
40.8125000000,5,0.2812500000,,,
40.8281250000,5,-0.1081542969,,,
40.8437500000,5,-0.5491942763,,,
40.8593750000,5,-0.9436035156,,,
40.8750000000,5,-1.1885379553,,,
40.8906250000,5,-1.2010500431,,,
40.9062500000,5,-0.9726563096,,,
40.9218750000,5,-0.5480347276,,,
40.9375000000,5,-0.0593261681,,,
40.9531250000,5,0.3215942085,,,
40.9687500000,5,0.4572753906,,,
40.9843750000,5,0.3057861030,,,
41.0000000000,5,-0.0508422889,,,
41.0156250000,5,-0.4349975884,,,
41.0312500000,5,-0.6838989258,,,
41.0468750000,5,-0.7277222276,,,
41.0625000000,5,-0.6097412109,,,
41.0781250000,5,-0.4426270127,,,
41.0937500000,5,-0.3151854873,,,
41.1093750000,5,-0.2381591946,,,
41.1250000000,5,-0.1631470025,,,
41.1406250000,5,-0.0427246094,,,
41.1562500000,5,0.0858154297,,,
41.1718750000,5,0.1195679009,,,
41.1875000000,5,-0.0499267615,,,
41.2031250000,5,-0.4231567085,,,
41.2187500000,5,-0.8697509766,,,
41.2343750000,5,-1.1826779842,,,
41.2500000000,5,-1.1972659826,,,
41.2656250000,5,-0.8998413086,,,
41.2812500000,5,-0.4413452148,,,
41.2968750000,5,-0.0320434608,,,
41.3125000000,5,0.1981201023,,,
41.3281250000,5,0.2622680962,,,
41.3437500000,5,0.3023681939,,,
41.3593750000,5,0.4577026069,,,
41.3750000000,5,0.7572020888,,,
41.3906250000,5,1.0861819983,,,
41.4062500000,5,1.2293089628,,,
41.4218750000,5,1.0233759880,,,
41.4375000000,5,0.4505614936,,,
41.4531250000,5,-0.3392944038,,,
41.4687500000,5,-1.0985720158,,,
41.4843750000,5,-1.6199339628,,,
41.5000000000,5,-1.8193969727,,,
41.5156250000,5,-1.7504880428,,,
41.5312500000,5,-1.5499269962,,,
41.5468750000,5,-1.3355710506,,,
41.5625000000,5,-1.1602779627,,,
41.5781250000,5,-1.0151369572,,,
41.5937500000,5,-0.8479003906,,,
41.6093750000,5,-0.6528931260,,,
41.6250000000,5,-0.4620361030,,,
41.6406250000,5,-0.3393554986,,,
41.6562500000,5,-0.3347778022,,,
41.6718750000,5,-0.4414672852,,,
41.6875000000,5,-0.5960692763,,,
41.7031250000,5,-0.6992188096,,,
41.7187500000,5,-0.6768798828,,,
41.7343750000,5,-0.5070189834,,,
41.7500000000,5,-0.2363892049,,,
41.7656250000,5,0.0578613319,,,
41.7812500000,5,0.3068847954,,,
41.7968750000,5,0.4791870117,,,
41.8125000000,5,0.5907592773,,,
41.8281250000,5,0.6675415039,,,
41.8437500000,5,0.7306519151,,,
41.8593750000,5,0.7593994141,,,
41.8750000000,5,0.7265625000,,,
41.8906250000,5,0.6229857802,,,
41.9062500000,5,0.4793700874,,,
41.9218750000,5,0.3627319038,,,
41.9375000000,5,0.3208617866,,,
41.9531250000,5,0.3433837891,,,
41.9687500000,5,0.3619385064,,,
41.9843750000,5,0.2957153022,,,
42.0000000000,5,0.1285399944,,,
42.0156250000,5,-0.0620727502,,,
42.0312500000,5,-0.1403197944,,,
42.0468750000,5,-0.0090942383,,,
42.0625000000,5,0.3243407905,,,
42.0781250000,5,0.7161254883,,,
42.0937500000,5,0.9953002930,,,
42.1093750000,5,1.0333249569,,,
42.1250000000,5,0.8281250000,,,
42.1406250000,5,0.4746704102,,,
42.1562500000,5,0.0912475586,,,
42.1718750000,5,-0.2339477986,,,
42.1875000000,5,-0.4862061143,,,
42.2031250000,5,-0.6847534180,,,
42.2187500000,5,-0.8474730849,,,
42.2343750000,5,-0.9686890244,,,
42.2500000000,5,-1.0477290154,,,
42.2656250000,5,-1.0900269747,,,
42.2812500000,5,-1.1235350370,,,
42.2968750000,5,-1.1629029512,,,
42.3125000000,5,-1.1829220057,,,
42.3281250000,5,-1.1171259880,,,
42.3437500000,5,-0.8991699219,,,
42.3593750000,5,-0.5305175781,,,
42.3750000000,5,-0.1095580980,,,
42.3906250000,5,0.2047118992,,,
42.4062500000,5,0.2683716118,,,
42.4218750000,5,0.0558471717,,,
42.4375000000,5,-0.3158569038,,,
42.4531250000,5,-0.6312866211,,,
42.4687500000,5,-0.6924437881,,,
42.4843750000,5,-0.4253540039,,,
42.5000000000,5,0.0705566406,,,
42.5156250000,5,0.5695800781,,,
42.5312500000,5,0.8273925781,,,
42.5468750000,5,0.7060546875,,,
42.5625000000,5,0.2496947944,,,
42.5781250000,5,-0.3563843071,,,
42.5937500000,5,-0.8562011719,,,
42.6093750000,5,-1.0690920353,,,
42.6250000000,5,-0.9539185166,,,
42.6406250000,5,-0.6087645888,,,
42.6562500000,5,-0.2250977010,,,
42.6718750000,5,0.0388183594,,,
42.6875000000,5,0.1019287035,,,
42.7031250000,5,-0.0007324219,,,
42.7187500000,5,-0.1497803032,,,
42.7343750000,5,-0.1926269978,,,
42.7500000000,5,-0.0357055701,,,
42.7656250000,5,0.3439331055,,,
42.7812500000,5,0.8515015244,,,
42.7968750000,5,1.3135989904,,,
42.8125000000,5,1.5529789925,,,
42.8281250000,5,1.4578249454,,,
42.8437500000,5,1.0442500114,,,
42.8593750000,5,0.4536742866,,,
42.8750000000,5,-0.0952148363,,,
42.8906250000,5,-0.4252929986,,,
42.9062500000,5,-0.4632568061,,,
42.9218750000,5,-0.2655028999,,,
42.9375000000,5,0.0305786096,,,
42.9531250000,5,0.2857055962,,,
42.9687500000,5,0.4148559868,,,
42.9843750000,5,0.4086914063,,,
43.0000000000,5,0.2870483100,,,
43.0156250000,5,0.0875854492,,,
43.0312500000,5,-0.1710204929,,,
43.0468750000,5,-0.4369507134,,,
43.0625000000,5,-0.6289672852,,,
43.0781250000,5,-0.6804199219,,,
43.0937500000,5,-0.5615844727,,,
43.1093750000,5,-0.3348388970,,,
43.1250000000,5,-0.1141967997,,,
43.1406250000,5,-0.0013427730,,,
43.1562500000,5,-0.0202636700,,,
43.1718750000,5,-0.0997314528,,,
43.1875000000,5,-0.1474608928,,,
43.2031250000,5,-0.1016234979,,,
43.2187500000,5,0.0122070303,,,
43.2343750000,5,0.1394653022,,,
43.2500000000,5,0.2305908054,,,
43.2656250000,5,0.2890625000,,,
43.2812500000,5,0.3394775093,,,
43.2968750000,5,0.3737182915,,,
43.3125000000,5,0.3298340142,,,
43.3281250000,5,0.1343993992,,,
43.3437500000,5,-0.2080688030,,,
43.3593750000,5,-0.5844727159,,,
43.3750000000,5,-0.7755736709,,,
43.3906250000,5,-0.6091309190,,,
43.4062500000,5,-0.0758056566,,,
43.4218750000,5,0.6397094727,,,
43.4375000000,5,1.2624510527,,,
43.4531250000,5,1.5762939453,,,
43.4687500000,5,1.5538330078,,,
43.4843750000,5,1.3541870117,,,
43.5000000000,5,1.2033079863,,,
43.5156250000,5,1.2558590174,,,
43.5312500000,5,1.4776610136,,,
43.5468750000,5,1.7037349939,,,
43.5625000000,5,1.7481689453,,,
43.5781250000,5,1.5122070313,,,
43.5937500000,5,1.0628659725,,,
43.6093750000,5,0.5605468750,,,
43.6250000000,5,0.1583251953,,,
43.6406250000,5,-0.0879516602,,,
43.6562500000,5,-0.2145386040,,,
43.6718750000,5,-0.2971191108,,,
43.6875000000,5,-0.3740234077,,,
43.7031250000,5,-0.4064941108,,,
43.7187500000,5,-0.3338623047,,,
43.7343750000,5,-0.1268921047,,,
43.7500000000,5,0.1489257962,,,
43.7656250000,5,0.3638916016,,,
43.7812500000,5,0.3831177056,,,
43.7968750000,5,0.1681519002,,,
43.8125000000,5,-0.2100829929,,,
43.8281250000,5,-0.5958861709,,,
43.8437500000,5,-0.8290405273,,,
43.8593750000,5,-0.8375853896,,,
43.8750000000,5,-0.6279296875,,,
43.8906250000,5,-0.2779541016,,,
43.9062500000,5,0.1290894002,,,
43.9218750000,5,0.5300292969,,,
43.9375000000,5,0.8675537109,,,
43.9531250000,5,1.0581049919,,,
43.9687500000,5,1.0082399845,,,
43.9843750000,5,0.6640625000,,,
44.0000000000,5,0.0548095703,,,
44.0156250000,5,-0.6703491211,,,
44.0312500000,5,-1.2898559570,,,
44.0468750000,5,-1.5847779512,,,
44.0625000000,5,-1.4462280273,,,
44.0781250000,5,-0.9091187119,,,
44.0937500000,5,-0.1439208984,,,
44.1093750000,5,0.6273192763,,,
44.1250000000,5,1.2174680233,,,
44.1406250000,5,1.5330810547,,,
44.1562500000,5,1.5972290039,,,
44.1718750000,5,1.5165410042,,,
44.1875000000,5,1.4232790470,,,
44.2031250000,5,1.4150999784,,,
44.2187500000,5,1.5228270292,,,
44.2343750000,5,1.6839599609,,,
44.2500000000,5,1.7910159826,,,
44.2656250000,5,1.7202759981,,,
44.2812500000,5,1.4040529728,,,
44.2968750000,5,0.8701171875,,,
44.3125000000,5,0.2138061970,,,
44.3281250000,5,-0.4331665039,,,
44.3437500000,5,-0.9611206055,,,
44.3593750000,5,-1.3185420036,,,
44.3750000000,5,-1.4905400276,,,
44.3906250000,5,-1.5057369471,,,
44.4062500000,5,-1.4315190315,,,
44.4218750000,5,-1.3328249454,,,
44.4375000000,5,-1.2673339844,,,
44.4531250000,5,-1.2604370117,,,
44.4687500000,5,-1.3057249784,,,
44.4843750000,5,-1.3365479708,,,
44.5000000000,5,-1.2830200195,,,
44.5156250000,5,-1.0986939669,,,
44.5312500000,5,-0.7821655273,,,
44.5468750000,5,-0.3754883111,,,
44.5625000000,5,0.0386352502,,,
44.5781250000,5,0.3879395127,,,
44.5937500000,5,0.6046752930,,,
44.6093750000,5,0.6484375000,,,
44.6250000000,5,0.5244750977,,,
44.6406250000,5,0.2808837891,,,
44.6562500000,5,-0.0031738279,,,
44.6718750000,5,-0.2190552056,,,
44.6875000000,5,-0.2752074897,,,
44.7031250000,5,-0.1382445991,,,
44.7187500000,5,0.1479492038,,,
44.7343750000,5,0.4633179009,,,
44.7500000000,5,0.6892700195,,,
44.7656250000,5,0.7465819716,,,
44.7812500000,5,0.6288452148,,,
44.7968750000,5,0.3900145888,,,
44.8125000000,5,0.1008301005,,,
44.8281250000,5,-0.1834716946,,,
44.8437500000,5,-0.4282226861,,,
44.8593750000,5,-0.6231688857,,,
44.8750000000,5,-0.7473145127,,,
44.8906250000,5,-0.7697144151,,,
44.9062500000,5,-0.6705322266,,,
44.9218750000,5,-0.4603882134,,,
44.9375000000,5,-0.1709595025,,,
44.9531250000,5,0.1392212063,,,
44.9687500000,5,0.4062500000,,,
44.9843750000,5,0.6061400771,,,
45.0000000000,5,0.7343750000,,,
45.0156250000,5,0.7972412109,,,
45.0312500000,5,0.7999877930,,,
45.0468750000,5,0.7273560166,,,
45.0625000000,5,0.5653687119,,,
45.0781250000,5,0.3164672852,,,
45.0937500000,5,0.0341186486,,,
45.1093750000,5,-0.1956177056,,,
45.1250000000,5,-0.3037720025,,,
45.1406250000,5,-0.2708739936,,,
45.1562500000,5,-0.1604613960,,,
45.1718750000,5,-0.0877685472,,,
45.1875000000,5,-0.1509398967,,,
45.2031250000,5,-0.3720093071,,,
45.2187500000,5,-0.6703491211,,,
45.2343750000,5,-0.9205322266,,,
45.2500000000,5,-1.0281980038,,,
45.2656250000,5,-0.9943236709,,,
45.2812500000,5,-0.9097290039,,,
45.2968750000,5,-0.8881226182,,,
45.3125000000,5,-0.9873046875,,,
45.3281250000,5,-1.1579589844,,,
45.3437500000,5,-1.2609859705,,,
45.3593750000,5,-1.1508179903,,,
45.3750000000,5,-0.7739257813,,,
45.3906250000,5,-0.1920166016,,,
45.4062500000,5,0.4440917969,,,
45.4218750000,5,0.9607543945,,,
45.4375000000,5,1.2379150391,,,
45.4531250000,5,1.2282710075,,,
45.4687500000,5,0.9553223252,,,
45.4843750000,5,0.4984130859,,,
45.5000000000,5,-0.0468139611,,,
45.5156250000,5,-0.5791016221,,,
45.5312500000,5,-0.9982910156,,,
45.5468750000,5,-1.2324219942,,,
45.5625000000,5,-1.2371829748,,,
45.5781250000,5,-1.0105589628,,,
45.5937500000,5,-0.6007080078,,,
45.6093750000,5,-0.0751953125,,,
45.6250000000,5,0.4651488960,,,
45.6406250000,5,0.9238281250,,,
45.6562500000,5,1.2150269747,,,
45.6718750000,5,1.2905880213,,,
45.6875000000,5,1.1586910486,,,
45.7031250000,5,0.8695678711,,,
45.7187500000,5,0.5089722276,,,
45.7343750000,5,0.1515502930,,,
45.7500000000,5,-0.1572266072,,,
45.7656250000,5,-0.4171752930,,,
45.7812500000,5,-0.6355590820,,,
45.7968750000,5,-0.7952271104,,,
45.8125000000,5,-0.8469849229,,,
45.8281250000,5,-0.7328491211,,,
45.8437500000,5,-0.4381713867,,,
45.8593750000,5,0.0006713867,,,
45.8750000000,5,0.4677734077,,,
45.8906250000,5,0.8287354112,,,
45.9062500000,5,0.9838867188,,,
45.9218750000,5,0.9326782227,,,
45.9375000000,5,0.7606812119,,,
45.9531250000,5,0.5841674805,,,
45.9687500000,5,0.4898681939,,,
45.9843750000,5,0.4827271104,,,
46.0000000000,5,0.4779663086,,,
46.0156250000,5,0.3767090142,,,
46.0312500000,5,0.1356201023,,,
46.0468750000,5,-0.2049560994,,,
46.0625000000,5,-0.5229492188,,,
46.0781250000,5,-0.6888427734,,,
46.0937500000,5,-0.6535034180,,,
46.1093750000,5,-0.4685668945,,,
46.1250000000,5,-0.2717284858,,,
46.1406250000,5,-0.1732178032,,,
46.1562500000,5,-0.2064819038,,,
46.1718750000,5,-0.2953490913,,,
46.1875000000,5,-0.3043212891,,,
46.2031250000,5,-0.1413574070,,,
46.2187500000,5,0.1804810017,,,
46.2343750000,5,0.5356444716,,,
46.2500000000,5,0.7479248047,,,
46.2656250000,5,0.6865233779,,,
46.2812500000,5,0.3458251953,,,
46.2968750000,5,-0.1693726033,,,
46.3125000000,5,-0.6724243164,,,
46.3281250000,5,-0.9832764268,,,
46.3437500000,5,-1.0208740234,,,
46.3593750000,5,-0.8249511719,,,
46.3750000000,5,-0.5308837891,,,
46.3906250000,5,-0.2857055962,,,
46.4062500000,5,-0.1826781929,,,
46.4218750000,5,-0.2186889946,,,
46.4375000000,5,-0.3163452148,,,
46.4531250000,5,-0.3858031929,,,
46.4687500000,5,-0.3668212891,,,
46.4843750000,5,-0.2582396865,,,
46.5000000000,5,-0.1036987007,,,
46.5156250000,5,0.0526123010,,,
46.5312500000,5,0.1878052056,,,
46.5468750000,5,0.2819213867,,,
46.5625000000,5,0.3326416016,,,
46.5781250000,5,0.3345336914,,,
46.5937500000,5,0.2891235054,,,
46.6093750000,5,0.2300415039,,,
46.6250000000,5,0.2102050930,,,
46.6406250000,5,0.3026123047,,,
46.6562500000,5,0.5216063857,,,
46.6718750000,5,0.8103638291,,,
46.6875000000,5,1.0540159941,,,
46.7031250000,5,1.1291500330,,,
46.7187500000,5,0.9622802734,,,
46.7343750000,5,0.5840454102,,,
46.7500000000,5,0.0925292969,,,
46.7656250000,5,-0.3950805962,,,
46.7812500000,5,-0.7857666016,,,
46.7968750000,5,-1.0578000546,,,
46.8125000000,5,-1.2541500330,,,
46.8281250000,5,-1.4321290255,,,
46.8437500000,5,-1.6097409725,,,
46.8593750000,5,-1.7559200525,,,
46.8750000000,5,-1.8046879768,,,
46.8906250000,5,-1.7028809786,,,
46.9062500000,5,-1.4506839514,,,
46.9218750000,5,-1.0913699865,,,
46.9375000000,5,-0.6862183213,,,
46.9531250000,5,-0.2670288086,,,
46.9687500000,5,0.1878661960,,,
46.9843750000,5,0.7111815810,,,
47.0000000000,5,1.2770390511,,,
47.0156250000,5,1.7886960506,,,
47.0312500000,5,2.0883789063,,,
47.0468750000,5,2.0345458984,,,
47.0625000000,5,1.5963129997,,,
47.0781250000,5,0.8798217773,,,
47.0937500000,5,0.0833740234,,,
47.1093750000,5,-0.5993041992,,,
47.1250000000,5,-1.0742189884,,,
47.1406250000,5,-1.3603520393,,,
47.1562500000,5,-1.5276490450,,,
47.1718750000,5,-1.6352540255,,,
47.1875000000,5,-1.6574709415,,,
47.2031250000,5,-1.5164790154,,,
47.2187500000,5,-1.1723020077,,,
47.2343750000,5,-0.6675415039,,,
47.2500000000,5,-0.1538085938,,,
47.2656250000,5,0.1990355998,,,
47.2812500000,5,0.2782593071,,,
47.2968750000,5,0.1048583984,,,
47.3125000000,5,-0.1962279975,,,
47.3281250000,5,-0.4680176079,,,
47.3437500000,5,-0.6172484756,,,
47.3593750000,5,-0.6420288086,,,
47.3750000000,5,-0.6044312119,,,
47.3906250000,5,-0.5701904297,,,
47.4062500000,5,-0.5627440810,,,
47.4218750000,5,-0.5495604873,,,
47.4375000000,5,-0.4764403999,,,
47.4531250000,5,-0.3396606147,,,
47.4687500000,5,-0.1837769002,,,
47.4843750000,5,-0.0778808594,,,
47.5000000000,5,-0.0963134766,,,
47.5156250000,5,-0.2670898139,,,
47.5312500000,5,-0.5596312881,,,
47.5468750000,5,-0.9025269151,,,
47.5625000000,5,-1.1919560432,,,
47.5781250000,5,-1.3212280273,,,
47.5937500000,5,-1.1918950081,,,
47.6093750000,5,-0.7576293945,,,
47.6250000000,5,-0.0256347694,,,
47.6406250000,5,0.8884888291,,,
47.6562500000,5,1.8087160587,,,
47.6718750000,5,2.5227661133,,,
47.6875000000,5,2.8665161133,,,
47.7031250000,5,2.7755739689,,,
47.7187500000,5,2.3105471134,,,
47.7343750000,5,1.6263430119,,,
47.7500000000,5,0.9083251953,,,
47.7656250000,5,0.3128052056,,,
47.7812500000,5,-0.0794677734,,,
47.7968750000,5,-0.2614136040,,,
47.8125000000,5,-0.2849731147,,,
47.8281250000,5,-0.2218018025,,,
47.8437500000,5,-0.1452637017,,,
47.8593750000,5,-0.1011962965,,,
47.8750000000,5,-0.0996093825,,,
47.8906250000,5,-0.1241455004,,,
47.9062500000,5,-0.1408081055,,,
47.9218750000,5,-0.1221923977,,,
47.9375000000,5,-0.0523071289,,,
47.9531250000,5,0.0366210900,,,
47.9687500000,5,0.0861816406,,,
47.9843750000,5,0.0236816406,,,
48.0000000000,6,-0.1784058064,,,
48.0156250000,6,-0.4979858100,,,
48.0312500000,6,-0.8452147841,,,
48.0468750000,6,-1.1138919592,,,
48.0625000000,6,-1.2365109921,,,
48.0781250000,6,-1.2214360237,,,
48.0937500000,6,-1.1453859806,,,
48.1093750000,6,-1.0933840275,,,
48.1250000000,6,-1.0858149529,,,
48.1406250000,6,-1.0819699764,,,
48.1562500000,6,-0.9799193740,,,
48.1718750000,6,-0.7050781250,,,
48.1875000000,6,-0.2606812119,,,
48.2031250000,6,0.2577514946,,,
48.2187500000,6,0.7200927734,,,
48.2343750000,6,1.0192869902,,,
48.2500000000,6,1.1528929472,,,
48.2656250000,6,1.2026369572,,,
48.2812500000,6,1.2625119686,,,
48.2968750000,6,1.3698120117,,,
48.3125000000,6,1.4901729822,,,
48.3281250000,6,1.5375369787,,,
48.3437500000,6,1.4579470158,,,
48.3593750000,6,1.2695310116,,,
48.3750000000,6,1.0630489588,,,
48.3906250000,6,0.9605712891,,,
48.4062500000,6,1.0407099724,,,
48.4218750000,6,1.2931519747,,,
48.4375000000,6,1.6198730469,,,
48.4531250000,6,1.8546140194,,,
48.4687500000,6,1.8649289608,,,
48.4843750000,6,1.5900269747,,,
48.5000000000,6,1.0813599825,,,
48.5156250000,6,0.4747925103,,,
48.5312500000,6,-0.0590820313,,,
48.5468750000,6,-0.3906250000,,,
48.5625000000,6,-0.4710693061,,,
48.5781250000,6,-0.3399657905,,,
48.5937500000,6,-0.1004028022,,,
48.6093750000,6,0.1205443963,,,
48.6250000000,6,0.2473144978,,,
48.6406250000,6,0.2632445991,,,
48.6562500000,6,0.2271728963,,,
48.6718750000,6,0.2319335938,,,
48.6875000000,6,0.3452759087,,,
48.7031250000,6,0.5723267198,,,
48.7187500000,6,0.8344727159,,,
48.7343750000,6,1.0004880428,,,
48.7500000000,6,0.9622802734,,,
48.7656250000,6,0.7067871094,,,
48.7812500000,6,0.3146362007,,,
48.7968750000,6,-0.0802612305,,,
48.8125000000,6,-0.3763428032,,,
48.8281250000,6,-0.5713500977,,,
48.8437500000,6,-0.7248535156,,,
48.8593750000,6,-0.8867797852,,,
48.8750000000,6,-1.0203249454,,,
48.8906250000,6,-0.9981688857,,,
48.9062500000,6,-0.6918944716,,,
48.9218750000,6,-0.1040038988,,,
48.9375000000,6,0.6043090820,,,
48.9531250000,6,1.1574709415,,,
48.9687500000,6,1.3286130428,,,
48.9843750000,6,1.0559079647,,,
49.0000000000,6,0.4587402046,,,
49.0156250000,6,-0.2380370945,,,
49.0312500000,6,-0.8247681260,,,
49.0468750000,6,-1.1835939884,,,
49.0625000000,6,-1.2982790470,,,
49.0781250000,6,-1.2197879553,,,
49.0937500000,6,-0.9948120117,,,
49.1093750000,6,-0.6826171875,,,
49.1250000000,6,-0.3576050103,,,
49.1406250000,6,-0.1278686970,,,
49.1562500000,6,-0.0960693434,,,
49.1718750000,6,-0.3166503906,,,
49.1875000000,6,-0.7246093750,,,
49.2031250000,6,-1.1714479923,,,
49.2187500000,6,-1.4716800451,,,
49.2343750000,6,-1.4985959530,,,
49.2500000000,6,-1.2293699980,,,
49.2656250000,6,-0.7411499023,,,
49.2812500000,6,-0.1737060994,,,
49.2968750000,6,0.3067016900,,,
49.3125000000,6,0.5595092773,,,
49.3281250000,6,0.5183715820,,,
49.3437500000,6,0.2182617038,,,
49.3593750000,6,-0.2039185017,,,
49.3750000000,6,-0.5683593750,,,
49.3906250000,6,-0.7191162109,,,
49.4062500000,6,-0.5928955078,,,
49.4218750000,6,-0.2514038086,,,
49.4375000000,6,0.1686401069,,,
49.4531250000,6,0.5127562881,,,
49.4687500000,6,0.6851196289,,,
49.4843750000,6,0.6811522841,,,
49.5000000000,6,0.5800170898,,,
49.5156250000,6,0.4677124023,,,
49.5312500000,6,0.4027099907,,,
49.5468750000,6,0.3897095025,,,
49.5625000000,6,0.4028930962,,,
49.5781250000,6,0.4111328125,,,
49.5937500000,6,0.4161376953,,,
49.6093750000,6,0.4452514946,,,
49.6250000000,6,0.5078125000,,,
49.6406250000,6,0.5967407227,,,
49.6562500000,6,0.6830443740,,,
49.6718750000,6,0.7075194716,,,
49.6875000000,6,0.6353759766,,,
49.7031250000,6,0.4367676079,,,
49.7187500000,6,0.1448975056,,,
49.7343750000,6,-0.1766968071,,,
49.7500000000,6,-0.4392090142,,,
49.7656250000,6,-0.5643311143,,,
49.7812500000,6,-0.5151367188,,,
49.7968750000,6,-0.3349609077,,,
49.8125000000,6,-0.1269530952,,,
49.8281250000,6,-0.0138549795,,,
49.8437500000,6,-0.0760497972,,,
49.8593750000,6,-0.3181762993,,,
49.8750000000,6,-0.6671143174,,,
49.8906250000,6,-1.0003050566,,,
49.9062500000,6,-1.1971440315,,,
49.9218750000,6,-1.1883540154,,,
49.9375000000,6,-0.9670410156,,,
49.9531250000,6,-0.5775145888,,,
49.9687500000,6,-0.0812377930,,,
49.9843750000,6,0.4406737983,,,
50.0000000000,6,0.9277343750,,,
50.0156250000,6,1.3226319551,,,
50.0312500000,6,1.5936889648,,,
50.0468750000,6,1.7370610237,,,
50.0625000000,6,1.7827759981,,,
50.0781250000,6,1.7743530273,,,
50.0937500000,6,1.7361450195,,,
50.1093750000,6,1.6657710075,,,
50.1250000000,6,1.5197750330,,,
50.1406250000,6,1.2608640194,,,
50.1562500000,6,0.8875122070,,,
50.1718750000,6,0.4541015923,,,
50.1875000000,6,0.0658569336,,,
50.2031250000,6,-0.1915894002,,,
50.2187500000,6,-0.2792358100,,,
50.2343750000,6,-0.2301024944,,,
50.2500000000,6,-0.1296997070,,,
50.2656250000,6,-0.0811157227,,,
50.2812500000,6,-0.1257324070,,,
50.2968750000,6,-0.2622070014,,,
50.3125000000,6,-0.4502562881,,,
50.3281250000,6,-0.6493530273,,,
50.3437500000,6,-0.8260498047,,,
50.3593750000,6,-0.9663085938,,,
50.3750000000,6,-1.0495610237,,,
50.3906250000,6,-1.0494379997,,,
50.4062500000,6,-0.9496459961,,,
50.4218750000,6,-0.7786865234,,,
50.4375000000,6,-0.6038817763,,,
50.4531250000,6,-0.5147094727,,,
50.4687500000,6,-0.5534667969,,,
50.4843750000,6,-0.7033081055,,,
50.5000000000,6,-0.8656616211,,,
50.5156250000,6,-0.9377440810,,,
50.5312500000,6,-0.8757935166,,,
50.5468750000,6,-0.7241821289,,,
50.5625000000,6,-0.5886840820,,,
50.5781250000,6,-0.5626831055,,,
50.5937500000,6,-0.6614990234,,,
50.6093750000,6,-0.8255615234,,,
50.6250000000,6,-0.9583129883,,,
50.6406250000,6,-0.9790039063,,,
50.6562500000,6,-0.8917235732,,,
50.6718750000,6,-0.7523803711,,,
50.6875000000,6,-0.6214600205,,,
50.7031250000,6,-0.5252686143,,,
50.7187500000,6,-0.4291382134,,,
50.7343750000,6,-0.2578125000,,,
50.7500000000,6,0.0308837909,,,
50.7656250000,6,0.3984985054,,,
50.7812500000,6,0.7536010742,,,
50.7968750000,6,0.9851074219,,,
50.8125000000,6,1.0493769646,,,
50.8281250000,6,0.9942017198,,,
50.8437500000,6,0.9425048828,,,
50.8593750000,6,1.0063480139,,,
50.8750000000,6,1.2112430334,,,
50.8906250000,6,1.4572139978,,,
50.9062500000,6,1.5833129883,,,
50.9218750000,6,1.4465939999,,,
50.9375000000,6,1.0202029943,,,
50.9531250000,6,0.4195556939,,,
50.9687500000,6,-0.1615601033,,,
50.9843750000,6,-0.5703734756,,,
51.0000000000,6,-0.7376708984,,,
51.0156250000,6,-0.6868895888,,,
51.0312500000,6,-0.4945679009,,,
51.0468750000,6,-0.2107543945,,,
51.0625000000,6,0.1498412937,,,
51.0781250000,6,0.5666503906,,,
51.0937500000,6,1.0011600256,,,
51.1093750000,6,1.3488769531,,,
51.1250000000,6,1.4962769747,,,
51.1406250000,6,1.3759770393,,,
51.1562500000,6,1.0181879997,,,
51.1718750000,6,0.5338134766,,,
51.1875000000,6,0.0631103516,,,
51.2031250000,6,-0.2963866889,,,
51.2187500000,6,-0.5209351182,,,
51.2343750000,6,-0.6350098252,,,
51.2500000000,6,-0.6899414063,,,
51.2656250000,6,-0.7280272841,,,
51.2812500000,6,-0.7746582031,,,
51.2968750000,6,-0.8447875977,,,
51.3125000000,6,-0.9317626953,,,
51.3281250000,6,-1.0173339844,,,
51.3437500000,6,-1.0520019531,,,
51.3593750000,6,-0.9998168945,,,
51.3750000000,6,-0.8610228896,,,
51.3906250000,6,-0.6904907227,,,
51.4062500000,6,-0.5571898818,,,
51.4218750000,6,-0.5261840820,,,
51.4375000000,6,-0.5944824219,,,
51.4531250000,6,-0.6920775771,,,
51.4687500000,6,-0.7277832031,,,
51.4843750000,6,-0.6469116211,,,
51.5000000000,6,-0.4744262993,,,
51.5156250000,6,-0.2973633111,,,
51.5312500000,6,-0.2207030952,,,
51.5468750000,6,-0.2888183892,,,
51.5625000000,6,-0.4611206055,,,
51.5781250000,6,-0.6404418945,,,
51.5937500000,6,-0.7058104873,,,
51.6093750000,6,-0.5978394151,,,
51.6250000000,6,-0.3383789063,,,
51.6406250000,6,-0.0343627892,,,
51.6562500000,6,0.1976929009,,,
51.6718750000,6,0.2883301079,,,
51.6875000000,6,0.2605591118,,,
51.7031250000,6,0.2209472954,,,
51.7187500000,6,0.3020020127,,,
51.7343750000,6,0.5744628906,,,
51.7500000000,6,0.9883422852,,,
51.7656250000,6,1.3999019861,,,
51.7812500000,6,1.6406250000,,,
51.7968750000,6,1.6099239588,,,
51.8125000000,6,1.3289790154,,,
51.8281250000,6,0.9121704102,,,
51.8437500000,6,0.5127562881,,,
51.8593750000,6,0.2205200046,,,
51.8750000000,6,0.0363769494,,,
51.8906250000,6,-0.1178589016,,,
51.9062500000,6,-0.3144530952,,,
51.9218750000,6,-0.5894774795,,,
51.9375000000,6,-0.9057006836,,,
51.9531250000,6,-1.1723020077,,,
51.9687500000,6,-1.2985839844,,,
51.9843750000,6,-1.2426149845,,,
52.0000000000,6,-1.0188599825,,,
52.0156250000,6,-0.7050170898,,,
52.0312500000,6,-0.3966675103,,,
52.0468750000,6,-0.1671143025,,,
52.0625000000,6,-0.0346679688,,,
52.0781250000,6,0.0270996094,,,
52.0937500000,6,0.0537109412,,,
52.1093750000,6,0.0825195313,,,
52.1250000000,6,0.1138916016,,,
52.1406250000,6,0.1314696968,,,
52.1562500000,6,0.1182861030,,,
52.1718750000,6,0.0859375000,,,
52.1875000000,6,0.0568237305,,,
52.2031250000,6,0.0510864295,,,
52.2187500000,6,0.0683593825,,,
52.2343750000,6,0.0802002028,,,
52.2500000000,6,0.0331420898,,,
52.2656250000,6,-0.1209105998,,,
52.2812500000,6,-0.3852539063,,,
52.2968750000,6,-0.7042847276,,,
52.3125000000,6,-0.9890747070,,,
52.3281250000,6,-1.1692500114,,,
52.3437500000,6,-1.2012330294,,,
52.3593750000,6,-1.1213380098,,,
52.3750000000,6,-0.9987792969,,,
52.3906250000,6,-0.8993530273,,,
52.4062500000,6,-0.8546143174,,,
52.4218750000,6,-0.8394774795,,,
52.4375000000,6,-0.8196411133,,,
52.4531250000,6,-0.7472534180,,,
52.4687500000,6,-0.6196898818,,,
52.4843750000,6,-0.4638671875,,,
52.5000000000,6,-0.3068847954,,,
52.5156250000,6,-0.1596069038,,,
52.5312500000,6,0.0077514648,,,
52.5468750000,6,0.2093506008,,,
52.5625000000,6,0.4534912109,,,
52.5781250000,6,0.7095336914,,,
52.5937500000,6,0.9071044922,,,
52.6093750000,6,0.9879149795,,,
52.6250000000,6,0.9211425781,,,
52.6406250000,6,0.7376099229,,,
52.6562500000,6,0.4934692085,,,
52.6718750000,6,0.2476806939,,,
52.6875000000,6,0.0249023400,,,
52.7031250000,6,-0.1751098931,,,
52.7187500000,6,-0.3750000000,,,
52.7343750000,6,-0.5704345703,,,
52.7500000000,6,-0.7225952148,,,
52.7656250000,6,-0.7698364258,,,
52.7812500000,6,-0.6694946289,,,
52.7968750000,6,-0.4352416992,,,
52.8125000000,6,-0.1287841946,,,
52.8281250000,6,0.1401977986,,,
52.8437500000,6,0.3070679009,,,
52.8593750000,6,0.3636474907,,,
52.8750000000,6,0.3616333008,,,
52.8906250000,6,0.3692016900,,,
52.9062500000,6,0.3907471001,,,
52.9218750000,6,0.3693237007,,,
52.9375000000,6,0.2038574070,,,
52.9531250000,6,-0.1390381008,,,
52.9687500000,6,-0.5964354873,,,
52.9843750000,6,-1.0003659725,,,
53.0000000000,6,-1.1749269962,,,
53.0156250000,6,-1.0527340174,,,
53.0312500000,6,-0.6958007813,,,
53.0468750000,6,-0.3024902046,,,
53.0625000000,6,-0.0798339769,,,
53.0781250000,6,-0.1546631008,,,
53.0937500000,6,-0.4898070991,,,
53.1093750000,6,-0.9161376953,,,
53.1250000000,6,-1.2185670137,,,
53.1406250000,6,-1.2401119471,,,
53.1562500000,6,-0.9489135742,,,
53.1718750000,6,-0.4336547852,,,
53.1875000000,6,0.1459351033,,,
53.2031250000,6,0.6499022841,,,
53.2187500000,6,0.9890747070,,,
53.2343750000,6,1.1431879997,,,
53.2500000000,6,1.1343990564,,,
53.2656250000,6,1.0051879883,,,
53.2812500000,6,0.7991333008,,,
53.2968750000,6,0.5396729112,,,
53.3125000000,6,0.2322387993,,,
53.3281250000,6,-0.1262207031,,,
53.3437500000,6,-0.5042114258,,,
53.3593750000,6,-0.8389282227,,,
53.3750000000,6,-1.0339970589,,,
53.3906250000,6,-0.9974976182,,,
53.4062500000,6,-0.7032470703,,,
53.4218750000,6,-0.2198486030,,,
53.4375000000,6,0.2807616889,,,
53.4531250000,6,0.6111450195,,,
53.4687500000,6,0.6483154297,,,
53.4843750000,6,0.4045409858,,,
53.5000000000,6,0.0422363319,,,
53.5156250000,6,-0.2214965969,,,
53.5312500000,6,-0.2140502930,,,
53.5468750000,6,0.0920410231,,,
53.5625000000,6,0.5947266221,,,
53.5781250000,6,1.1245729923,,,
53.5937500000,6,1.5374150276,,,
53.6093750000,6,1.7793580294,,,
53.6250000000,6,1.8692630529,,,
53.6406250000,6,1.8388060331,,,
53.6562500000,6,1.6982419491,,,
53.6718750000,6,1.4296879768,,,
53.6875000000,6,1.0125119686,,,
53.7031250000,6,0.4705199897,,,
53.7187500000,6,-0.1018676981,,,
53.7343750000,6,-0.5683593750,,,
53.7500000000,6,-0.8000488281,,,
53.7656250000,6,-0.7446898818,,,
53.7812500000,6,-0.4566040039,,,
53.7968750000,6,-0.0618896484,,,
53.8125000000,6,0.2833251953,,,
53.8281250000,6,0.4761353135,,,
53.8437500000,6,0.5075684190,,,
53.8593750000,6,0.4367676079,,,
53.8750000000,6,0.3562622070,,,
53.8906250000,6,0.3233031929,,,
53.9062500000,6,0.3400878906,,,
53.9218750000,6,0.3652954102,,,
53.9375000000,6,0.3502196968,,,
53.9531250000,6,0.2968750000,,,
53.9687500000,6,0.2546387017,,,
53.9843750000,6,0.2898559868,,,
54.0000000000,6,0.4364013970,,,
54.0156250000,6,0.6437377930,,,
54.0312500000,6,0.8134766221,,,
54.0468750000,6,0.8475341797,,,
54.0625000000,6,0.7005004883,,,
54.0781250000,6,0.4243774116,,,
54.0937500000,6,0.1225586012,,,
54.1093750000,6,-0.0859375000,,,
54.1250000000,6,-0.1129150018,,,
54.1406250000,6,0.0555419885,,,
54.1562500000,6,0.3850708008,,,
54.1718750000,6,0.7983397841,,,
54.1875000000,6,1.2155150175,,,
54.2031250000,6,1.5592039824,,,
54.2187500000,6,1.7810059786,,,
54.2343750000,6,1.8494869471,,,
54.2500000000,6,1.7657469511,,,
54.2656250000,6,1.5590209961,,,
54.2812500000,6,1.2540889978,,,
54.2968750000,6,0.8915405273,,,
54.3125000000,6,0.4992065132,,,
54.3281250000,6,0.1124878004,,,
54.3437500000,6,-0.2460326999,,,
54.3593750000,6,-0.5639038086,,,
54.3750000000,6,-0.8527222276,,,
54.3906250000,6,-1.1461789608,,,
54.4062500000,6,-1.4629520178,,,
54.4218750000,6,-1.7885739803,,,
54.4375000000,6,-2.0586550236,,,
54.4531250000,6,-2.1853029728,,,
54.4687500000,6,-2.1135859489,,,
54.4843750000,6,-1.8555300236,,,
54.5000000000,6,-1.4744869471,,,
54.5156250000,6,-1.0499880314,,,
54.5312500000,6,-0.6502075195,,,
54.5468750000,6,-0.2892456055,,,
54.5625000000,6,0.0466918908,,,
54.5781250000,6,0.3753662109,,,
54.5937500000,6,0.6891478896,,,
54.6093750000,6,0.9436646104,,,
54.6250000000,6,1.0996090174,,,
54.6406250000,6,1.1284179688,,,
54.6562500000,6,1.0516970158,,,
54.6718750000,6,0.9131469727,,,
54.6875000000,6,0.7782592773,,,
54.7031250000,6,0.7039794922,,,
54.7187500000,6,0.7178955078,,,
54.7343750000,6,0.8130493164,,,
54.7500000000,6,0.9480590820,,,
54.7656250000,6,1.0831910372,,,
54.7812500000,6,1.1904909611,,,
54.7968750000,6,1.2531130314,,,
54.8125000000,6,1.2589110136,,,
54.8281250000,6,1.1661989689,,,
54.8437500000,6,0.9097899795,,,
54.8593750000,6,0.4464111030,,,
54.8750000000,6,-0.1860962063,,,
54.8906250000,6,-0.8429564834,,,
54.9062500000,6,-1.3046259880,,,
54.9218750000,6,-1.3776249886,,,
54.9375000000,6,-1.0102540255,,,
54.9531250000,6,-0.3152466118,,,
54.9687500000,6,0.4625244141,,,
54.9843750000,6,1.0571899414,,,
55.0000000000,6,1.2963869572,,,
55.0156250000,6,1.1762700081,,,
55.0312500000,6,0.8125000000,,,
55.0468750000,6,0.3715209961,,,
55.0625000000,6,-0.0216064509,,,
55.0781250000,6,-0.3305054009,,,
55.0937500000,6,-0.5756835938,,,
55.1093750000,6,-0.7935181260,,,
55.1250000000,6,-0.9818115234,,,
55.1406250000,6,-1.1111450195,,,
55.1562500000,6,-1.1431269646,,,
55.1718750000,6,-1.0742189884,,,
55.1875000000,6,-0.9418334961,,,
55.2031250000,6,-0.8051146865,,,
55.2187500000,6,-0.7484130859,,,
55.2343750000,6,-0.8092650771,,,
55.2500000000,6,-1.0119630098,,,
55.2656250000,6,-1.3170779943,,,
55.2812500000,6,-1.6336059570,,,
55.2968750000,6,-1.8264770508,,,
55.3125000000,6,-1.7506710291,,,
55.3281250000,6,-1.3265990019,,,
55.3437500000,6,-0.5902100205,,,
55.3593750000,6,0.2754516900,,,
55.3750000000,6,1.0227659941,,,
55.3906250000,6,1.4240109921,,,
55.4062500000,6,1.4044799805,,,
55.4218750000,6,1.0628050566,,,
55.4375000000,6,0.6154785156,,,
55.4531250000,6,0.2767944038,,,
55.4687500000,6,0.1424560994,,,
55.4843750000,6,0.1793213040,,,
55.5000000000,6,0.2630614936,,,
55.5156250000,6,0.2867431939,,,
55.5312500000,6,0.2004394978,,,
55.5468750000,6,0.0130004901,,,
55.5625000000,6,-0.2191161960,,,
55.5781250000,6,-0.4592896104,,,
55.5937500000,6,-0.6676635742,,,
55.6093750000,6,-0.8120728135,,,
55.6250000000,6,-0.8721923828,,,
55.6406250000,6,-0.8475341797,,,
55.6562500000,6,-0.7749633789,,,
55.6718750000,6,-0.7209473252,,,
55.6875000000,6,-0.7369384766,,,
55.7031250000,6,-0.8265380859,,,
55.7187500000,6,-0.9531250000,,,
55.7343750000,6,-1.0245970488,,,
55.7500000000,6,-0.9754027724,,,
55.7656250000,6,-0.7877197266,,,
55.7812500000,6,-0.5003051758,,,
55.7968750000,6,-0.1844481975,,,
55.8125000000,6,0.0831298828,,,
55.8281250000,6,0.2732543945,,,
55.8437500000,6,0.4089354873,,,
55.8593750000,6,0.5169677734,,,
55.8750000000,6,0.6313477159,,,
55.8906250000,6,0.7261962891,,,
55.9062500000,6,0.7606812119,,,
55.9218750000,6,0.6802368164,,,
55.9375000000,6,0.4870604873,,,
55.9531250000,6,0.2265014946,,,
55.9687500000,6,-0.0134277297,,,
55.9843750000,6,-0.1575928032,,,
56.0000000000,7,-0.1727295071,,,
56.0156250000,7,-0.0834960863,,,
56.0312500000,7,0.0424194299,,,
56.0468750000,7,0.1182861030,,,
56.0625000000,7,0.1164551005,,,
56.0781250000,7,0.0590209998,,,
56.0937500000,7,0.0246581994,,,
56.1093750000,7,0.0949096680,,,
56.1250000000,7,0.2937622070,,,
56.1406250000,7,0.5602416992,,,
56.1562500000,7,0.7837523818,,,
56.1718750000,7,0.8480225205,,,
56.1875000000,7,0.7116699219,,,
56.2031250000,7,0.4248656929,,,
